FW version: 24
Log Version: 3.0.3

General Info:
       Command/Macro Performed,            Timestamp,             Device ID, COM Port, UART/I2C, Test Name, Host Major, Host Minor, Host Revision, Host Git Commit
            Single_measurement,  2023_07_18_11_11_04,       Insight2_F4_xxx,    USB-C,      USB,          ,          0,          1,             1,      4031237645

Show Spectrometer Status:
l0_version, f4_version, battery_perc, battery_mVolt, accelerometer_temp, accelerometer_x, accelerometer_y, accelerometer_z, compass_temp, compass_x, compass_y, compass_z, lamp_0, lamp_1, gain_0, gain_1
        17,         24,           75,          1996,               6416,           65244,            1344,           18972,            0,     65503,     65532,     19164,   2047,   2047,      1,      1

Temperature Statistic Info:
NTC AVG [°C], NTC2 AVG [°C]
      39.587,        39.293

Statistic Info:
M1:  num,      min,      max,   median,      AVG,      STD,M2:  num,      min,      max,   median,      AVG,      STD
     301,   949.00,  1111.00,   982.00,  1002.80,  51.4441,     401,  1377.00,  1474.00,  1415.00,  1418.93,  31.3630,

Measurements:
Wavelength, Data Amplitude
1350, 976.00
1351, 977.00
1352, 975.00
1353, 975.00
1354, 974.00
1355, 973.00
1356, 974.00
1357, 973.00
1358, 971.00
1359, 971.00
1360, 971.00
1361, 970.00
1362, 968.00
1363, 969.00
1364, 967.00
1365, 967.00
1366, 967.00
1367, 966.00
1368, 965.00
1369, 964.00
1370, 964.00
1371, 963.00
1372, 961.00
1373, 961.00
1374, 961.00
1375, 960.00
1376, 959.00
1377, 959.00
1378, 957.00
1379, 958.00
1380, 956.00
1381, 956.00
1382, 955.00
1383, 955.00
1384, 955.00
1385, 955.00
1386, 953.00
1387, 954.00
1388, 953.00
1389, 954.00
1390, 953.00
1391, 953.00
1392, 952.00
1393, 952.00
1394, 952.00
1395, 951.00
1396, 951.00
1397, 950.00
1398, 951.00
1399, 950.00
1400, 949.00
1401, 950.00
1402, 951.00
1403, 950.00
1404, 950.00
1405, 950.00
1406, 949.00
1407, 949.00
1408, 950.00
1409, 949.00
1410, 949.00
1411, 950.00
1412, 949.00
1413, 949.00
1414, 950.00
1415, 950.00
1416, 949.00
1417, 949.00
1418, 949.00
1419, 949.00
1420, 950.00
1421, 949.00
1422, 949.00
1423, 949.00
1424, 950.00
1425, 949.00
1426, 950.00
1427, 950.00
1428, 949.00
1429, 950.00
1430, 949.00
1431, 950.00
1432, 950.00
1433, 950.00
1434, 951.00
1435, 951.00
1436, 951.00
1437, 951.00
1438, 952.00
1439, 952.00
1440, 953.00
1441, 953.00
1442, 953.00
1443, 952.00
1444, 953.00
1445, 954.00
1446, 953.00
1447, 954.00
1448, 954.00
1449, 954.00
1450, 955.00
1451, 955.00
1452, 956.00
1453, 957.00
1454, 957.00
1455, 956.00
1456, 957.00
1457, 957.00
1458, 957.00
1459, 958.00
1460, 958.00
1461, 959.00
1462, 960.00
1463, 959.00
1464, 960.00
1465, 961.00
1466, 962.00
1467, 963.00
1468, 963.00
1469, 962.00
1470, 964.00
1471, 963.00
1472, 965.00
1473, 965.00
1474, 965.00
1475, 966.00
1476, 967.00
1477, 967.00
1478, 968.00
1479, 969.00
1480, 970.00
1481, 970.00
1482, 971.00
1483, 971.00
1484, 972.00
1485, 972.00
1486, 973.00
1487, 974.00
1488, 973.00
1489, 975.00
1490, 976.00
1491, 976.00
1492, 976.00
1493, 979.00
1494, 977.00
1495, 979.00
1496, 979.00
1497, 980.00
1498, 981.00
1499, 982.00
1500, 983.00
1501, 983.00
1502, 982.00
1503, 985.00
1504, 985.00
1505, 986.00
1506, 987.00
1507, 987.00
1508, 988.00
1509, 989.00
1510, 989.00
1511, 990.00
1512, 991.00
1513, 992.00
1514, 993.00
1515, 993.00
1516, 995.00
1517, 996.00
1518, 996.00
1519, 997.00
1520, 997.00
1521, 999.00
1522, 999.00
1523, 1000.00
1524, 1002.00
1525, 1001.00
1526, 1003.00
1527, 1004.00
1528, 1003.00
1529, 1005.00
1530, 1006.00
1531, 1006.00
1532, 1007.00
1533, 1009.00
1534, 1010.00
1535, 1010.00
1536, 1012.00
1537, 1011.00
1538, 1013.00
1539, 1013.00
1540, 1014.00
1541, 1015.00
1542, 1016.00
1543, 1017.00
1544, 1018.00
1545, 1020.00
1546, 1020.00
1547, 1020.00
1548, 1021.00
1549, 1022.00
1550, 1023.00
1551, 1024.00
1552, 1025.00
1553, 1025.00
1554, 1027.00
1555, 1028.00
1556, 1028.00
1557, 1030.00
1558, 1030.00
1559, 1031.00
1560, 1033.00
1561, 1032.00
1562, 1034.00
1563, 1035.00
1564, 1036.00
1565, 1036.00
1566, 1036.00
1567, 1038.00
1568, 1040.00
1569, 1040.00
1570, 1041.00
1571, 1042.00
1572, 1043.00
1573, 1044.00
1574, 1045.00
1575, 1045.00
1576, 1046.00
1577, 1047.00
1578, 1048.00
1579, 1049.00
1580, 1050.00
1581, 1050.00
1582, 1052.00
1583, 1052.00
1584, 1053.00
1585, 1053.00
1586, 1055.00
1587, 1056.00
1588, 1057.00
1589, 1058.00
1590, 1058.00
1591, 1059.00
1592, 1060.00
1593, 1060.00
1594, 1060.00
1595, 1062.00
1596, 1063.00
1597, 1064.00
1598, 1065.00
1599, 1065.00
1600, 1067.00
1601, 1067.00
1602, 1068.00
1603, 1069.00
1604, 1070.00
1605, 1070.00
1606, 1072.00
1607, 1072.00
1608, 1073.00
1609, 1075.00
1610, 1075.00
1611, 1077.00
1612, 1078.00
1613, 1079.00
1614, 1080.00
1615, 1082.00
1616, 1081.00
1617, 1082.00
1618, 1084.00
1619, 1084.00
1620, 1086.00
1621, 1088.00
1622, 1089.00
1623, 1089.00
1624, 1090.00
1625, 1091.00
1626, 1092.00
1627, 1094.00
1628, 1094.00
1629, 1095.00
1630, 1096.00
1631, 1097.00
1632, 1098.00
1633, 1098.00
1634, 1099.00
1635, 1101.00
1636, 1101.00
1637, 1102.00
1638, 1102.00
1639, 1103.00
1640, 1104.00
1641, 1105.00
1642, 1105.00
1643, 1106.00
1644, 1107.00
1645, 1107.00
1646, 1108.00
1647, 1109.00
1648, 1109.00
1649, 1111.00
1650, 1111.00

1750, 1472.00
1751, 1470.00
1752, 1471.00
1753, 1471.00
1754, 1473.00
1755, 1472.00
1756, 1473.00
1757, 1470.00
1758, 1471.00
1759, 1474.00
1760, 1471.00
1761, 1472.00
1762, 1472.00
1763, 1472.00
1764, 1473.00
1765, 1472.00
1766, 1472.00
1767, 1472.00
1768, 1470.00
1769, 1469.00
1770, 1471.00
1771, 1469.00
1772, 1469.00
1773, 1470.00
1774, 1469.00
1775, 1468.00
1776, 1467.00
1777, 1469.00
1778, 1468.00
1779, 1468.00
1780, 1469.00
1781, 1468.00
1782, 1464.00
1783, 1467.00
1784, 1466.00
1785, 1465.00
1786, 1468.00
1787, 1467.00
1788, 1464.00
1789, 1464.00
1790, 1464.00
1791, 1464.00
1792, 1464.00
1793, 1463.00
1794, 1463.00
1795, 1461.00
1796, 1462.00
1797, 1464.00
1798, 1461.00
1799, 1462.00
1800, 1462.00
1801, 1461.00
1802, 1462.00
1803, 1461.00
1804, 1462.00
1805, 1463.00
1806, 1459.00
1807, 1459.00
1808, 1459.00
1809, 1458.00
1810, 1458.00
1811, 1458.00
1812, 1459.00
1813, 1457.00
1814, 1457.00
1815, 1457.00
1816, 1455.00
1817, 1455.00
1818, 1454.00
1819, 1454.00
1820, 1453.00
1821, 1451.00
1822, 1453.00
1823, 1450.00
1824, 1450.00
1825, 1450.00
1826, 1448.00
1827, 1449.00
1828, 1447.00
1829, 1446.00
1830, 1446.00
1831, 1445.00
1832, 1443.00
1833, 1443.00
1834, 1441.00
1835, 1441.00
1836, 1439.00
1837, 1438.00
1838, 1435.00
1839, 1435.00
1840, 1432.00
1841, 1432.00
1842, 1431.00
1843, 1430.00
1844, 1429.00
1845, 1427.00
1846, 1425.00
1847, 1422.00
1848, 1423.00
1849, 1420.00
1850, 1417.00
1851, 1416.00
1852, 1415.00
1853, 1413.00
1854, 1413.00
1855, 1411.00
1856, 1411.00
1857, 1410.00
1858, 1407.00
1859, 1407.00
1860, 1407.00
1861, 1403.00
1862, 1402.00
1863, 1401.00
1864, 1400.00
1865, 1399.00
1866, 1398.00
1867, 1395.00
1868, 1396.00
1869, 1395.00
1870, 1394.00
1871, 1396.00
1872, 1393.00
1873, 1392.00
1874, 1392.00
1875, 1391.00
1876, 1391.00
1877, 1390.00
1878, 1390.00
1879, 1389.00
1880, 1388.00
1881, 1387.00
1882, 1388.00
1883, 1385.00
1884, 1386.00
1885, 1385.00
1886, 1385.00
1887, 1385.00
1888, 1385.00
1889, 1385.00
1890, 1383.00
1891, 1383.00
1892, 1383.00
1893, 1382.00
1894, 1384.00
1895, 1383.00
1896, 1382.00
1897, 1382.00
1898, 1382.00
1899, 1380.00
1900, 1382.00
1901, 1380.00
1902, 1380.00
1903, 1379.00
1904, 1380.00
1905, 1378.00
1906, 1381.00
1907, 1381.00
1908, 1380.00
1909, 1380.00
1910, 1380.00
1911, 1379.00
1912, 1378.00
1913, 1379.00
1914, 1381.00
1915, 1381.00
1916, 1381.00
1917, 1380.00
1918, 1379.00
1919, 1378.00
1920, 1379.00
1921, 1381.00
1922, 1378.00
1923, 1379.00
1924, 1379.00
1925, 1378.00
1926, 1379.00
1927, 1379.00
1928, 1378.00
1929, 1378.00
1930, 1378.00
1931, 1377.00
1932, 1380.00
1933, 1379.00
1934, 1379.00
1935, 1378.00
1936, 1379.00
1937, 1377.00
1938, 1378.00
1939, 1379.00
1940, 1379.00
1941, 1381.00
1942, 1380.00
1943, 1379.00
1944, 1379.00
1945, 1380.00
1946, 1378.00
1947, 1379.00
1948, 1381.00
1949, 1380.00
1950, 1379.00
1951, 1381.00
1952, 1382.00
1953, 1381.00
1954, 1382.00
1955, 1382.00
1956, 1380.00
1957, 1381.00
1958, 1379.00
1959, 1380.00
1960, 1382.00
1961, 1384.00
1962, 1384.00
1963, 1382.00
1964, 1383.00
1965, 1383.00
1966, 1383.00
1967, 1383.00
1968, 1384.00
1969, 1384.00
1970, 1384.00
1971, 1385.00
1972, 1387.00
1973, 1387.00
1974, 1386.00
1975, 1385.00
1976, 1387.00
1977, 1387.00
1978, 1388.00
1979, 1387.00
1980, 1388.00
1981, 1389.00
1982, 1389.00
1983, 1391.00
1984, 1390.00
1985, 1388.00
1986, 1391.00
1987, 1390.00
1988, 1391.00
1989, 1390.00
1990, 1390.00
1991, 1391.00
1992, 1393.00
1993, 1392.00
1994, 1393.00
1995, 1391.00
1996, 1394.00
1997, 1394.00
1998, 1395.00
1999, 1395.00
2000, 1394.00
2001, 1395.00
2002, 1394.00
2003, 1394.00
2004, 1397.00
2005, 1397.00
2006, 1395.00
2007, 1397.00
2008, 1398.00
2009, 1398.00
2010, 1398.00
2011, 1399.00
2012, 1397.00
2013, 1398.00
2014, 1401.00
2015, 1399.00
2016, 1399.00
2017, 1401.00
2018, 1402.00
2019, 1401.00
2020, 1400.00
2021, 1402.00
2022, 1402.00
2023, 1403.00
2024, 1401.00
2025, 1404.00
2026, 1404.00
2027, 1404.00
2028, 1404.00
2029, 1405.00
2030, 1406.00
2031, 1405.00
2032, 1406.00
2033, 1405.00
2034, 1406.00
2035, 1407.00
2036, 1405.00
2037, 1408.00
2038, 1409.00
2039, 1409.00
2040, 1410.00
2041, 1409.00
2042, 1411.00
2043, 1409.00
2044, 1411.00
2045, 1412.00
2046, 1412.00
2047, 1413.00
2048, 1412.00
2049, 1415.00
2050, 1413.00
2051, 1416.00
2052, 1415.00
2053, 1415.00
2054, 1416.00
2055, 1417.00
2056, 1416.00
2057, 1417.00
2058, 1419.00
2059, 1420.00
2060, 1419.00
2061, 1421.00
2062, 1422.00
2063, 1421.00
2064, 1422.00
2065, 1422.00
2066, 1421.00
2067, 1424.00
2068, 1425.00
2069, 1427.00
2070, 1425.00
2071, 1426.00
2072, 1425.00
2073, 1427.00
2074, 1426.00
2075, 1428.00
2076, 1429.00
2077, 1429.00
2078, 1428.00
2079, 1428.00
2080, 1430.00
2081, 1431.00
2082, 1432.00
2083, 1431.00
2084, 1431.00
2085, 1433.00
2086, 1433.00
2087, 1433.00
2088, 1433.00
2089, 1434.00
2090, 1435.00
2091, 1435.00
2092, 1435.00
2093, 1436.00
2094, 1436.00
2095, 1437.00
2096, 1437.00
2097, 1438.00
2098, 1437.00
2099, 1439.00
2100, 1438.00
2101, 1438.00
2102, 1440.00
2103, 1441.00
2104, 1442.00
2105, 1439.00
2106, 1441.00
2107, 1441.00
2108, 1441.00
2109, 1442.00
2110, 1440.00
2111, 1441.00
2112, 1441.00
2113, 1441.00
2114, 1443.00
2115, 1443.00
2116, 1443.00
2117, 1444.00
2118, 1442.00
2119, 1445.00
2120, 1445.00
2121, 1443.00
2122, 1445.00
2123, 1446.00
2124, 1444.00
2125, 1446.00
2126, 1447.00
2127, 1446.00
2128, 1448.00
2129, 1447.00
2130, 1446.00
2131, 1450.00
2132, 1449.00
2133, 1448.00
2134, 1448.00
2135, 1448.00
2136, 1449.00
2137, 1449.00
2138, 1447.00
2139, 1449.00
2140, 1448.00
2141, 1449.00
2142, 1451.00
2143, 1449.00
2144, 1451.00
2145, 1450.00
2146, 1451.00
2147, 1452.00
2148, 1452.00
2149, 1452.00
2150, 1451.00
