FW version: 24
Log Version: 3.0.3

General Info:
       Command/Macro Performed,            Timestamp,             Device ID, COM Port, UART/I2C, Test Name, Host Major, Host Minor, Host Revision, Host Git Commit
            Single_measurement,  2023_07_18_11_11_54,       Insight2_F4_xxx,    USB-C,      USB,          ,          0,          1,             1,      4031237645

Show Spectrometer Status:
l0_version, f4_version, battery_perc, battery_mVolt, accelerometer_temp, accelerometer_x, accelerometer_y, accelerometer_z, compass_temp, compass_x, compass_y, compass_z, lamp_0, lamp_1, gain_0, gain_1
        17,         24,           75,          1996,               6416,           65200,            1348,           18888,            0,     65465,     65349,     18921,   3276,   3276,      1,      1

Temperature Statistic Info:
NTC AVG [°C], NTC2 AVG [°C]
      39.908,        39.617

Statistic Info:
M1:  num,      min,      max,   median,      AVG,      STD,M2:  num,      min,      max,   median,      AVG,      STD
     301,  2390.00,  2761.00,  2466.00,  2511.96, 115.3309,     401,  3049.00,  3261.00,  3128.00,  3137.12,  67.8189,

Measurements:
Wavelength, Data Amplitude
1350, 2469.00
1351, 2467.00
1352, 2465.00
1353, 2464.00
1354, 2460.00
1355, 2460.00
1356, 2459.00
1357, 2457.00
1358, 2455.00
1359, 2453.00
1360, 2452.00
1361, 2450.00
1362, 2447.00
1363, 2445.00
1364, 2442.00
1365, 2443.00
1366, 2439.00
1367, 2437.00
1368, 2435.00
1369, 2431.00
1370, 2431.00
1371, 2429.00
1372, 2426.00
1373, 2425.00
1374, 2425.00
1375, 2421.00
1376, 2419.00
1377, 2417.00
1378, 2417.00
1379, 2416.00
1380, 2414.00
1381, 2413.00
1382, 2411.00
1383, 2409.00
1384, 2408.00
1385, 2407.00
1386, 2407.00
1387, 2405.00
1388, 2404.00
1389, 2404.00
1390, 2403.00
1391, 2401.00
1392, 2402.00
1393, 2400.00
1394, 2399.00
1395, 2399.00
1396, 2398.00
1397, 2398.00
1398, 2399.00
1399, 2397.00
1400, 2397.00
1401, 2395.00
1402, 2396.00
1403, 2396.00
1404, 2393.00
1405, 2394.00
1406, 2392.00
1407, 2393.00
1408, 2393.00
1409, 2394.00
1410, 2393.00
1411, 2392.00
1412, 2392.00
1413, 2392.00
1414, 2392.00
1415, 2391.00
1416, 2390.00
1417, 2391.00
1418, 2391.00
1419, 2391.00
1420, 2392.00
1421, 2391.00
1422, 2392.00
1423, 2392.00
1424, 2393.00
1425, 2391.00
1426, 2391.00
1427, 2392.00
1428, 2393.00
1429, 2393.00
1430, 2392.00
1431, 2392.00
1432, 2393.00
1433, 2394.00
1434, 2394.00
1435, 2393.00
1436, 2394.00
1437, 2395.00
1438, 2395.00
1439, 2396.00
1440, 2397.00
1441, 2397.00
1442, 2398.00
1443, 2398.00
1444, 2399.00
1445, 2399.00
1446, 2400.00
1447, 2401.00
1448, 2401.00
1449, 2403.00
1450, 2404.00
1451, 2403.00
1452, 2404.00
1453, 2404.00
1454, 2406.00
1455, 2407.00
1456, 2407.00
1457, 2408.00
1458, 2409.00
1459, 2410.00
1460, 2411.00
1461, 2411.00
1462, 2413.00
1463, 2414.00
1464, 2416.00
1465, 2415.00
1466, 2416.00
1467, 2418.00
1468, 2419.00
1469, 2420.00
1470, 2420.00
1471, 2421.00
1472, 2424.00
1473, 2425.00
1474, 2427.00
1475, 2427.00
1476, 2429.00
1477, 2429.00
1478, 2431.00
1479, 2433.00
1480, 2432.00
1481, 2434.00
1482, 2435.00
1483, 2437.00
1484, 2440.00
1485, 2440.00
1486, 2443.00
1487, 2443.00
1488, 2446.00
1489, 2446.00
1490, 2449.00
1491, 2449.00
1492, 2451.00
1493, 2453.00
1494, 2454.00
1495, 2455.00
1496, 2457.00
1497, 2459.00
1498, 2459.00
1499, 2461.00
1500, 2463.00
1501, 2465.00
1502, 2466.00
1503, 2467.00
1504, 2470.00
1505, 2470.00
1506, 2472.00
1507, 2473.00
1508, 2476.00
1509, 2477.00
1510, 2479.00
1511, 2481.00
1512, 2483.00
1513, 2484.00
1514, 2485.00
1515, 2486.00
1516, 2487.00
1517, 2489.00
1518, 2493.00
1519, 2494.00
1520, 2495.00
1521, 2497.00
1522, 2499.00
1523, 2501.00
1524, 2504.00
1525, 2505.00
1526, 2506.00
1527, 2508.00
1528, 2509.00
1529, 2513.00
1530, 2515.00
1531, 2516.00
1532, 2519.00
1533, 2521.00
1534, 2521.00
1535, 2524.00
1536, 2527.00
1537, 2528.00
1538, 2530.00
1539, 2531.00
1540, 2534.00
1541, 2536.00
1542, 2537.00
1543, 2539.00
1544, 2542.00
1545, 2543.00
1546, 2546.00
1547, 2546.00
1548, 2549.00
1549, 2550.00
1550, 2553.00
1551, 2554.00
1552, 2558.00
1553, 2559.00
1554, 2561.00
1555, 2564.00
1556, 2567.00
1557, 2568.00
1558, 2571.00
1559, 2572.00
1560, 2574.00
1561, 2575.00
1562, 2578.00
1563, 2581.00
1564, 2582.00
1565, 2586.00
1566, 2588.00
1567, 2589.00
1568, 2593.00
1569, 2594.00
1570, 2596.00
1571, 2598.00
1572, 2600.00
1573, 2603.00
1574, 2604.00
1575, 2607.00
1576, 2608.00
1577, 2611.00
1578, 2613.00
1579, 2615.00
1580, 2617.00
1581, 2617.00
1582, 2621.00
1583, 2621.00
1584, 2625.00
1585, 2626.00
1586, 2628.00
1587, 2631.00
1588, 2632.00
1589, 2633.00
1590, 2636.00
1591, 2638.00
1592, 2640.00
1593, 2640.00
1594, 2643.00
1595, 2645.00
1596, 2646.00
1597, 2649.00
1598, 2651.00
1599, 2653.00
1600, 2654.00
1601, 2657.00
1602, 2659.00
1603, 2661.00
1604, 2662.00
1605, 2666.00
1606, 2667.00
1607, 2669.00
1608, 2672.00
1609, 2674.00
1610, 2675.00
1611, 2678.00
1612, 2680.00
1613, 2682.00
1614, 2684.00
1615, 2687.00
1616, 2689.00
1617, 2691.00
1618, 2694.00
1619, 2696.00
1620, 2699.00
1621, 2702.00
1622, 2705.00
1623, 2707.00
1624, 2708.00
1625, 2710.00
1626, 2713.00
1627, 2714.00
1628, 2718.00
1629, 2720.00
1630, 2722.00
1631, 2724.00
1632, 2727.00
1633, 2728.00
1634, 2730.00
1635, 2732.00
1636, 2734.00
1637, 2736.00
1638, 2738.00
1639, 2739.00
1640, 2741.00
1641, 2745.00
1642, 2745.00
1643, 2747.00
1644, 2749.00
1645, 2752.00
1646, 2754.00
1647, 2755.00
1648, 2757.00
1649, 2760.00
1650, 2761.00

1750, 3261.00
1751, 3260.00
1752, 3259.00
1753, 3260.00
1754, 3260.00
1755, 3260.00
1756, 3259.00
1757, 3258.00
1758, 3258.00
1759, 3258.00
1760, 3258.00
1761, 3258.00
1762, 3258.00
1763, 3256.00
1764, 3257.00
1765, 3257.00
1766, 3255.00
1767, 3256.00
1768, 3256.00
1769, 3256.00
1770, 3255.00
1771, 3255.00
1772, 3252.00
1773, 3254.00
1774, 3252.00
1775, 3252.00
1776, 3249.00
1777, 3250.00
1778, 3251.00
1779, 3248.00
1780, 3249.00
1781, 3249.00
1782, 3248.00
1783, 3245.00
1784, 3246.00
1785, 3244.00
1786, 3244.00
1787, 3245.00
1788, 3243.00
1789, 3242.00
1790, 3240.00
1791, 3240.00
1792, 3240.00
1793, 3238.00
1794, 3239.00
1795, 3239.00
1796, 3237.00
1797, 3236.00
1798, 3236.00
1799, 3235.00
1800, 3232.00
1801, 3233.00
1802, 3234.00
1803, 3233.00
1804, 3232.00
1805, 3229.00
1806, 3228.00
1807, 3228.00
1808, 3227.00
1809, 3227.00
1810, 3225.00
1811, 3224.00
1812, 3225.00
1813, 3222.00
1814, 3222.00
1815, 3220.00
1816, 3220.00
1817, 3221.00
1818, 3219.00
1819, 3216.00
1820, 3216.00
1821, 3215.00
1822, 3212.00
1823, 3209.00
1824, 3209.00
1825, 3206.00
1826, 3203.00
1827, 3203.00
1828, 3200.00
1829, 3200.00
1830, 3196.00
1831, 3195.00
1832, 3193.00
1833, 3190.00
1834, 3188.00
1835, 3185.00
1836, 3184.00
1837, 3179.00
1838, 3177.00
1839, 3173.00
1840, 3171.00
1841, 3168.00
1842, 3167.00
1843, 3161.00
1844, 3158.00
1845, 3157.00
1846, 3152.00
1847, 3149.00
1848, 3148.00
1849, 3143.00
1850, 3139.00
1851, 3137.00
1852, 3134.00
1853, 3130.00
1854, 3128.00
1855, 3125.00
1856, 3124.00
1857, 3118.00
1858, 3115.00
1859, 3112.00
1860, 3109.00
1861, 3108.00
1862, 3105.00
1863, 3102.00
1864, 3100.00
1865, 3097.00
1866, 3094.00
1867, 3094.00
1868, 3092.00
1869, 3089.00
1870, 3086.00
1871, 3083.00
1872, 3084.00
1873, 3082.00
1874, 3081.00
1875, 3081.00
1876, 3080.00
1877, 3078.00
1878, 3075.00
1879, 3074.00
1880, 3074.00
1881, 3074.00
1882, 3071.00
1883, 3069.00
1884, 3071.00
1885, 3070.00
1886, 3066.00
1887, 3066.00
1888, 3065.00
1889, 3066.00
1890, 3065.00
1891, 3064.00
1892, 3063.00
1893, 3063.00
1894, 3060.00
1895, 3060.00
1896, 3059.00
1897, 3061.00
1898, 3059.00
1899, 3059.00
1900, 3056.00
1901, 3056.00
1902, 3057.00
1903, 3058.00
1904, 3056.00
1905, 3055.00
1906, 3055.00
1907, 3056.00
1908, 3055.00
1909, 3055.00
1910, 3053.00
1911, 3053.00
1912, 3053.00
1913, 3054.00
1914, 3054.00
1915, 3052.00
1916, 3052.00
1917, 3052.00
1918, 3051.00
1919, 3053.00
1920, 3050.00
1921, 3052.00
1922, 3051.00
1923, 3051.00
1924, 3053.00
1925, 3050.00
1926, 3049.00
1927, 3051.00
1928, 3050.00
1929, 3051.00
1930, 3052.00
1931, 3051.00
1932, 3051.00
1933, 3051.00
1934, 3053.00
1935, 3053.00
1936, 3051.00
1937, 3050.00
1938, 3051.00
1939, 3051.00
1940, 3053.00
1941, 3053.00
1942, 3052.00
1943, 3052.00
1944, 3054.00
1945, 3053.00
1946, 3053.00
1947, 3053.00
1948, 3053.00
1949, 3055.00
1950, 3055.00
1951, 3055.00
1952, 3055.00
1953, 3056.00
1954, 3053.00
1955, 3056.00
1956, 3056.00
1957, 3058.00
1958, 3057.00
1959, 3059.00
1960, 3058.00
1961, 3060.00
1962, 3059.00
1963, 3059.00
1964, 3062.00
1965, 3062.00
1966, 3063.00
1967, 3063.00
1968, 3064.00
1969, 3063.00
1970, 3065.00
1971, 3067.00
1972, 3067.00
1973, 3067.00
1974, 3069.00
1975, 3069.00
1976, 3068.00
1977, 3068.00
1978, 3070.00
1979, 3070.00
1980, 3070.00
1981, 3071.00
1982, 3073.00
1983, 3071.00
1984, 3073.00
1985, 3075.00
1986, 3074.00
1987, 3075.00
1988, 3078.00
1989, 3077.00
1990, 3077.00
1991, 3079.00
1992, 3080.00
1993, 3078.00
1994, 3081.00
1995, 3081.00
1996, 3081.00
1997, 3084.00
1998, 3084.00
1999, 3084.00
2000, 3085.00
2001, 3085.00
2002, 3086.00
2003, 3086.00
2004, 3087.00
2005, 3087.00
2006, 3088.00
2007, 3090.00
2008, 3091.00
2009, 3093.00
2010, 3090.00
2011, 3091.00
2012, 3091.00
2013, 3095.00
2014, 3094.00
2015, 3095.00
2016, 3096.00
2017, 3096.00
2018, 3095.00
2019, 3098.00
2020, 3101.00
2021, 3101.00
2022, 3098.00
2023, 3100.00
2024, 3101.00
2025, 3102.00
2026, 3103.00
2027, 3102.00
2028, 3103.00
2029, 3107.00
2030, 3106.00
2031, 3107.00
2032, 3106.00
2033, 3110.00
2034, 3110.00
2035, 3108.00
2036, 3111.00
2037, 3112.00
2038, 3112.00
2039, 3114.00
2040, 3112.00
2041, 3114.00
2042, 3116.00
2043, 3116.00
2044, 3119.00
2045, 3119.00
2046, 3119.00
2047, 3121.00
2048, 3121.00
2049, 3122.00
2050, 3123.00
2051, 3127.00
2052, 3126.00
2053, 3127.00
2054, 3129.00
2055, 3129.00
2056, 3128.00
2057, 3132.00
2058, 3132.00
2059, 3133.00
2060, 3135.00
2061, 3137.00
2062, 3138.00
2063, 3139.00
2064, 3139.00
2065, 3141.00
2066, 3139.00
2067, 3143.00
2068, 3144.00
2069, 3143.00
2070, 3146.00
2071, 3147.00
2072, 3147.00
2073, 3148.00
2074, 3149.00
2075, 3151.00
2076, 3152.00
2077, 3152.00
2078, 3153.00
2079, 3155.00
2080, 3156.00
2081, 3156.00
2082, 3156.00
2083, 3158.00
2084, 3159.00
2085, 3161.00
2086, 3162.00
2087, 3161.00
2088, 3162.00
2089, 3165.00
2090, 3165.00
2091, 3169.00
2092, 3167.00
2093, 3167.00
2094, 3168.00
2095, 3169.00
2096, 3169.00
2097, 3169.00
2098, 3171.00
2099, 3171.00
2100, 3173.00
2101, 3172.00
2102, 3174.00
2103, 3174.00
2104, 3174.00
2105, 3175.00
2106, 3177.00
2107, 3176.00
2108, 3177.00
2109, 3178.00
2110, 3178.00
2111, 3179.00
2112, 3180.00
2113, 3180.00
2114, 3182.00
2115, 3182.00
2116, 3181.00
2117, 3183.00
2118, 3182.00
2119, 3183.00
2120, 3183.00
2121, 3185.00
2122, 3184.00
2123, 3185.00
2124, 3185.00
2125, 3187.00
2126, 3189.00
2127, 3188.00
2128, 3186.00
2129, 3188.00
2130, 3188.00
2131, 3190.00
2132, 3189.00
2133, 3191.00
2134, 3191.00
2135, 3191.00
2136, 3190.00
2137, 3191.00
2138, 3192.00
2139, 3193.00
2140, 3193.00
2141, 3194.00
2142, 3192.00
2143, 3193.00
2144, 3196.00
2145, 3196.00
2146, 3196.00
2147, 3195.00
2148, 3196.00
2149, 3198.00
2150, 3196.00
