FW version: 24
Log Version: 3.0.3

General Info:
       Command/Macro Performed,            Timestamp,             Device ID, COM Port, UART/I2C, Test Name, Host Major, Host Minor, Host Revision, Host Git Commit
            Single_measurement,  2023_07_18_11_11_43,       Insight2_F4_xxx,    USB-C,      USB,          ,          0,          1,             1,      4031237645

Show Spectrometer Status:
l0_version, f4_version, battery_perc, battery_mVolt, accelerometer_temp, accelerometer_x, accelerometer_y, accelerometer_z, compass_temp, compass_x, compass_y, compass_z, lamp_0, lamp_1, gain_0, gain_1
        17,         24,           75,          1995,               6416,           65224,            1356,           18840,            0,     65487,     65357,     18936,   2866,   2866,      1,      1

Temperature Statistic Info:
NTC AVG [°C], NTC2 AVG [°C]
      39.850,        39.529

Statistic Info:
M1:  num,      min,      max,   median,      AVG,      STD,M2:  num,      min,      max,   median,      AVG,      STD
     301,  1857.00,  2156.00,  1916.00,  1954.50,  92.9456,     401,  2455.00,  2625.00,  2519.00,  2526.66,  55.0851,

Measurements:
Wavelength, Data Amplitude
1350, 1916.00
1351, 1916.00
1352, 1913.00
1353, 1912.00
1354, 1910.00
1355, 1910.00
1356, 1909.00
1357, 1908.00
1358, 1907.00
1359, 1905.00
1360, 1904.00
1361, 1902.00
1362, 1900.00
1363, 1898.00
1364, 1896.00
1365, 1895.00
1366, 1894.00
1367, 1893.00
1368, 1892.00
1369, 1890.00
1370, 1889.00
1371, 1887.00
1372, 1885.00
1373, 1883.00
1374, 1882.00
1375, 1881.00
1376, 1879.00
1377, 1878.00
1378, 1876.00
1379, 1875.00
1380, 1875.00
1381, 1874.00
1382, 1873.00
1383, 1872.00
1384, 1871.00
1385, 1869.00
1386, 1869.00
1387, 1868.00
1388, 1868.00
1389, 1867.00
1390, 1865.00
1391, 1865.00
1392, 1866.00
1393, 1864.00
1394, 1863.00
1395, 1862.00
1396, 1863.00
1397, 1862.00
1398, 1863.00
1399, 1862.00
1400, 1861.00
1401, 1861.00
1402, 1860.00
1403, 1860.00
1404, 1860.00
1405, 1860.00
1406, 1859.00
1407, 1860.00
1408, 1857.00
1409, 1859.00
1410, 1858.00
1411, 1858.00
1412, 1859.00
1413, 1858.00
1414, 1859.00
1415, 1858.00
1416, 1857.00
1417, 1857.00
1418, 1857.00
1419, 1858.00
1420, 1857.00
1421, 1857.00
1422, 1857.00
1423, 1860.00
1424, 1858.00
1425, 1857.00
1426, 1857.00
1427, 1858.00
1428, 1858.00
1429, 1859.00
1430, 1859.00
1431, 1859.00
1432, 1860.00
1433, 1860.00
1434, 1861.00
1435, 1860.00
1436, 1861.00
1437, 1860.00
1438, 1861.00
1439, 1860.00
1440, 1862.00
1441, 1863.00
1442, 1864.00
1443, 1863.00
1444, 1864.00
1445, 1864.00
1446, 1865.00
1447, 1865.00
1448, 1866.00
1449, 1867.00
1450, 1866.00
1451, 1867.00
1452, 1869.00
1453, 1869.00
1454, 1869.00
1455, 1870.00
1456, 1871.00
1457, 1872.00
1458, 1871.00
1459, 1873.00
1460, 1874.00
1461, 1874.00
1462, 1875.00
1463, 1876.00
1464, 1876.00
1465, 1878.00
1466, 1878.00
1467, 1880.00
1468, 1880.00
1469, 1881.00
1470, 1881.00
1471, 1883.00
1472, 1883.00
1473, 1884.00
1474, 1885.00
1475, 1887.00
1476, 1887.00
1477, 1890.00
1478, 1889.00
1479, 1891.00
1480, 1892.00
1481, 1894.00
1482, 1895.00
1483, 1897.00
1484, 1895.00
1485, 1897.00
1486, 1898.00
1487, 1900.00
1488, 1901.00
1489, 1901.00
1490, 1903.00
1491, 1905.00
1492, 1907.00
1493, 1907.00
1494, 1909.00
1495, 1909.00
1496, 1912.00
1497, 1912.00
1498, 1913.00
1499, 1914.00
1500, 1916.00
1501, 1917.00
1502, 1918.00
1503, 1921.00
1504, 1920.00
1505, 1921.00
1506, 1924.00
1507, 1923.00
1508, 1925.00
1509, 1927.00
1510, 1927.00
1511, 1930.00
1512, 1932.00
1513, 1932.00
1514, 1933.00
1515, 1935.00
1516, 1936.00
1517, 1939.00
1518, 1940.00
1519, 1941.00
1520, 1942.00
1521, 1943.00
1522, 1945.00
1523, 1945.00
1524, 1948.00
1525, 1950.00
1526, 1951.00
1527, 1952.00
1528, 1954.00
1529, 1955.00
1530, 1957.00
1531, 1959.00
1532, 1959.00
1533, 1962.00
1534, 1963.00
1535, 1964.00
1536, 1966.00
1537, 1967.00
1538, 1969.00
1539, 1971.00
1540, 1973.00
1541, 1974.00
1542, 1975.00
1543, 1978.00
1544, 1979.00
1545, 1979.00
1546, 1981.00
1547, 1983.00
1548, 1983.00
1549, 1985.00
1550, 1987.00
1551, 1990.00
1552, 1991.00
1553, 1993.00
1554, 1995.00
1555, 1996.00
1556, 1997.00
1557, 1999.00
1558, 2001.00
1559, 2003.00
1560, 2004.00
1561, 2007.00
1562, 2008.00
1563, 2010.00
1564, 2012.00
1565, 2013.00
1566, 2015.00
1567, 2016.00
1568, 2019.00
1569, 2021.00
1570, 2023.00
1571, 2022.00
1572, 2025.00
1573, 2027.00
1574, 2028.00
1575, 2030.00
1576, 2031.00
1577, 2033.00
1578, 2035.00
1579, 2036.00
1580, 2039.00
1581, 2039.00
1582, 2041.00
1583, 2043.00
1584, 2043.00
1585, 2045.00
1586, 2047.00
1587, 2049.00
1588, 2050.00
1589, 2053.00
1590, 2054.00
1591, 2056.00
1592, 2056.00
1593, 2059.00
1594, 2060.00
1595, 2062.00
1596, 2062.00
1597, 2064.00
1598, 2066.00
1599, 2068.00
1600, 2070.00
1601, 2071.00
1602, 2072.00
1603, 2075.00
1604, 2076.00
1605, 2077.00
1606, 2080.00
1607, 2081.00
1608, 2082.00
1609, 2084.00
1610, 2087.00
1611, 2089.00
1612, 2090.00
1613, 2093.00
1614, 2094.00
1615, 2095.00
1616, 2098.00
1617, 2099.00
1618, 2101.00
1619, 2103.00
1620, 2105.00
1621, 2107.00
1622, 2110.00
1623, 2112.00
1624, 2112.00
1625, 2114.00
1626, 2117.00
1627, 2119.00
1628, 2120.00
1629, 2122.00
1630, 2125.00
1631, 2125.00
1632, 2127.00
1633, 2129.00
1634, 2131.00
1635, 2133.00
1636, 2135.00
1637, 2136.00
1638, 2137.00
1639, 2138.00
1640, 2141.00
1641, 2141.00
1642, 2142.00
1643, 2145.00
1644, 2147.00
1645, 2148.00
1646, 2149.00
1647, 2151.00
1648, 2154.00
1649, 2154.00
1650, 2156.00

1750, 2625.00
1751, 2625.00
1752, 2624.00
1753, 2624.00
1754, 2624.00
1755, 2624.00
1756, 2625.00
1757, 2623.00
1758, 2623.00
1759, 2624.00
1760, 2624.00
1761, 2624.00
1762, 2624.00
1763, 2624.00
1764, 2623.00
1765, 2623.00
1766, 2622.00
1767, 2622.00
1768, 2620.00
1769, 2620.00
1770, 2621.00
1771, 2621.00
1772, 2621.00
1773, 2619.00
1774, 2618.00
1775, 2619.00
1776, 2617.00
1777, 2618.00
1778, 2619.00
1779, 2616.00
1780, 2616.00
1781, 2617.00
1782, 2614.00
1783, 2614.00
1784, 2614.00
1785, 2614.00
1786, 2613.00
1787, 2612.00
1788, 2612.00
1789, 2610.00
1790, 2610.00
1791, 2611.00
1792, 2607.00
1793, 2611.00
1794, 2607.00
1795, 2608.00
1796, 2605.00
1797, 2606.00
1798, 2607.00
1799, 2603.00
1800, 2604.00
1801, 2602.00
1802, 2603.00
1803, 2604.00
1804, 2602.00
1805, 2602.00
1806, 2601.00
1807, 2599.00
1808, 2600.00
1809, 2599.00
1810, 2599.00
1811, 2596.00
1812, 2597.00
1813, 2596.00
1814, 2595.00
1815, 2595.00
1816, 2594.00
1817, 2592.00
1818, 2591.00
1819, 2590.00
1820, 2589.00
1821, 2587.00
1822, 2587.00
1823, 2586.00
1824, 2584.00
1825, 2582.00
1826, 2582.00
1827, 2578.00
1828, 2578.00
1829, 2576.00
1830, 2573.00
1831, 2573.00
1832, 2572.00
1833, 2569.00
1834, 2567.00
1835, 2563.00
1836, 2565.00
1837, 2560.00
1838, 2557.00
1839, 2555.00
1840, 2554.00
1841, 2551.00
1842, 2549.00
1843, 2545.00
1844, 2542.00
1845, 2542.00
1846, 2539.00
1847, 2536.00
1848, 2534.00
1849, 2529.00
1850, 2526.00
1851, 2525.00
1852, 2523.00
1853, 2521.00
1854, 2518.00
1855, 2516.00
1856, 2512.00
1857, 2510.00
1858, 2508.00
1859, 2506.00
1860, 2504.00
1861, 2501.00
1862, 2501.00
1863, 2496.00
1864, 2497.00
1865, 2493.00
1866, 2492.00
1867, 2491.00
1868, 2489.00
1869, 2488.00
1870, 2486.00
1871, 2486.00
1872, 2483.00
1873, 2479.00
1874, 2481.00
1875, 2479.00
1876, 2478.00
1877, 2477.00
1878, 2476.00
1879, 2476.00
1880, 2473.00
1881, 2475.00
1882, 2473.00
1883, 2470.00
1884, 2471.00
1885, 2470.00
1886, 2469.00
1887, 2467.00
1888, 2468.00
1889, 2467.00
1890, 2466.00
1891, 2464.00
1892, 2467.00
1893, 2466.00
1894, 2467.00
1895, 2464.00
1896, 2463.00
1897, 2465.00
1898, 2461.00
1899, 2462.00
1900, 2462.00
1901, 2459.00
1902, 2460.00
1903, 2460.00
1904, 2461.00
1905, 2459.00
1906, 2460.00
1907, 2459.00
1908, 2459.00
1909, 2458.00
1910, 2461.00
1911, 2461.00
1912, 2459.00
1913, 2458.00
1914, 2457.00
1915, 2459.00
1916, 2456.00
1917, 2459.00
1918, 2458.00
1919, 2457.00
1920, 2456.00
1921, 2458.00
1922, 2455.00
1923, 2456.00
1924, 2457.00
1925, 2456.00
1926, 2456.00
1927, 2457.00
1928, 2456.00
1929, 2455.00
1930, 2457.00
1931, 2456.00
1932, 2456.00
1933, 2457.00
1934, 2456.00
1935, 2456.00
1936, 2456.00
1937, 2456.00
1938, 2457.00
1939, 2458.00
1940, 2458.00
1941, 2458.00
1942, 2457.00
1943, 2457.00
1944, 2459.00
1945, 2458.00
1946, 2459.00
1947, 2458.00
1948, 2457.00
1949, 2459.00
1950, 2459.00
1951, 2462.00
1952, 2460.00
1953, 2462.00
1954, 2460.00
1955, 2461.00
1956, 2461.00
1957, 2461.00
1958, 2461.00
1959, 2462.00
1960, 2462.00
1961, 2462.00
1962, 2464.00
1963, 2464.00
1964, 2465.00
1965, 2464.00
1966, 2467.00
1967, 2466.00
1968, 2467.00
1969, 2468.00
1970, 2467.00
1971, 2467.00
1972, 2469.00
1973, 2469.00
1974, 2469.00
1975, 2470.00
1976, 2472.00
1977, 2471.00
1978, 2471.00
1979, 2471.00
1980, 2473.00
1981, 2476.00
1982, 2474.00
1983, 2475.00
1984, 2474.00
1985, 2475.00
1986, 2478.00
1987, 2478.00
1988, 2479.00
1989, 2478.00
1990, 2478.00
1991, 2481.00
1992, 2478.00
1993, 2480.00
1994, 2479.00
1995, 2482.00
1996, 2483.00
1997, 2483.00
1998, 2483.00
1999, 2484.00
2000, 2484.00
2001, 2485.00
2002, 2487.00
2003, 2484.00
2004, 2487.00
2005, 2487.00
2006, 2489.00
2007, 2487.00
2008, 2487.00
2009, 2488.00
2010, 2490.00
2011, 2489.00
2012, 2490.00
2013, 2491.00
2014, 2491.00
2015, 2492.00
2016, 2490.00
2017, 2496.00
2018, 2495.00
2019, 2495.00
2020, 2495.00
2021, 2495.00
2022, 2497.00
2023, 2499.00
2024, 2498.00
2025, 2498.00
2026, 2499.00
2027, 2500.00
2028, 2500.00
2029, 2501.00
2030, 2502.00
2031, 2503.00
2032, 2502.00
2033, 2504.00
2034, 2506.00
2035, 2505.00
2036, 2508.00
2037, 2505.00
2038, 2507.00
2039, 2506.00
2040, 2509.00
2041, 2509.00
2042, 2510.00
2043, 2510.00
2044, 2512.00
2045, 2513.00
2046, 2513.00
2047, 2515.00
2048, 2516.00
2049, 2515.00
2050, 2516.00
2051, 2516.00
2052, 2519.00
2053, 2519.00
2054, 2519.00
2055, 2522.00
2056, 2522.00
2057, 2522.00
2058, 2524.00
2059, 2524.00
2060, 2525.00
2061, 2524.00
2062, 2527.00
2063, 2525.00
2064, 2529.00
2065, 2530.00
2066, 2530.00
2067, 2531.00
2068, 2534.00
2069, 2533.00
2070, 2533.00
2071, 2535.00
2072, 2537.00
2073, 2537.00
2074, 2537.00
2075, 2538.00
2076, 2538.00
2077, 2541.00
2078, 2543.00
2079, 2540.00
2080, 2544.00
2081, 2543.00
2082, 2542.00
2083, 2546.00
2084, 2545.00
2085, 2547.00
2086, 2548.00
2087, 2547.00
2088, 2549.00
2089, 2549.00
2090, 2550.00
2091, 2551.00
2092, 2553.00
2093, 2553.00
2094, 2552.00
2095, 2552.00
2096, 2555.00
2097, 2554.00
2098, 2555.00
2099, 2557.00
2100, 2557.00
2101, 2555.00
2102, 2559.00
2103, 2558.00
2104, 2557.00
2105, 2559.00
2106, 2561.00
2107, 2559.00
2108, 2560.00
2109, 2560.00
2110, 2563.00
2111, 2566.00
2112, 2565.00
2113, 2564.00
2114, 2563.00
2115, 2563.00
2116, 2564.00
2117, 2566.00
2118, 2566.00
2119, 2567.00
2120, 2564.00
2121, 2568.00
2122, 2568.00
2123, 2569.00
2124, 2570.00
2125, 2569.00
2126, 2568.00
2127, 2570.00
2128, 2570.00
2129, 2571.00
2130, 2571.00
2131, 2572.00
2132, 2571.00
2133, 2570.00
2134, 2570.00
2135, 2573.00
2136, 2573.00
2137, 2575.00
2138, 2574.00
2139, 2574.00
2140, 2573.00
2141, 2576.00
2142, 2574.00
2143, 2577.00
2144, 2574.00
2145, 2577.00
2146, 2576.00
2147, 2577.00
2148, 2578.00
2149, 2577.00
2150, 2577.00
