FW version: 24
Log Version: 3.0.3

General Info:
       Command/Macro Performed,            Timestamp,             Device ID, COM Port, UART/I2C, Test Name, Host Major, Host Minor, Host Revision, Host Git Commit
            Single_measurement,  2023_07_18_11_10_44,       Insight2_F4_xxx,    USB-C,      USB,          ,          0,          1,             1,      4031237645

Show Spectrometer Status:
l0_version, f4_version, battery_perc, battery_mVolt, accelerometer_temp, accelerometer_x, accelerometer_y, accelerometer_z, compass_temp, compass_x, compass_y, compass_z, lamp_0, lamp_1, gain_0, gain_1
        17,         24,           75,          1995,               6400,           65236,            1324,           18880,            0,     65501,     65324,     18917,   3276,   3276,      0,      0

Temperature Statistic Info:
NTC AVG [°C], NTC2 AVG [°C]
      39.500,        39.205

Statistic Info:
M1:  num,      min,      max,   median,      AVG,      STD,M2:  num,      min,      max,   median,      AVG,      STD
     301,   823.00,   951.00,   849.00,   865.28,  39.5940,     401,  1053.00,  1127.00,  1081.00,  1083.92,  23.4346,

Measurements:
Wavelength, Data Amplitude
1350, 850.00
1351, 850.00
1352, 849.00
1353, 849.00
1354, 849.00
1355, 848.00
1356, 848.00
1357, 847.00
1358, 846.00
1359, 845.00
1360, 845.00
1361, 844.00
1362, 844.00
1363, 843.00
1364, 842.00
1365, 841.00
1366, 841.00
1367, 840.00
1368, 840.00
1369, 838.00
1370, 839.00
1371, 837.00
1372, 837.00
1373, 835.00
1374, 835.00
1375, 835.00
1376, 834.00
1377, 834.00
1378, 833.00
1379, 832.00
1380, 832.00
1381, 831.00
1382, 831.00
1383, 830.00
1384, 830.00
1385, 830.00
1386, 829.00
1387, 829.00
1388, 828.00
1389, 828.00
1390, 828.00
1391, 828.00
1392, 827.00
1393, 827.00
1394, 826.00
1395, 827.00
1396, 826.00
1397, 826.00
1398, 826.00
1399, 825.00
1400, 825.00
1401, 825.00
1402, 825.00
1403, 825.00
1404, 825.00
1405, 825.00
1406, 824.00
1407, 825.00
1408, 824.00
1409, 825.00
1410, 824.00
1411, 824.00
1412, 825.00
1413, 824.00
1414, 824.00
1415, 824.00
1416, 824.00
1417, 824.00
1418, 824.00
1419, 824.00
1420, 823.00
1421, 823.00
1422, 824.00
1423, 824.00
1424, 824.00
1425, 824.00
1426, 824.00
1427, 824.00
1428, 824.00
1429, 824.00
1430, 824.00
1431, 824.00
1432, 824.00
1433, 824.00
1434, 825.00
1435, 825.00
1436, 825.00
1437, 826.00
1438, 825.00
1439, 826.00
1440, 826.00
1441, 826.00
1442, 826.00
1443, 827.00
1444, 826.00
1445, 826.00
1446, 827.00
1447, 827.00
1448, 827.00
1449, 828.00
1450, 827.00
1451, 828.00
1452, 828.00
1453, 828.00
1454, 829.00
1455, 829.00
1456, 830.00
1457, 829.00
1458, 829.00
1459, 830.00
1460, 830.00
1461, 830.00
1462, 831.00
1463, 832.00
1464, 831.00
1465, 832.00
1466, 833.00
1467, 833.00
1468, 833.00
1469, 834.00
1470, 834.00
1471, 834.00
1472, 835.00
1473, 835.00
1474, 836.00
1475, 836.00
1476, 837.00
1477, 837.00
1478, 837.00
1479, 838.00
1480, 839.00
1481, 839.00
1482, 839.00
1483, 840.00
1484, 840.00
1485, 841.00
1486, 841.00
1487, 842.00
1488, 842.00
1489, 843.00
1490, 843.00
1491, 844.00
1492, 844.00
1493, 845.00
1494, 845.00
1495, 846.00
1496, 846.00
1497, 847.00
1498, 847.00
1499, 848.00
1500, 848.00
1501, 849.00
1502, 849.00
1503, 850.00
1504, 850.00
1505, 851.00
1506, 851.00
1507, 852.00
1508, 853.00
1509, 853.00
1510, 854.00
1511, 854.00
1512, 855.00
1513, 855.00
1514, 856.00
1515, 857.00
1516, 857.00
1517, 858.00
1518, 859.00
1519, 859.00
1520, 860.00
1521, 860.00
1522, 861.00
1523, 861.00
1524, 862.00
1525, 863.00
1526, 863.00
1527, 864.00
1528, 865.00
1529, 865.00
1530, 866.00
1531, 867.00
1532, 867.00
1533, 868.00
1534, 868.00
1535, 869.00
1536, 870.00
1537, 871.00
1538, 872.00
1539, 872.00
1540, 873.00
1541, 873.00
1542, 874.00
1543, 875.00
1544, 875.00
1545, 875.00
1546, 876.00
1547, 877.00
1548, 878.00
1549, 879.00
1550, 879.00
1551, 880.00
1552, 881.00
1553, 882.00
1554, 882.00
1555, 883.00
1556, 884.00
1557, 885.00
1558, 885.00
1559, 886.00
1560, 887.00
1561, 888.00
1562, 889.00
1563, 889.00
1564, 889.00
1565, 890.00
1566, 891.00
1567, 892.00
1568, 892.00
1569, 893.00
1570, 894.00
1571, 895.00
1572, 895.00
1573, 896.00
1574, 897.00
1575, 897.00
1576, 898.00
1577, 899.00
1578, 900.00
1579, 900.00
1580, 901.00
1581, 902.00
1582, 903.00
1583, 903.00
1584, 904.00
1585, 904.00
1586, 905.00
1587, 906.00
1588, 906.00
1589, 907.00
1590, 908.00
1591, 908.00
1592, 909.00
1593, 909.00
1594, 910.00
1595, 911.00
1596, 911.00
1597, 912.00
1598, 913.00
1599, 913.00
1600, 914.00
1601, 915.00
1602, 916.00
1603, 916.00
1604, 917.00
1605, 918.00
1606, 918.00
1607, 919.00
1608, 920.00
1609, 921.00
1610, 922.00
1611, 922.00
1612, 923.00
1613, 924.00
1614, 925.00
1615, 925.00
1616, 926.00
1617, 927.00
1618, 928.00
1619, 929.00
1620, 930.00
1621, 931.00
1622, 931.00
1623, 932.00
1624, 933.00
1625, 934.00
1626, 934.00
1627, 935.00
1628, 936.00
1629, 937.00
1630, 937.00
1631, 938.00
1632, 939.00
1633, 940.00
1634, 940.00
1635, 941.00
1636, 942.00
1637, 942.00
1638, 942.00
1639, 944.00
1640, 945.00
1641, 945.00
1642, 946.00
1643, 946.00
1644, 947.00
1645, 948.00
1646, 948.00
1647, 949.00
1648, 949.00
1649, 950.00
1650, 951.00

1750, 1127.00
1751, 1126.00
1752, 1127.00
1753, 1126.00
1754, 1126.00
1755, 1126.00
1756, 1126.00
1757, 1126.00
1758, 1126.00
1759, 1126.00
1760, 1126.00
1761, 1125.00
1762, 1126.00
1763, 1126.00
1764, 1126.00
1765, 1125.00
1766, 1126.00
1767, 1125.00
1768, 1125.00
1769, 1125.00
1770, 1124.00
1771, 1124.00
1772, 1124.00
1773, 1125.00
1774, 1124.00
1775, 1123.00
1776, 1123.00
1777, 1123.00
1778, 1123.00
1779, 1122.00
1780, 1123.00
1781, 1122.00
1782, 1122.00
1783, 1122.00
1784, 1122.00
1785, 1121.00
1786, 1120.00
1787, 1120.00
1788, 1120.00
1789, 1119.00
1790, 1120.00
1791, 1120.00
1792, 1119.00
1793, 1119.00
1794, 1118.00
1795, 1119.00
1796, 1119.00
1797, 1118.00
1798, 1118.00
1799, 1118.00
1800, 1117.00
1801, 1117.00
1802, 1117.00
1803, 1116.00
1804, 1116.00
1805, 1116.00
1806, 1116.00
1807, 1115.00
1808, 1115.00
1809, 1115.00
1810, 1115.00
1811, 1115.00
1812, 1114.00
1813, 1114.00
1814, 1113.00
1815, 1113.00
1816, 1113.00
1817, 1112.00
1818, 1112.00
1819, 1112.00
1820, 1111.00
1821, 1111.00
1822, 1109.00
1823, 1109.00
1824, 1109.00
1825, 1108.00
1826, 1108.00
1827, 1106.00
1828, 1107.00
1829, 1105.00
1830, 1105.00
1831, 1104.00
1832, 1104.00
1833, 1102.00
1834, 1102.00
1835, 1101.00
1836, 1099.00
1837, 1099.00
1838, 1098.00
1839, 1097.00
1840, 1095.00
1841, 1096.00
1842, 1094.00
1843, 1092.00
1844, 1091.00
1845, 1091.00
1846, 1090.00
1847, 1089.00
1848, 1087.00
1849, 1085.00
1850, 1085.00
1851, 1084.00
1852, 1083.00
1853, 1081.00
1854, 1080.00
1855, 1080.00
1856, 1078.00
1857, 1078.00
1858, 1077.00
1859, 1075.00
1860, 1075.00
1861, 1073.00
1862, 1073.00
1863, 1072.00
1864, 1072.00
1865, 1071.00
1866, 1069.00
1867, 1069.00
1868, 1069.00
1869, 1068.00
1870, 1067.00
1871, 1066.00
1872, 1066.00
1873, 1065.00
1874, 1064.00
1875, 1064.00
1876, 1064.00
1877, 1064.00
1878, 1063.00
1879, 1062.00
1880, 1062.00
1881, 1061.00
1882, 1062.00
1883, 1061.00
1884, 1061.00
1885, 1060.00
1886, 1060.00
1887, 1059.00
1888, 1060.00
1889, 1059.00
1890, 1059.00
1891, 1058.00
1892, 1059.00
1893, 1058.00
1894, 1057.00
1895, 1058.00
1896, 1057.00
1897, 1057.00
1898, 1057.00
1899, 1056.00
1900, 1057.00
1901, 1056.00
1902, 1057.00
1903, 1056.00
1904, 1056.00
1905, 1056.00
1906, 1056.00
1907, 1055.00
1908, 1055.00
1909, 1055.00
1910, 1056.00
1911, 1055.00
1912, 1055.00
1913, 1055.00
1914, 1054.00
1915, 1055.00
1916, 1054.00
1917, 1055.00
1918, 1054.00
1919, 1055.00
1920, 1055.00
1921, 1054.00
1922, 1054.00
1923, 1054.00
1924, 1054.00
1925, 1054.00
1926, 1053.00
1927, 1054.00
1928, 1054.00
1929, 1054.00
1930, 1054.00
1931, 1054.00
1932, 1055.00
1933, 1055.00
1934, 1054.00
1935, 1055.00
1936, 1053.00
1937, 1054.00
1938, 1055.00
1939, 1054.00
1940, 1054.00
1941, 1054.00
1942, 1055.00
1943, 1055.00
1944, 1056.00
1945, 1055.00
1946, 1055.00
1947, 1056.00
1948, 1056.00
1949, 1055.00
1950, 1056.00
1951, 1055.00
1952, 1056.00
1953, 1056.00
1954, 1056.00
1955, 1056.00
1956, 1056.00
1957, 1057.00
1958, 1057.00
1959, 1056.00
1960, 1057.00
1961, 1057.00
1962, 1057.00
1963, 1057.00
1964, 1057.00
1965, 1058.00
1966, 1058.00
1967, 1058.00
1968, 1059.00
1969, 1059.00
1970, 1059.00
1971, 1060.00
1972, 1060.00
1973, 1059.00
1974, 1060.00
1975, 1060.00
1976, 1060.00
1977, 1060.00
1978, 1061.00
1979, 1061.00
1980, 1061.00
1981, 1062.00
1982, 1061.00
1983, 1062.00
1984, 1061.00
1985, 1063.00
1986, 1063.00
1987, 1062.00
1988, 1063.00
1989, 1062.00
1990, 1064.00
1991, 1064.00
1992, 1064.00
1993, 1065.00
1994, 1064.00
1995, 1065.00
1996, 1065.00
1997, 1065.00
1998, 1066.00
1999, 1066.00
2000, 1065.00
2001, 1066.00
2002, 1066.00
2003, 1066.00
2004, 1067.00
2005, 1067.00
2006, 1068.00
2007, 1067.00
2008, 1068.00
2009, 1068.00
2010, 1068.00
2011, 1069.00
2012, 1069.00
2013, 1068.00
2014, 1068.00
2015, 1070.00
2016, 1069.00
2017, 1069.00
2018, 1070.00
2019, 1070.00
2020, 1070.00
2021, 1070.00
2022, 1071.00
2023, 1071.00
2024, 1071.00
2025, 1072.00
2026, 1073.00
2027, 1072.00
2028, 1072.00
2029, 1072.00
2030, 1073.00
2031, 1074.00
2032, 1073.00
2033, 1074.00
2034, 1075.00
2035, 1075.00
2036, 1075.00
2037, 1074.00
2038, 1075.00
2039, 1075.00
2040, 1076.00
2041, 1077.00
2042, 1076.00
2043, 1077.00
2044, 1077.00
2045, 1077.00
2046, 1078.00
2047, 1079.00
2048, 1079.00
2049, 1078.00
2050, 1079.00
2051, 1080.00
2052, 1080.00
2053, 1081.00
2054, 1080.00
2055, 1082.00
2056, 1081.00
2057, 1081.00
2058, 1082.00
2059, 1082.00
2060, 1083.00
2061, 1083.00
2062, 1083.00
2063, 1083.00
2064, 1084.00
2065, 1085.00
2066, 1085.00
2067, 1085.00
2068, 1086.00
2069, 1087.00
2070, 1087.00
2071, 1088.00
2072, 1087.00
2073, 1088.00
2074, 1088.00
2075, 1088.00
2076, 1089.00
2077, 1089.00
2078, 1090.00
2079, 1089.00
2080, 1091.00
2081, 1091.00
2082, 1090.00
2083, 1091.00
2084, 1091.00
2085, 1091.00
2086, 1092.00
2087, 1092.00
2088, 1093.00
2089, 1092.00
2090, 1092.00
2091, 1094.00
2092, 1094.00
2093, 1094.00
2094, 1094.00
2095, 1095.00
2096, 1095.00
2097, 1095.00
2098, 1096.00
2099, 1096.00
2100, 1096.00
2101, 1096.00
2102, 1096.00
2103, 1096.00
2104, 1096.00
2105, 1097.00
2106, 1097.00
2107, 1098.00
2108, 1098.00
2109, 1098.00
2110, 1098.00
2111, 1098.00
2112, 1098.00
2113, 1099.00
2114, 1099.00
2115, 1098.00
2116, 1100.00
2117, 1100.00
2118, 1099.00
2119, 1100.00
2120, 1100.00
2121, 1101.00
2122, 1100.00
2123, 1101.00
2124, 1101.00
2125, 1101.00
2126, 1101.00
2127, 1101.00
2128, 1103.00
2129, 1102.00
2130, 1101.00
2131, 1102.00
2132, 1103.00
2133, 1103.00
2134, 1102.00
2135, 1102.00
2136, 1103.00
2137, 1103.00
2138, 1103.00
2139, 1102.00
2140, 1103.00
2141, 1103.00
2142, 1104.00
2143, 1104.00
2144, 1104.00
2145, 1104.00
2146, 1105.00
2147, 1105.00
2148, 1104.00
2149, 1105.00
2150, 1104.00
