FW version: 24
Log Version: 3.0.3

General Info:
       Command/Macro Performed,            Timestamp,             Device ID, COM Port, UART/I2C, Test Name, Host Major, Host Minor, Host Revision, Host Git Commit
            Single_measurement,  2023_06_30_11_00_37,       Insight2_F4_xxx,    USB-C,      USB,          ,          0,          1,             1,      4031237645

Show Spectrometer Status:
l0_version, f4_version, battery_perc, battery_mVolt, accelerometer_temp, accelerometer_x, accelerometer_y, accelerometer_z, compass_temp, compass_x, compass_y, compass_z, lamp_0, lamp_1, gain_0, gain_1
        17,         24,           93,          2074,               6048,           65112,             240,           18560,            0,     65372,     65532,     65529,   2866,   2866,      1,      1

Temperature Statistic Info:
NTC AVG [°C], NTC2 AVG [°C]
      38.275,        37.954

Statistic Info:
M1:  num,      min,      max,   median,      AVG,      STD,M2:  num,      min,      max,   median,      AVG,      STD
     301,  1564.00,  1801.00,  1613.00,  1642.18,  73.1340,     401,  2094.00,  2239.00,  2154.00,  2158.06,  47.5462,

Measurements:
Wavelength, Data Amplitude
1350, 1607.00
1351, 1605.00
1352, 1604.00
1353, 1605.00
1354, 1602.00
1355, 1602.00
1356, 1601.00
1357, 1601.00
1358, 1601.00
1359, 1599.00
1360, 1598.00
1361, 1597.00
1362, 1597.00
1363, 1596.00
1364, 1594.00
1365, 1593.00
1366, 1593.00
1367, 1591.00
1368, 1591.00
1369, 1589.00
1370, 1588.00
1371, 1587.00
1372, 1586.00
1373, 1584.00
1374, 1584.00
1375, 1582.00
1376, 1580.00
1377, 1581.00
1378, 1579.00
1379, 1579.00
1380, 1578.00
1381, 1577.00
1382, 1575.00
1383, 1575.00
1384, 1575.00
1385, 1575.00
1386, 1574.00
1387, 1573.00
1388, 1572.00
1389, 1572.00
1390, 1572.00
1391, 1571.00
1392, 1571.00
1393, 1570.00
1394, 1569.00
1395, 1569.00
1396, 1569.00
1397, 1570.00
1398, 1567.00
1399, 1568.00
1400, 1569.00
1401, 1568.00
1402, 1569.00
1403, 1568.00
1404, 1566.00
1405, 1567.00
1406, 1566.00
1407, 1567.00
1408, 1565.00
1409, 1567.00
1410, 1567.00
1411, 1568.00
1412, 1567.00
1413, 1566.00
1414, 1566.00
1415, 1566.00
1416, 1566.00
1417, 1565.00
1418, 1565.00
1419, 1565.00
1420, 1565.00
1421, 1564.00
1422, 1565.00
1423, 1567.00
1424, 1566.00
1425, 1566.00
1426, 1566.00
1427, 1566.00
1428, 1566.00
1429, 1567.00
1430, 1568.00
1431, 1566.00
1432, 1568.00
1433, 1567.00
1434, 1567.00
1435, 1569.00
1436, 1568.00
1437, 1569.00
1438, 1569.00
1439, 1569.00
1440, 1570.00
1441, 1569.00
1442, 1570.00
1443, 1571.00
1444, 1571.00
1445, 1572.00
1446, 1573.00
1447, 1573.00
1448, 1573.00
1449, 1574.00
1450, 1574.00
1451, 1574.00
1452, 1575.00
1453, 1575.00
1454, 1576.00
1455, 1577.00
1456, 1576.00
1457, 1577.00
1458, 1578.00
1459, 1578.00
1460, 1579.00
1461, 1580.00
1462, 1580.00
1463, 1581.00
1464, 1582.00
1465, 1582.00
1466, 1584.00
1467, 1583.00
1468, 1585.00
1469, 1585.00
1470, 1586.00
1471, 1587.00
1472, 1588.00
1473, 1588.00
1474, 1589.00
1475, 1590.00
1476, 1591.00
1477, 1592.00
1478, 1592.00
1479, 1593.00
1480, 1595.00
1481, 1595.00
1482, 1597.00
1483, 1598.00
1484, 1598.00
1485, 1599.00
1486, 1599.00
1487, 1602.00
1488, 1602.00
1489, 1604.00
1490, 1603.00
1491, 1606.00
1492, 1606.00
1493, 1606.00
1494, 1606.00
1495, 1609.00
1496, 1609.00
1497, 1611.00
1498, 1611.00
1499, 1613.00
1500, 1613.00
1501, 1615.00
1502, 1615.00
1503, 1615.00
1504, 1616.00
1505, 1618.00
1506, 1619.00
1507, 1620.00
1508, 1621.00
1509, 1623.00
1510, 1622.00
1511, 1624.00
1512, 1625.00
1513, 1626.00
1514, 1627.00
1515, 1629.00
1516, 1630.00
1517, 1631.00
1518, 1633.00
1519, 1633.00
1520, 1635.00
1521, 1635.00
1522, 1636.00
1523, 1638.00
1524, 1639.00
1525, 1640.00
1526, 1640.00
1527, 1642.00
1528, 1643.00
1529, 1645.00
1530, 1646.00
1531, 1647.00
1532, 1648.00
1533, 1650.00
1534, 1651.00
1535, 1651.00
1536, 1653.00
1537, 1654.00
1538, 1655.00
1539, 1657.00
1540, 1659.00
1541, 1660.00
1542, 1659.00
1543, 1662.00
1544, 1663.00
1545, 1663.00
1546, 1664.00
1547, 1666.00
1548, 1667.00
1549, 1668.00
1550, 1669.00
1551, 1670.00
1552, 1672.00
1553, 1673.00
1554, 1674.00
1555, 1675.00
1556, 1675.00
1557, 1678.00
1558, 1679.00
1559, 1680.00
1560, 1681.00
1561, 1683.00
1562, 1685.00
1563, 1686.00
1564, 1688.00
1565, 1688.00
1566, 1689.00
1567, 1691.00
1568, 1693.00
1569, 1694.00
1570, 1696.00
1571, 1697.00
1572, 1698.00
1573, 1700.00
1574, 1701.00
1575, 1701.00
1576, 1704.00
1577, 1705.00
1578, 1706.00
1579, 1706.00
1580, 1707.00
1581, 1709.00
1582, 1710.00
1583, 1711.00
1584, 1713.00
1585, 1715.00
1586, 1714.00
1587, 1717.00
1588, 1717.00
1589, 1718.00
1590, 1719.00
1591, 1721.00
1592, 1722.00
1593, 1723.00
1594, 1724.00
1595, 1726.00
1596, 1727.00
1597, 1728.00
1598, 1729.00
1599, 1731.00
1600, 1732.00
1601, 1733.00
1602, 1734.00
1603, 1735.00
1604, 1737.00
1605, 1738.00
1606, 1739.00
1607, 1741.00
1608, 1742.00
1609, 1744.00
1610, 1746.00
1611, 1746.00
1612, 1748.00
1613, 1751.00
1614, 1751.00
1615, 1752.00
1616, 1754.00
1617, 1756.00
1618, 1757.00
1619, 1759.00
1620, 1761.00
1621, 1762.00
1622, 1763.00
1623, 1765.00
1624, 1767.00
1625, 1768.00
1626, 1770.00
1627, 1771.00
1628, 1772.00
1629, 1774.00
1630, 1775.00
1631, 1776.00
1632, 1778.00
1633, 1779.00
1634, 1780.00
1635, 1783.00
1636, 1782.00
1637, 1785.00
1638, 1785.00
1639, 1787.00
1640, 1788.00
1641, 1790.00
1642, 1790.00
1643, 1791.00
1644, 1793.00
1645, 1794.00
1646, 1797.00
1647, 1796.00
1648, 1799.00
1649, 1800.00
1650, 1801.00

1750, 2239.00
1751, 2237.00
1752, 2239.00
1753, 2238.00
1754, 2237.00
1755, 2238.00
1756, 2238.00
1757, 2239.00
1758, 2239.00
1759, 2238.00
1760, 2238.00
1761, 2237.00
1762, 2237.00
1763, 2237.00
1764, 2237.00
1765, 2237.00
1766, 2237.00
1767, 2236.00
1768, 2237.00
1769, 2235.00
1770, 2235.00
1771, 2234.00
1772, 2236.00
1773, 2234.00
1774, 2232.00
1775, 2234.00
1776, 2232.00
1777, 2232.00
1778, 2232.00
1779, 2233.00
1780, 2235.00
1781, 2231.00
1782, 2230.00
1783, 2230.00
1784, 2230.00
1785, 2228.00
1786, 2228.00
1787, 2227.00
1788, 2227.00
1789, 2227.00
1790, 2227.00
1791, 2225.00
1792, 2225.00
1793, 2226.00
1794, 2227.00
1795, 2223.00
1796, 2225.00
1797, 2224.00
1798, 2223.00
1799, 2222.00
1800, 2222.00
1801, 2222.00
1802, 2219.00
1803, 2223.00
1804, 2220.00
1805, 2218.00
1806, 2220.00
1807, 2219.00
1808, 2218.00
1809, 2219.00
1810, 2216.00
1811, 2217.00
1812, 2216.00
1813, 2216.00
1814, 2215.00
1815, 2217.00
1816, 2214.00
1817, 2213.00
1818, 2211.00
1819, 2212.00
1820, 2209.00
1821, 2209.00
1822, 2209.00
1823, 2209.00
1824, 2207.00
1825, 2207.00
1826, 2204.00
1827, 2205.00
1828, 2203.00
1829, 2202.00
1830, 2199.00
1831, 2198.00
1832, 2196.00
1833, 2197.00
1834, 2192.00
1835, 2192.00
1836, 2189.00
1837, 2188.00
1838, 2185.00
1839, 2183.00
1840, 2180.00
1841, 2182.00
1842, 2179.00
1843, 2176.00
1844, 2173.00
1845, 2171.00
1846, 2168.00
1847, 2167.00
1848, 2167.00
1849, 2163.00
1850, 2160.00
1851, 2161.00
1852, 2156.00
1853, 2153.00
1854, 2152.00
1855, 2149.00
1856, 2146.00
1857, 2145.00
1858, 2142.00
1859, 2141.00
1860, 2139.00
1861, 2135.00
1862, 2135.00
1863, 2134.00
1864, 2133.00
1865, 2129.00
1866, 2129.00
1867, 2125.00
1868, 2124.00
1869, 2124.00
1870, 2122.00
1871, 2121.00
1872, 2119.00
1873, 2118.00
1874, 2117.00
1875, 2117.00
1876, 2113.00
1877, 2112.00
1878, 2113.00
1879, 2112.00
1880, 2113.00
1881, 2111.00
1882, 2109.00
1883, 2107.00
1884, 2108.00
1885, 2104.00
1886, 2107.00
1887, 2108.00
1888, 2104.00
1889, 2105.00
1890, 2103.00
1891, 2105.00
1892, 2103.00
1893, 2104.00
1894, 2102.00
1895, 2102.00
1896, 2101.00
1897, 2101.00
1898, 2100.00
1899, 2100.00
1900, 2098.00
1901, 2100.00
1902, 2101.00
1903, 2098.00
1904, 2099.00
1905, 2099.00
1906, 2097.00
1907, 2097.00
1908, 2097.00
1909, 2097.00
1910, 2097.00
1911, 2098.00
1912, 2097.00
1913, 2097.00
1914, 2096.00
1915, 2096.00
1916, 2097.00
1917, 2096.00
1918, 2096.00
1919, 2095.00
1920, 2096.00
1921, 2095.00
1922, 2096.00
1923, 2096.00
1924, 2095.00
1925, 2095.00
1926, 2096.00
1927, 2095.00
1928, 2095.00
1929, 2095.00
1930, 2096.00
1931, 2094.00
1932, 2096.00
1933, 2095.00
1934, 2095.00
1935, 2095.00
1936, 2096.00
1937, 2096.00
1938, 2096.00
1939, 2096.00
1940, 2097.00
1941, 2097.00
1942, 2096.00
1943, 2097.00
1944, 2098.00
1945, 2097.00
1946, 2096.00
1947, 2098.00
1948, 2098.00
1949, 2097.00
1950, 2098.00
1951, 2099.00
1952, 2099.00
1953, 2098.00
1954, 2101.00
1955, 2102.00
1956, 2100.00
1957, 2101.00
1958, 2104.00
1959, 2101.00
1960, 2104.00
1961, 2102.00
1962, 2103.00
1963, 2104.00
1964, 2104.00
1965, 2105.00
1966, 2105.00
1967, 2103.00
1968, 2106.00
1969, 2107.00
1970, 2106.00
1971, 2107.00
1972, 2107.00
1973, 2106.00
1974, 2108.00
1975, 2110.00
1976, 2111.00
1977, 2109.00
1978, 2109.00
1979, 2112.00
1980, 2112.00
1981, 2112.00
1982, 2113.00
1983, 2114.00
1984, 2113.00
1985, 2115.00
1986, 2116.00
1987, 2114.00
1988, 2117.00
1989, 2117.00
1990, 2117.00
1991, 2117.00
1992, 2116.00
1993, 2118.00
1994, 2118.00
1995, 2119.00
1996, 2118.00
1997, 2120.00
1998, 2120.00
1999, 2121.00
2000, 2119.00
2001, 2122.00
2002, 2121.00
2003, 2124.00
2004, 2125.00
2005, 2124.00
2006, 2124.00
2007, 2124.00
2008, 2126.00
2009, 2128.00
2010, 2125.00
2011, 2127.00
2012, 2129.00
2013, 2128.00
2014, 2129.00
2015, 2129.00
2016, 2130.00
2017, 2131.00
2018, 2132.00
2019, 2132.00
2020, 2133.00
2021, 2132.00
2022, 2134.00
2023, 2133.00
2024, 2135.00
2025, 2134.00
2026, 2135.00
2027, 2136.00
2028, 2137.00
2029, 2139.00
2030, 2139.00
2031, 2137.00
2032, 2137.00
2033, 2139.00
2034, 2143.00
2035, 2141.00
2036, 2141.00
2037, 2142.00
2038, 2143.00
2039, 2144.00
2040, 2144.00
2041, 2145.00
2042, 2146.00
2043, 2147.00
2044, 2146.00
2045, 2147.00
2046, 2148.00
2047, 2150.00
2048, 2149.00
2049, 2148.00
2050, 2152.00
2051, 2151.00
2052, 2152.00
2053, 2154.00
2054, 2155.00
2055, 2155.00
2056, 2157.00
2057, 2155.00
2058, 2158.00
2059, 2160.00
2060, 2159.00
2061, 2160.00
2062, 2161.00
2063, 2161.00
2064, 2163.00
2065, 2165.00
2066, 2163.00
2067, 2165.00
2068, 2166.00
2069, 2165.00
2070, 2168.00
2071, 2169.00
2072, 2169.00
2073, 2170.00
2074, 2172.00
2075, 2171.00
2076, 2173.00
2077, 2173.00
2078, 2176.00
2079, 2175.00
2080, 2175.00
2081, 2176.00
2082, 2177.00
2083, 2178.00
2084, 2178.00
2085, 2180.00
2086, 2181.00
2087, 2180.00
2088, 2181.00
2089, 2182.00
2090, 2182.00
2091, 2182.00
2092, 2183.00
2093, 2184.00
2094, 2184.00
2095, 2187.00
2096, 2184.00
2097, 2187.00
2098, 2186.00
2099, 2188.00
2100, 2187.00
2101, 2190.00
2102, 2188.00
2103, 2190.00
2104, 2191.00
2105, 2188.00
2106, 2190.00
2107, 2191.00
2108, 2191.00
2109, 2192.00
2110, 2192.00
2111, 2193.00
2112, 2195.00
2113, 2194.00
2114, 2193.00
2115, 2195.00
2116, 2195.00
2117, 2194.00
2118, 2195.00
2119, 2196.00
2120, 2196.00
2121, 2197.00
2122, 2197.00
2123, 2197.00
2124, 2197.00
2125, 2198.00
2126, 2198.00
2127, 2199.00
2128, 2198.00
2129, 2200.00
2130, 2200.00
2131, 2201.00
2132, 2200.00
2133, 2199.00
2134, 2201.00
2135, 2201.00
2136, 2199.00
2137, 2202.00
2138, 2203.00
2139, 2203.00
2140, 2203.00
2141, 2202.00
2142, 2203.00
2143, 2202.00
2144, 2202.00
2145, 2203.00
2146, 2203.00
2147, 2203.00
2148, 2204.00
2149, 2206.00
2150, 2205.00
