FW version: 24
Log Version: 3.0.3

General Info:
       Command/Macro Performed,            Timestamp,             Device ID, COM Port, UART/I2C, Test Name, Host Major, Host Minor, Host Revision, Host Git Commit
            Single_measurement,  2023_06_30_10_59_43,       Insight2_F4_xxx,    USB-C,      USB,          ,          0,          1,             1,      4031237645

Show Spectrometer Status:
l0_version, f4_version, battery_perc, battery_mVolt, accelerometer_temp, accelerometer_x, accelerometer_y, accelerometer_z, compass_temp, compass_x, compass_y, compass_z, lamp_0, lamp_1, gain_0, gain_1
        17,         24,           93,          2069,               5984,           65376,             252,           18440,            0,     65378,     65534,     65535,   3276,   3276,      0,      0

Temperature Statistic Info:
NTC AVG [°C], NTC2 AVG [°C]
      37.897,        37.612

Statistic Info:
M1:  num,      min,      max,   median,      AVG,      STD,M2:  num,      min,      max,   median,      AVG,      STD
     301,   694.00,   795.00,   715.00,   727.09,  31.2559,     401,   898.00,   960.00,   923.00,   924.80,  20.3146,

Measurements:
Wavelength, Data Amplitude
1350, 713.00
1351, 713.00
1352, 712.00
1353, 713.00
1354, 712.00
1355, 712.00
1356, 711.00
1357, 710.00
1358, 710.00
1359, 710.00
1360, 710.00
1361, 709.00
1362, 708.00
1363, 708.00
1364, 707.00
1365, 707.00
1366, 707.00
1367, 706.00
1368, 705.00
1369, 705.00
1370, 705.00
1371, 704.00
1372, 703.00
1373, 703.00
1374, 703.00
1375, 702.00
1376, 702.00
1377, 702.00
1378, 700.00
1379, 701.00
1380, 701.00
1381, 700.00
1382, 699.00
1383, 699.00
1384, 699.00
1385, 698.00
1386, 698.00
1387, 698.00
1388, 698.00
1389, 698.00
1390, 697.00
1391, 697.00
1392, 697.00
1393, 696.00
1394, 696.00
1395, 696.00
1396, 696.00
1397, 696.00
1398, 696.00
1399, 696.00
1400, 695.00
1401, 695.00
1402, 695.00
1403, 695.00
1404, 695.00
1405, 696.00
1406, 695.00
1407, 695.00
1408, 695.00
1409, 695.00
1410, 695.00
1411, 694.00
1412, 694.00
1413, 694.00
1414, 694.00
1415, 695.00
1416, 694.00
1417, 695.00
1418, 694.00
1419, 694.00
1420, 694.00
1421, 695.00
1422, 694.00
1423, 694.00
1424, 694.00
1425, 695.00
1426, 695.00
1427, 694.00
1428, 694.00
1429, 694.00
1430, 695.00
1431, 695.00
1432, 695.00
1433, 695.00
1434, 695.00
1435, 695.00
1436, 695.00
1437, 695.00
1438, 696.00
1439, 696.00
1440, 696.00
1441, 696.00
1442, 696.00
1443, 696.00
1444, 697.00
1445, 696.00
1446, 697.00
1447, 697.00
1448, 697.00
1449, 698.00
1450, 698.00
1451, 697.00
1452, 698.00
1453, 698.00
1454, 698.00
1455, 699.00
1456, 699.00
1457, 699.00
1458, 699.00
1459, 700.00
1460, 700.00
1461, 700.00
1462, 700.00
1463, 700.00
1464, 701.00
1465, 701.00
1466, 701.00
1467, 701.00
1468, 702.00
1469, 703.00
1470, 703.00
1471, 703.00
1472, 704.00
1473, 704.00
1474, 704.00
1475, 705.00
1476, 705.00
1477, 705.00
1478, 706.00
1479, 706.00
1480, 706.00
1481, 707.00
1482, 707.00
1483, 708.00
1484, 708.00
1485, 708.00
1486, 709.00
1487, 709.00
1488, 709.00
1489, 710.00
1490, 710.00
1491, 711.00
1492, 711.00
1493, 712.00
1494, 711.00
1495, 713.00
1496, 713.00
1497, 713.00
1498, 714.00
1499, 714.00
1500, 715.00
1501, 715.00
1502, 715.00
1503, 716.00
1504, 716.00
1505, 716.00
1506, 717.00
1507, 717.00
1508, 718.00
1509, 718.00
1510, 718.00
1511, 719.00
1512, 719.00
1513, 720.00
1514, 720.00
1515, 721.00
1516, 722.00
1517, 722.00
1518, 723.00
1519, 723.00
1520, 723.00
1521, 723.00
1522, 725.00
1523, 725.00
1524, 725.00
1525, 725.00
1526, 727.00
1527, 727.00
1528, 727.00
1529, 728.00
1530, 729.00
1531, 728.00
1532, 729.00
1533, 729.00
1534, 730.00
1535, 730.00
1536, 731.00
1537, 732.00
1538, 733.00
1539, 733.00
1540, 734.00
1541, 734.00
1542, 735.00
1543, 735.00
1544, 736.00
1545, 736.00
1546, 737.00
1547, 737.00
1548, 737.00
1549, 738.00
1550, 738.00
1551, 739.00
1552, 740.00
1553, 740.00
1554, 741.00
1555, 741.00
1556, 742.00
1557, 742.00
1558, 743.00
1559, 744.00
1560, 744.00
1561, 745.00
1562, 745.00
1563, 745.00
1564, 747.00
1565, 747.00
1566, 748.00
1567, 748.00
1568, 749.00
1569, 750.00
1570, 750.00
1571, 750.00
1572, 751.00
1573, 751.00
1574, 752.00
1575, 753.00
1576, 753.00
1577, 754.00
1578, 755.00
1579, 755.00
1580, 755.00
1581, 755.00
1582, 756.00
1583, 757.00
1584, 758.00
1585, 758.00
1586, 758.00
1587, 758.00
1588, 760.00
1589, 760.00
1590, 760.00
1591, 761.00
1592, 761.00
1593, 762.00
1594, 763.00
1595, 763.00
1596, 763.00
1597, 764.00
1598, 764.00
1599, 765.00
1600, 766.00
1601, 766.00
1602, 766.00
1603, 767.00
1604, 768.00
1605, 768.00
1606, 769.00
1607, 769.00
1608, 770.00
1609, 771.00
1610, 771.00
1611, 772.00
1612, 772.00
1613, 773.00
1614, 774.00
1615, 774.00
1616, 775.00
1617, 776.00
1618, 776.00
1619, 777.00
1620, 778.00
1621, 778.00
1622, 779.00
1623, 780.00
1624, 781.00
1625, 781.00
1626, 781.00
1627, 782.00
1628, 783.00
1629, 783.00
1630, 784.00
1631, 785.00
1632, 784.00
1633, 785.00
1634, 786.00
1635, 787.00
1636, 787.00
1637, 788.00
1638, 788.00
1639, 789.00
1640, 789.00
1641, 790.00
1642, 791.00
1643, 791.00
1644, 791.00
1645, 792.00
1646, 793.00
1647, 793.00
1648, 794.00
1649, 794.00
1650, 795.00

1750, 959.00
1751, 960.00
1752, 959.00
1753, 959.00
1754, 959.00
1755, 959.00
1756, 959.00
1757, 960.00
1758, 959.00
1759, 959.00
1760, 959.00
1761, 959.00
1762, 959.00
1763, 959.00
1764, 959.00
1765, 959.00
1766, 959.00
1767, 959.00
1768, 958.00
1769, 958.00
1770, 958.00
1771, 959.00
1772, 958.00
1773, 958.00
1774, 958.00
1775, 959.00
1776, 958.00
1777, 957.00
1778, 957.00
1779, 958.00
1780, 957.00
1781, 957.00
1782, 957.00
1783, 957.00
1784, 956.00
1785, 956.00
1786, 955.00
1787, 955.00
1788, 955.00
1789, 955.00
1790, 954.00
1791, 955.00
1792, 955.00
1793, 954.00
1794, 954.00
1795, 954.00
1796, 953.00
1797, 954.00
1798, 953.00
1799, 953.00
1800, 953.00
1801, 952.00
1802, 952.00
1803, 952.00
1804, 951.00
1805, 952.00
1806, 952.00
1807, 951.00
1808, 951.00
1809, 951.00
1810, 951.00
1811, 950.00
1812, 949.00
1813, 950.00
1814, 950.00
1815, 949.00
1816, 949.00
1817, 949.00
1818, 948.00
1819, 948.00
1820, 948.00
1821, 947.00
1822, 947.00
1823, 947.00
1824, 946.00
1825, 946.00
1826, 945.00
1827, 945.00
1828, 944.00
1829, 943.00
1830, 943.00
1831, 942.00
1832, 942.00
1833, 941.00
1834, 940.00
1835, 940.00
1836, 938.00
1837, 938.00
1838, 937.00
1839, 937.00
1840, 936.00
1841, 934.00
1842, 934.00
1843, 932.00
1844, 933.00
1845, 931.00
1846, 931.00
1847, 930.00
1848, 928.00
1849, 927.00
1850, 926.00
1851, 925.00
1852, 925.00
1853, 924.00
1854, 922.00
1855, 921.00
1856, 921.00
1857, 920.00
1858, 919.00
1859, 918.00
1860, 917.00
1861, 916.00
1862, 915.00
1863, 914.00
1864, 914.00
1865, 913.00
1866, 912.00
1867, 911.00
1868, 910.00
1869, 911.00
1870, 910.00
1871, 909.00
1872, 909.00
1873, 908.00
1874, 908.00
1875, 907.00
1876, 907.00
1877, 906.00
1878, 906.00
1879, 905.00
1880, 905.00
1881, 905.00
1882, 905.00
1883, 904.00
1884, 904.00
1885, 903.00
1886, 903.00
1887, 903.00
1888, 902.00
1889, 902.00
1890, 903.00
1891, 902.00
1892, 902.00
1893, 902.00
1894, 901.00
1895, 901.00
1896, 901.00
1897, 901.00
1898, 900.00
1899, 901.00
1900, 901.00
1901, 900.00
1902, 900.00
1903, 899.00
1904, 900.00
1905, 900.00
1906, 900.00
1907, 899.00
1908, 900.00
1909, 899.00
1910, 899.00
1911, 899.00
1912, 899.00
1913, 898.00
1914, 899.00
1915, 898.00
1916, 899.00
1917, 898.00
1918, 898.00
1919, 898.00
1920, 898.00
1921, 899.00
1922, 898.00
1923, 898.00
1924, 899.00
1925, 898.00
1926, 898.00
1927, 899.00
1928, 899.00
1929, 898.00
1930, 898.00
1931, 898.00
1932, 899.00
1933, 898.00
1934, 899.00
1935, 898.00
1936, 898.00
1937, 899.00
1938, 898.00
1939, 899.00
1940, 898.00
1941, 898.00
1942, 899.00
1943, 899.00
1944, 899.00
1945, 899.00
1946, 899.00
1947, 899.00
1948, 899.00
1949, 899.00
1950, 900.00
1951, 899.00
1952, 900.00
1953, 900.00
1954, 899.00
1955, 900.00
1956, 900.00
1957, 901.00
1958, 901.00
1959, 901.00
1960, 901.00
1961, 901.00
1962, 901.00
1963, 902.00
1964, 901.00
1965, 902.00
1966, 902.00
1967, 902.00
1968, 903.00
1969, 902.00
1970, 903.00
1971, 903.00
1972, 904.00
1973, 903.00
1974, 904.00
1975, 904.00
1976, 904.00
1977, 904.00
1978, 904.00
1979, 905.00
1980, 905.00
1981, 905.00
1982, 905.00
1983, 905.00
1984, 905.00
1985, 906.00
1986, 906.00
1987, 906.00
1988, 906.00
1989, 907.00
1990, 907.00
1991, 907.00
1992, 907.00
1993, 908.00
1994, 907.00
1995, 908.00
1996, 908.00
1997, 909.00
1998, 909.00
1999, 909.00
2000, 909.00
2001, 910.00
2002, 909.00
2003, 910.00
2004, 910.00
2005, 910.00
2006, 910.00
2007, 911.00
2008, 911.00
2009, 911.00
2010, 911.00
2011, 912.00
2012, 912.00
2013, 912.00
2014, 912.00
2015, 912.00
2016, 913.00
2017, 912.00
2018, 913.00
2019, 913.00
2020, 914.00
2021, 913.00
2022, 913.00
2023, 914.00
2024, 914.00
2025, 915.00
2026, 915.00
2027, 915.00
2028, 916.00
2029, 916.00
2030, 915.00
2031, 916.00
2032, 916.00
2033, 917.00
2034, 917.00
2035, 917.00
2036, 918.00
2037, 917.00
2038, 918.00
2039, 918.00
2040, 918.00
2041, 919.00
2042, 919.00
2043, 919.00
2044, 919.00
2045, 920.00
2046, 921.00
2047, 920.00
2048, 921.00
2049, 922.00
2050, 921.00
2051, 922.00
2052, 922.00
2053, 923.00
2054, 924.00
2055, 923.00
2056, 924.00
2057, 924.00
2058, 924.00
2059, 925.00
2060, 925.00
2061, 925.00
2062, 926.00
2063, 926.00
2064, 927.00
2065, 926.00
2066, 927.00
2067, 927.00
2068, 928.00
2069, 928.00
2070, 928.00
2071, 929.00
2072, 929.00
2073, 930.00
2074, 929.00
2075, 930.00
2076, 930.00
2077, 931.00
2078, 931.00
2079, 931.00
2080, 932.00
2081, 932.00
2082, 932.00
2083, 933.00
2084, 932.00
2085, 933.00
2086, 933.00
2087, 934.00
2088, 934.00
2089, 934.00
2090, 935.00
2091, 935.00
2092, 935.00
2093, 936.00
2094, 936.00
2095, 936.00
2096, 936.00
2097, 936.00
2098, 936.00
2099, 937.00
2100, 937.00
2101, 937.00
2102, 938.00
2103, 938.00
2104, 938.00
2105, 938.00
2106, 938.00
2107, 938.00
2108, 938.00
2109, 938.00
2110, 939.00
2111, 939.00
2112, 939.00
2113, 939.00
2114, 939.00
2115, 940.00
2116, 939.00
2117, 940.00
2118, 940.00
2119, 941.00
2120, 940.00
2121, 940.00
2122, 941.00
2123, 940.00
2124, 941.00
2125, 940.00
2126, 941.00
2127, 941.00
2128, 942.00
2129, 941.00
2130, 942.00
2131, 941.00
2132, 942.00
2133, 943.00
2134, 942.00
2135, 942.00
2136, 943.00
2137, 942.00
2138, 943.00
2139, 943.00
2140, 943.00
2141, 942.00
2142, 943.00
2143, 943.00
2144, 943.00
2145, 943.00
2146, 943.00
2147, 944.00
2148, 944.00
2149, 944.00
2150, 943.00
