FW version: 24
Log Version: 3.0.3

General Info:
       Command/Macro Performed,            Timestamp,             Device ID, COM Port, UART/I2C, Test Name, Host Major, Host Minor, Host Revision, Host Git Commit
            Single_measurement,  2023_07_18_11_03_51,       Insight2_F4_xxx,    USB-C,      USB,          ,          0,          1,             1,      4031237645

Show Spectrometer Status:
l0_version, f4_version, battery_perc, battery_mVolt, accelerometer_temp, accelerometer_x, accelerometer_y, accelerometer_z, compass_temp, compass_x, compass_y, compass_z, lamp_0, lamp_1, gain_0, gain_1
        17,         24,           73,          1989,               6304,           65232,            1136,           18840,            0,     65494,     65278,     18937,   3276,   3276,      1,      1

Temperature Statistic Info:
NTC AVG [°C], NTC2 AVG [°C]
      39.411,        39.086

Statistic Info:
M1:  num,      min,      max,   median,      AVG,      STD,M2:  num,      min,      max,   median,      AVG,      STD
     301,  1825.00,  2110.00,  1884.00,  1919.40,  88.5685,     401,  2413.00,  2578.00,  2480.00,  2484.83,  54.0042,

Measurements:
Wavelength, Data Amplitude
1350, 1879.00
1351, 1877.00
1352, 1876.00
1353, 1875.00
1354, 1874.00
1355, 1873.00
1356, 1872.00
1357, 1869.00
1358, 1871.00
1359, 1869.00
1360, 1867.00
1361, 1867.00
1362, 1866.00
1363, 1863.00
1364, 1863.00
1365, 1861.00
1366, 1859.00
1367, 1858.00
1368, 1857.00
1369, 1854.00
1370, 1854.00
1371, 1852.00
1372, 1851.00
1373, 1849.00
1374, 1847.00
1375, 1847.00
1376, 1845.00
1377, 1844.00
1378, 1843.00
1379, 1842.00
1380, 1841.00
1381, 1840.00
1382, 1839.00
1383, 1839.00
1384, 1838.00
1385, 1836.00
1386, 1835.00
1387, 1834.00
1388, 1835.00
1389, 1835.00
1390, 1833.00
1391, 1834.00
1392, 1833.00
1393, 1833.00
1394, 1832.00
1395, 1831.00
1396, 1830.00
1397, 1831.00
1398, 1830.00
1399, 1829.00
1400, 1829.00
1401, 1829.00
1402, 1829.00
1403, 1828.00
1404, 1829.00
1405, 1828.00
1406, 1828.00
1407, 1827.00
1408, 1827.00
1409, 1828.00
1410, 1827.00
1411, 1827.00
1412, 1827.00
1413, 1827.00
1414, 1827.00
1415, 1826.00
1416, 1827.00
1417, 1827.00
1418, 1826.00
1419, 1825.00
1420, 1827.00
1421, 1826.00
1422, 1825.00
1423, 1827.00
1424, 1827.00
1425, 1827.00
1426, 1826.00
1427, 1827.00
1428, 1827.00
1429, 1828.00
1430, 1828.00
1431, 1827.00
1432, 1828.00
1433, 1830.00
1434, 1829.00
1435, 1829.00
1436, 1830.00
1437, 1831.00
1438, 1831.00
1439, 1831.00
1440, 1831.00
1441, 1833.00
1442, 1832.00
1443, 1832.00
1444, 1834.00
1445, 1833.00
1446, 1833.00
1447, 1835.00
1448, 1835.00
1449, 1836.00
1450, 1837.00
1451, 1837.00
1452, 1838.00
1453, 1838.00
1454, 1838.00
1455, 1840.00
1456, 1840.00
1457, 1841.00
1458, 1843.00
1459, 1842.00
1460, 1843.00
1461, 1844.00
1462, 1844.00
1463, 1845.00
1464, 1847.00
1465, 1847.00
1466, 1847.00
1467, 1849.00
1468, 1849.00
1469, 1850.00
1470, 1852.00
1471, 1852.00
1472, 1853.00
1473, 1854.00
1474, 1856.00
1475, 1855.00
1476, 1856.00
1477, 1858.00
1478, 1859.00
1479, 1859.00
1480, 1862.00
1481, 1863.00
1482, 1863.00
1483, 1864.00
1484, 1866.00
1485, 1868.00
1486, 1869.00
1487, 1869.00
1488, 1870.00
1489, 1871.00
1490, 1872.00
1491, 1874.00
1492, 1875.00
1493, 1876.00
1494, 1879.00
1495, 1878.00
1496, 1879.00
1497, 1881.00
1498, 1882.00
1499, 1882.00
1500, 1884.00
1501, 1885.00
1502, 1886.00
1503, 1887.00
1504, 1889.00
1505, 1891.00
1506, 1891.00
1507, 1893.00
1508, 1895.00
1509, 1895.00
1510, 1896.00
1511, 1898.00
1512, 1898.00
1513, 1900.00
1514, 1901.00
1515, 1903.00
1516, 1905.00
1517, 1906.00
1518, 1907.00
1519, 1908.00
1520, 1909.00
1521, 1911.00
1522, 1912.00
1523, 1914.00
1524, 1915.00
1525, 1915.00
1526, 1919.00
1527, 1919.00
1528, 1922.00
1529, 1921.00
1530, 1923.00
1531, 1924.00
1532, 1927.00
1533, 1928.00
1534, 1929.00
1535, 1931.00
1536, 1932.00
1537, 1933.00
1538, 1936.00
1539, 1937.00
1540, 1938.00
1541, 1940.00
1542, 1941.00
1543, 1942.00
1544, 1943.00
1545, 1945.00
1546, 1947.00
1547, 1948.00
1548, 1950.00
1549, 1952.00
1550, 1953.00
1551, 1954.00
1552, 1956.00
1553, 1957.00
1554, 1959.00
1555, 1959.00
1556, 1961.00
1557, 1963.00
1558, 1965.00
1559, 1967.00
1560, 1968.00
1561, 1970.00
1562, 1972.00
1563, 1973.00
1564, 1974.00
1565, 1976.00
1566, 1978.00
1567, 1979.00
1568, 1981.00
1569, 1983.00
1570, 1985.00
1571, 1985.00
1572, 1988.00
1573, 1990.00
1574, 1990.00
1575, 1992.00
1576, 1995.00
1577, 1996.00
1578, 1997.00
1579, 1998.00
1580, 2000.00
1581, 2002.00
1582, 2003.00
1583, 2005.00
1584, 2006.00
1585, 2007.00
1586, 2008.00
1587, 2009.00
1588, 2010.00
1589, 2012.00
1590, 2015.00
1591, 2015.00
1592, 2017.00
1593, 2018.00
1594, 2019.00
1595, 2021.00
1596, 2023.00
1597, 2024.00
1598, 2026.00
1599, 2027.00
1600, 2027.00
1601, 2030.00
1602, 2033.00
1603, 2032.00
1604, 2035.00
1605, 2036.00
1606, 2037.00
1607, 2039.00
1608, 2040.00
1609, 2043.00
1610, 2043.00
1611, 2046.00
1612, 2049.00
1613, 2049.00
1614, 2052.00
1615, 2054.00
1616, 2056.00
1617, 2058.00
1618, 2059.00
1619, 2061.00
1620, 2063.00
1621, 2065.00
1622, 2066.00
1623, 2067.00
1624, 2069.00
1625, 2071.00
1626, 2073.00
1627, 2075.00
1628, 2077.00
1629, 2079.00
1630, 2080.00
1631, 2081.00
1632, 2083.00
1633, 2085.00
1634, 2086.00
1635, 2088.00
1636, 2089.00
1637, 2089.00
1638, 2092.00
1639, 2094.00
1640, 2095.00
1641, 2097.00
1642, 2098.00
1643, 2099.00
1644, 2101.00
1645, 2102.00
1646, 2103.00
1647, 2105.00
1648, 2108.00
1649, 2108.00
1650, 2110.00

1750, 2578.00
1751, 2577.00
1752, 2576.00
1753, 2575.00
1754, 2578.00
1755, 2577.00
1756, 2575.00
1757, 2577.00
1758, 2574.00
1759, 2576.00
1760, 2576.00
1761, 2577.00
1762, 2577.00
1763, 2575.00
1764, 2573.00
1765, 2574.00
1766, 2576.00
1767, 2575.00
1768, 2575.00
1769, 2573.00
1770, 2572.00
1771, 2573.00
1772, 2574.00
1773, 2571.00
1774, 2571.00
1775, 2572.00
1776, 2570.00
1777, 2571.00
1778, 2571.00
1779, 2567.00
1780, 2569.00
1781, 2569.00
1782, 2568.00
1783, 2569.00
1784, 2567.00
1785, 2566.00
1786, 2565.00
1787, 2563.00
1788, 2564.00
1789, 2563.00
1790, 2563.00
1791, 2563.00
1792, 2561.00
1793, 2563.00
1794, 2561.00
1795, 2561.00
1796, 2559.00
1797, 2559.00
1798, 2558.00
1799, 2557.00
1800, 2557.00
1801, 2555.00
1802, 2556.00
1803, 2557.00
1804, 2555.00
1805, 2554.00
1806, 2553.00
1807, 2555.00
1808, 2554.00
1809, 2553.00
1810, 2553.00
1811, 2552.00
1812, 2553.00
1813, 2550.00
1814, 2551.00
1815, 2548.00
1816, 2549.00
1817, 2549.00
1818, 2546.00
1819, 2543.00
1820, 2546.00
1821, 2544.00
1822, 2541.00
1823, 2542.00
1824, 2540.00
1825, 2537.00
1826, 2536.00
1827, 2536.00
1828, 2533.00
1829, 2532.00
1830, 2531.00
1831, 2530.00
1832, 2527.00
1833, 2525.00
1834, 2523.00
1835, 2522.00
1836, 2519.00
1837, 2516.00
1838, 2516.00
1839, 2513.00
1840, 2511.00
1841, 2508.00
1842, 2507.00
1843, 2504.00
1844, 2499.00
1845, 2498.00
1846, 2498.00
1847, 2493.00
1848, 2491.00
1849, 2489.00
1850, 2485.00
1851, 2487.00
1852, 2481.00
1853, 2479.00
1854, 2474.00
1855, 2472.00
1856, 2470.00
1857, 2469.00
1858, 2467.00
1859, 2465.00
1860, 2462.00
1861, 2457.00
1862, 2457.00
1863, 2455.00
1864, 2450.00
1865, 2450.00
1866, 2450.00
1867, 2444.00
1868, 2444.00
1869, 2443.00
1870, 2442.00
1871, 2441.00
1872, 2437.00
1873, 2438.00
1874, 2437.00
1875, 2435.00
1876, 2436.00
1877, 2433.00
1878, 2432.00
1879, 2432.00
1880, 2430.00
1881, 2431.00
1882, 2428.00
1883, 2429.00
1884, 2427.00
1885, 2426.00
1886, 2425.00
1887, 2425.00
1888, 2423.00
1889, 2424.00
1890, 2424.00
1891, 2423.00
1892, 2422.00
1893, 2421.00
1894, 2421.00
1895, 2421.00
1896, 2421.00
1897, 2420.00
1898, 2420.00
1899, 2420.00
1900, 2419.00
1901, 2419.00
1902, 2419.00
1903, 2418.00
1904, 2416.00
1905, 2418.00
1906, 2416.00
1907, 2416.00
1908, 2416.00
1909, 2416.00
1910, 2415.00
1911, 2418.00
1912, 2414.00
1913, 2416.00
1914, 2415.00
1915, 2414.00
1916, 2415.00
1917, 2415.00
1918, 2416.00
1919, 2414.00
1920, 2415.00
1921, 2414.00
1922, 2413.00
1923, 2414.00
1924, 2413.00
1925, 2415.00
1926, 2415.00
1927, 2415.00
1928, 2415.00
1929, 2414.00
1930, 2415.00
1931, 2414.00
1932, 2416.00
1933, 2414.00
1934, 2414.00
1935, 2415.00
1936, 2414.00
1937, 2414.00
1938, 2413.00
1939, 2415.00
1940, 2417.00
1941, 2415.00
1942, 2417.00
1943, 2417.00
1944, 2417.00
1945, 2416.00
1946, 2417.00
1947, 2415.00
1948, 2416.00
1949, 2418.00
1950, 2418.00
1951, 2417.00
1952, 2418.00
1953, 2419.00
1954, 2418.00
1955, 2420.00
1956, 2420.00
1957, 2419.00
1958, 2420.00
1959, 2422.00
1960, 2422.00
1961, 2421.00
1962, 2422.00
1963, 2423.00
1964, 2424.00
1965, 2423.00
1966, 2424.00
1967, 2424.00
1968, 2425.00
1969, 2427.00
1970, 2427.00
1971, 2428.00
1972, 2427.00
1973, 2428.00
1974, 2429.00
1975, 2430.00
1976, 2430.00
1977, 2431.00
1978, 2431.00
1979, 2431.00
1980, 2432.00
1981, 2433.00
1982, 2434.00
1983, 2436.00
1984, 2435.00
1985, 2438.00
1986, 2434.00
1987, 2436.00
1988, 2436.00
1989, 2437.00
1990, 2438.00
1991, 2440.00
1992, 2439.00
1993, 2439.00
1994, 2441.00
1995, 2442.00
1996, 2443.00
1997, 2441.00
1998, 2444.00
1999, 2444.00
2000, 2442.00
2001, 2446.00
2002, 2444.00
2003, 2446.00
2004, 2446.00
2005, 2445.00
2006, 2448.00
2007, 2448.00
2008, 2449.00
2009, 2448.00
2010, 2450.00
2011, 2449.00
2012, 2451.00
2013, 2451.00
2014, 2453.00
2015, 2453.00
2016, 2453.00
2017, 2453.00
2018, 2455.00
2019, 2455.00
2020, 2456.00
2021, 2456.00
2022, 2455.00
2023, 2457.00
2024, 2458.00
2025, 2459.00
2026, 2458.00
2027, 2461.00
2028, 2461.00
2029, 2461.00
2030, 2461.00
2031, 2463.00
2032, 2463.00
2033, 2462.00
2034, 2465.00
2035, 2465.00
2036, 2466.00
2037, 2468.00
2038, 2468.00
2039, 2469.00
2040, 2468.00
2041, 2469.00
2042, 2470.00
2043, 2474.00
2044, 2471.00
2045, 2472.00
2046, 2473.00
2047, 2477.00
2048, 2476.00
2049, 2475.00
2050, 2478.00
2051, 2478.00
2052, 2480.00
2053, 2480.00
2054, 2482.00
2055, 2483.00
2056, 2485.00
2057, 2484.00
2058, 2484.00
2059, 2485.00
2060, 2488.00
2061, 2488.00
2062, 2490.00
2063, 2490.00
2064, 2491.00
2065, 2491.00
2066, 2494.00
2067, 2493.00
2068, 2494.00
2069, 2495.00
2070, 2496.00
2071, 2497.00
2072, 2498.00
2073, 2498.00
2074, 2499.00
2075, 2501.00
2076, 2503.00
2077, 2502.00
2078, 2505.00
2079, 2505.00
2080, 2505.00
2081, 2505.00
2082, 2508.00
2083, 2506.00
2084, 2509.00
2085, 2507.00
2086, 2510.00
2087, 2511.00
2088, 2511.00
2089, 2512.00
2090, 2513.00
2091, 2512.00
2092, 2512.00
2093, 2516.00
2094, 2516.00
2095, 2516.00
2096, 2516.00
2097, 2518.00
2098, 2517.00
2099, 2519.00
2100, 2518.00
2101, 2519.00
2102, 2520.00
2103, 2520.00
2104, 2521.00
2105, 2521.00
2106, 2520.00
2107, 2523.00
2108, 2521.00
2109, 2523.00
2110, 2523.00
2111, 2525.00
2112, 2525.00
2113, 2523.00
2114, 2527.00
2115, 2525.00
2116, 2526.00
2117, 2527.00
2118, 2526.00
2119, 2527.00
2120, 2528.00
2121, 2530.00
2122, 2530.00
2123, 2529.00
2124, 2529.00
2125, 2530.00
2126, 2529.00
2127, 2530.00
2128, 2532.00
2129, 2531.00
2130, 2532.00
2131, 2532.00
2132, 2531.00
2133, 2533.00
2134, 2533.00
2135, 2531.00
2136, 2535.00
2137, 2534.00
2138, 2535.00
2139, 2534.00
2140, 2535.00
2141, 2536.00
2142, 2536.00
2143, 2536.00
2144, 2537.00
2145, 2537.00
2146, 2537.00
2147, 2538.00
2148, 2537.00
2149, 2538.00
2150, 2537.00
