FW version: 24
Log Version: 3.0.3

General Info:
       Command/Macro Performed,            Timestamp,             Device ID, COM Port, UART/I2C, Test Name, Host Major, Host Minor, Host Revision, Host Git Commit
            Single_measurement,  2023_07_18_11_02_53,       Insight2_F4_xxx,    USB-C,      USB,          ,          0,          1,             1,      4031237645

Show Spectrometer Status:
l0_version, f4_version, battery_perc, battery_mVolt, accelerometer_temp, accelerometer_x, accelerometer_y, accelerometer_z, compass_temp, compass_x, compass_y, compass_z, lamp_0, lamp_1, gain_0, gain_1
        17,         24,           73,          1990,               6272,           65176,            1128,           18832,            0,     65438,     65276,     18938,   2047,   2047,      1,      1

Temperature Statistic Info:
NTC AVG [°C], NTC2 AVG [°C]
      39.026,        38.739

Statistic Info:
M1:  num,      min,      max,   median,      AVG,      STD,M2:  num,      min,      max,   median,      AVG,      STD
     301,   729.00,   855.00,   758.00,   772.21,  39.7161,     401,  1094.00,  1171.00,  1129.00,  1129.83,  25.2836,

Measurements:
Wavelength, Data Amplitude
1350, 749.00
1351, 748.00
1352, 747.00
1353, 747.00
1354, 746.00
1355, 747.00
1356, 745.00
1357, 746.00
1358, 746.00
1359, 745.00
1360, 745.00
1361, 744.00
1362, 745.00
1363, 743.00
1364, 743.00
1365, 742.00
1366, 741.00
1367, 743.00
1368, 741.00
1369, 741.00
1370, 740.00
1371, 739.00
1372, 737.00
1373, 738.00
1374, 737.00
1375, 737.00
1376, 738.00
1377, 736.00
1378, 736.00
1379, 736.00
1380, 736.00
1381, 735.00
1382, 735.00
1383, 733.00
1384, 734.00
1385, 734.00
1386, 733.00
1387, 733.00
1388, 732.00
1389, 733.00
1390, 733.00
1391, 732.00
1392, 731.00
1393, 732.00
1394, 731.00
1395, 732.00
1396, 731.00
1397, 731.00
1398, 732.00
1399, 731.00
1400, 731.00
1401, 730.00
1402, 732.00
1403, 731.00
1404, 731.00
1405, 732.00
1406, 731.00
1407, 730.00
1408, 730.00
1409, 730.00
1410, 731.00
1411, 730.00
1412, 730.00
1413, 731.00
1414, 730.00
1415, 730.00
1416, 729.00
1417, 731.00
1418, 730.00
1419, 731.00
1420, 731.00
1421, 730.00
1422, 730.00
1423, 731.00
1424, 731.00
1425, 731.00
1426, 731.00
1427, 731.00
1428, 730.00
1429, 732.00
1430, 731.00
1431, 732.00
1432, 731.00
1433, 732.00
1434, 732.00
1435, 732.00
1436, 732.00
1437, 733.00
1438, 732.00
1439, 732.00
1440, 733.00
1441, 733.00
1442, 734.00
1443, 733.00
1444, 735.00
1445, 734.00
1446, 735.00
1447, 735.00
1448, 735.00
1449, 735.00
1450, 735.00
1451, 736.00
1452, 736.00
1453, 737.00
1454, 737.00
1455, 738.00
1456, 738.00
1457, 738.00
1458, 738.00
1459, 739.00
1460, 739.00
1461, 740.00
1462, 740.00
1463, 740.00
1464, 740.00
1465, 740.00
1466, 741.00
1467, 741.00
1468, 741.00
1469, 743.00
1470, 743.00
1471, 743.00
1472, 744.00
1473, 744.00
1474, 744.00
1475, 745.00
1476, 746.00
1477, 745.00
1478, 746.00
1479, 747.00
1480, 748.00
1481, 747.00
1482, 749.00
1483, 749.00
1484, 749.00
1485, 751.00
1486, 751.00
1487, 751.00
1488, 751.00
1489, 752.00
1490, 753.00
1491, 753.00
1492, 754.00
1493, 754.00
1494, 753.00
1495, 756.00
1496, 756.00
1497, 756.00
1498, 757.00
1499, 757.00
1500, 758.00
1501, 758.00
1502, 758.00
1503, 759.00
1504, 759.00
1505, 761.00
1506, 761.00
1507, 761.00
1508, 762.00
1509, 762.00
1510, 763.00
1511, 765.00
1512, 765.00
1513, 765.00
1514, 766.00
1515, 767.00
1516, 767.00
1517, 768.00
1518, 767.00
1519, 769.00
1520, 770.00
1521, 771.00
1522, 771.00
1523, 771.00
1524, 772.00
1525, 773.00
1526, 773.00
1527, 774.00
1528, 775.00
1529, 775.00
1530, 776.00
1531, 777.00
1532, 777.00
1533, 777.00
1534, 780.00
1535, 779.00
1536, 780.00
1537, 781.00
1538, 782.00
1539, 782.00
1540, 783.00
1541, 783.00
1542, 784.00
1543, 784.00
1544, 785.00
1545, 787.00
1546, 787.00
1547, 787.00
1548, 789.00
1549, 789.00
1550, 790.00
1551, 789.00
1552, 790.00
1553, 791.00
1554, 792.00
1555, 792.00
1556, 793.00
1557, 794.00
1558, 794.00
1559, 794.00
1560, 795.00
1561, 797.00
1562, 797.00
1563, 797.00
1564, 798.00
1565, 799.00
1566, 800.00
1567, 800.00
1568, 801.00
1569, 803.00
1570, 802.00
1571, 803.00
1572, 804.00
1573, 804.00
1574, 806.00
1575, 806.00
1576, 806.00
1577, 807.00
1578, 808.00
1579, 808.00
1580, 809.00
1581, 810.00
1582, 810.00
1583, 809.00
1584, 810.00
1585, 812.00
1586, 812.00
1587, 813.00
1588, 814.00
1589, 814.00
1590, 815.00
1591, 814.00
1592, 816.00
1593, 817.00
1594, 817.00
1595, 817.00
1596, 819.00
1597, 820.00
1598, 820.00
1599, 821.00
1600, 820.00
1601, 821.00
1602, 821.00
1603, 823.00
1604, 823.00
1605, 824.00
1606, 825.00
1607, 826.00
1608, 826.00
1609, 827.00
1610, 827.00
1611, 829.00
1612, 830.00
1613, 831.00
1614, 831.00
1615, 832.00
1616, 832.00
1617, 833.00
1618, 834.00
1619, 835.00
1620, 836.00
1621, 837.00
1622, 837.00
1623, 839.00
1624, 839.00
1625, 839.00
1626, 841.00
1627, 841.00
1628, 842.00
1629, 841.00
1630, 843.00
1631, 845.00
1632, 845.00
1633, 845.00
1634, 846.00
1635, 846.00
1636, 847.00
1637, 848.00
1638, 847.00
1639, 849.00
1640, 850.00
1641, 849.00
1642, 852.00
1643, 851.00
1644, 851.00
1645, 852.00
1646, 853.00
1647, 853.00
1648, 854.00
1649, 855.00
1650, 855.00

1750, 1168.00
1751, 1169.00
1752, 1168.00
1753, 1171.00
1754, 1169.00
1755, 1169.00
1756, 1169.00
1757, 1169.00
1758, 1170.00
1759, 1170.00
1760, 1169.00
1761, 1169.00
1762, 1168.00
1763, 1171.00
1764, 1169.00
1765, 1170.00
1766, 1169.00
1767, 1168.00
1768, 1169.00
1769, 1169.00
1770, 1166.00
1771, 1168.00
1772, 1169.00
1773, 1167.00
1774, 1168.00
1775, 1167.00
1776, 1168.00
1777, 1168.00
1778, 1166.00
1779, 1165.00
1780, 1167.00
1781, 1167.00
1782, 1166.00
1783, 1166.00
1784, 1165.00
1785, 1166.00
1786, 1164.00
1787, 1164.00
1788, 1165.00
1789, 1165.00
1790, 1163.00
1791, 1162.00
1792, 1163.00
1793, 1163.00
1794, 1163.00
1795, 1163.00
1796, 1162.00
1797, 1163.00
1798, 1163.00
1799, 1161.00
1800, 1162.00
1801, 1162.00
1802, 1160.00
1803, 1162.00
1804, 1161.00
1805, 1160.00
1806, 1161.00
1807, 1160.00
1808, 1158.00
1809, 1159.00
1810, 1160.00
1811, 1160.00
1812, 1160.00
1813, 1159.00
1814, 1158.00
1815, 1159.00
1816, 1158.00
1817, 1157.00
1818, 1156.00
1819, 1157.00
1820, 1154.00
1821, 1157.00
1822, 1155.00
1823, 1154.00
1824, 1154.00
1825, 1154.00
1826, 1152.00
1827, 1152.00
1828, 1151.00
1829, 1150.00
1830, 1150.00
1831, 1149.00
1832, 1148.00
1833, 1147.00
1834, 1147.00
1835, 1146.00
1836, 1144.00
1837, 1144.00
1838, 1144.00
1839, 1142.00
1840, 1141.00
1841, 1140.00
1842, 1138.00
1843, 1139.00
1844, 1136.00
1845, 1137.00
1846, 1133.00
1847, 1134.00
1848, 1134.00
1849, 1131.00
1850, 1129.00
1851, 1129.00
1852, 1126.00
1853, 1125.00
1854, 1126.00
1855, 1122.00
1856, 1123.00
1857, 1120.00
1858, 1121.00
1859, 1118.00
1860, 1117.00
1861, 1116.00
1862, 1114.00
1863, 1116.00
1864, 1114.00
1865, 1112.00
1866, 1111.00
1867, 1110.00
1868, 1111.00
1869, 1109.00
1870, 1108.00
1871, 1108.00
1872, 1106.00
1873, 1107.00
1874, 1107.00
1875, 1104.00
1876, 1105.00
1877, 1104.00
1878, 1103.00
1879, 1102.00
1880, 1105.00
1881, 1102.00
1882, 1104.00
1883, 1101.00
1884, 1103.00
1885, 1103.00
1886, 1101.00
1887, 1101.00
1888, 1100.00
1889, 1100.00
1890, 1100.00
1891, 1100.00
1892, 1100.00
1893, 1099.00
1894, 1098.00
1895, 1100.00
1896, 1098.00
1897, 1099.00
1898, 1099.00
1899, 1098.00
1900, 1098.00
1901, 1098.00
1902, 1096.00
1903, 1099.00
1904, 1097.00
1905, 1098.00
1906, 1098.00
1907, 1096.00
1908, 1097.00
1909, 1097.00
1910, 1095.00
1911, 1097.00
1912, 1096.00
1913, 1097.00
1914, 1097.00
1915, 1094.00
1916, 1097.00
1917, 1095.00
1918, 1097.00
1919, 1096.00
1920, 1098.00
1921, 1096.00
1922, 1096.00
1923, 1096.00
1924, 1097.00
1925, 1097.00
1926, 1095.00
1927, 1097.00
1928, 1096.00
1929, 1097.00
1930, 1095.00
1931, 1095.00
1932, 1097.00
1933, 1095.00
1934, 1097.00
1935, 1096.00
1936, 1097.00
1937, 1098.00
1938, 1096.00
1939, 1097.00
1940, 1096.00
1941, 1096.00
1942, 1097.00
1943, 1097.00
1944, 1097.00
1945, 1098.00
1946, 1098.00
1947, 1098.00
1948, 1098.00
1949, 1098.00
1950, 1098.00
1951, 1097.00
1952, 1098.00
1953, 1097.00
1954, 1097.00
1955, 1098.00
1956, 1099.00
1957, 1099.00
1958, 1099.00
1959, 1099.00
1960, 1098.00
1961, 1100.00
1962, 1101.00
1963, 1101.00
1964, 1101.00
1965, 1100.00
1966, 1100.00
1967, 1102.00
1968, 1103.00
1969, 1102.00
1970, 1102.00
1971, 1104.00
1972, 1102.00
1973, 1102.00
1974, 1104.00
1975, 1102.00
1976, 1105.00
1977, 1104.00
1978, 1106.00
1979, 1103.00
1980, 1104.00
1981, 1105.00
1982, 1106.00
1983, 1106.00
1984, 1106.00
1985, 1108.00
1986, 1108.00
1987, 1107.00
1988, 1107.00
1989, 1109.00
1990, 1107.00
1991, 1108.00
1992, 1108.00
1993, 1109.00
1994, 1110.00
1995, 1111.00
1996, 1110.00
1997, 1110.00
1998, 1112.00
1999, 1110.00
2000, 1109.00
2001, 1111.00
2002, 1114.00
2003, 1113.00
2004, 1112.00
2005, 1112.00
2006, 1111.00
2007, 1114.00
2008, 1113.00
2009, 1113.00
2010, 1113.00
2011, 1115.00
2012, 1114.00
2013, 1116.00
2014, 1115.00
2015, 1116.00
2016, 1115.00
2017, 1116.00
2018, 1117.00
2019, 1117.00
2020, 1116.00
2021, 1117.00
2022, 1116.00
2023, 1117.00
2024, 1117.00
2025, 1118.00
2026, 1118.00
2027, 1120.00
2028, 1119.00
2029, 1120.00
2030, 1119.00
2031, 1122.00
2032, 1120.00
2033, 1121.00
2034, 1121.00
2035, 1122.00
2036, 1122.00
2037, 1123.00
2038, 1123.00
2039, 1123.00
2040, 1122.00
2041, 1123.00
2042, 1124.00
2043, 1125.00
2044, 1126.00
2045, 1127.00
2046, 1126.00
2047, 1125.00
2048, 1127.00
2049, 1128.00
2050, 1128.00
2051, 1128.00
2052, 1129.00
2053, 1129.00
2054, 1130.00
2055, 1130.00
2056, 1131.00
2057, 1130.00
2058, 1131.00
2059, 1132.00
2060, 1133.00
2061, 1132.00
2062, 1134.00
2063, 1132.00
2064, 1134.00
2065, 1136.00
2066, 1136.00
2067, 1135.00
2068, 1137.00
2069, 1138.00
2070, 1136.00
2071, 1139.00
2072, 1137.00
2073, 1139.00
2074, 1138.00
2075, 1141.00
2076, 1140.00
2077, 1140.00
2078, 1141.00
2079, 1141.00
2080, 1141.00
2081, 1141.00
2082, 1143.00
2083, 1143.00
2084, 1144.00
2085, 1143.00
2086, 1145.00
2087, 1144.00
2088, 1146.00
2089, 1144.00
2090, 1146.00
2091, 1148.00
2092, 1146.00
2093, 1145.00
2094, 1146.00
2095, 1147.00
2096, 1146.00
2097, 1147.00
2098, 1147.00
2099, 1148.00
2100, 1148.00
2101, 1148.00
2102, 1149.00
2103, 1149.00
2104, 1149.00
2105, 1149.00
2106, 1151.00
2107, 1151.00
2108, 1151.00
2109, 1153.00
2110, 1150.00
2111, 1151.00
2112, 1151.00
2113, 1154.00
2114, 1152.00
2115, 1151.00
2116, 1152.00
2117, 1152.00
2118, 1152.00
2119, 1154.00
2120, 1154.00
2121, 1155.00
2122, 1154.00
2123, 1154.00
2124, 1155.00
2125, 1155.00
2126, 1155.00
2127, 1154.00
2128, 1155.00
2129, 1156.00
2130, 1154.00
2131, 1156.00
2132, 1156.00
2133, 1155.00
2134, 1157.00
2135, 1156.00
2136, 1157.00
2137, 1157.00
2138, 1157.00
2139, 1156.00
2140, 1157.00
2141, 1156.00
2142, 1156.00
2143, 1157.00
2144, 1160.00
2145, 1158.00
2146, 1158.00
2147, 1160.00
2148, 1160.00
2149, 1159.00
2150, 1159.00
