FW version: 24
Log Version: 3.0.3

General Info:
       Command/Macro Performed,            Timestamp,             Device ID, COM Port, UART/I2C, Test Name, Host Major, Host Minor, Host Revision, Host Git Commit
            Single_measurement,  2023_07_18_11_03_43,       Insight2_F4_xxx,    USB-C,      USB,          ,          0,          1,             1,      4031237645

Show Spectrometer Status:
l0_version, f4_version, battery_perc, battery_mVolt, accelerometer_temp, accelerometer_x, accelerometer_y, accelerometer_z, compass_temp, compass_x, compass_y, compass_z, lamp_0, lamp_1, gain_0, gain_1
        17,         24,           73,          1989,               6304,           65228,            1132,           18824,            0,     65501,     65279,     18939,   3276,   3276,      1,      1

Temperature Statistic Info:
NTC AVG [°C], NTC2 AVG [°C]
      39.352,        39.056

Statistic Info:
M1:  num,      min,      max,   median,      AVG,      STD,M2:  num,      min,      max,   median,      AVG,      STD
     301,  1826.00,  2112.00,  1886.00,  1920.90,  88.5736,     401,  2415.00,  2579.00,  2483.00,  2486.40,  53.8948,

Measurements:
Wavelength, Data Amplitude
1350, 1880.00
1351, 1879.00
1352, 1877.00
1353, 1876.00
1354, 1876.00
1355, 1874.00
1356, 1874.00
1357, 1873.00
1358, 1871.00
1359, 1870.00
1360, 1870.00
1361, 1867.00
1362, 1869.00
1363, 1865.00
1364, 1864.00
1365, 1863.00
1366, 1861.00
1367, 1860.00
1368, 1859.00
1369, 1857.00
1370, 1856.00
1371, 1854.00
1372, 1853.00
1373, 1850.00
1374, 1851.00
1375, 1849.00
1376, 1847.00
1377, 1847.00
1378, 1846.00
1379, 1843.00
1380, 1844.00
1381, 1841.00
1382, 1841.00
1383, 1840.00
1384, 1840.00
1385, 1839.00
1386, 1838.00
1387, 1837.00
1388, 1837.00
1389, 1835.00
1390, 1836.00
1391, 1835.00
1392, 1835.00
1393, 1834.00
1394, 1833.00
1395, 1833.00
1396, 1832.00
1397, 1832.00
1398, 1831.00
1399, 1831.00
1400, 1832.00
1401, 1831.00
1402, 1830.00
1403, 1830.00
1404, 1829.00
1405, 1830.00
1406, 1830.00
1407, 1829.00
1408, 1828.00
1409, 1829.00
1410, 1829.00
1411, 1828.00
1412, 1828.00
1413, 1828.00
1414, 1829.00
1415, 1829.00
1416, 1828.00
1417, 1828.00
1418, 1826.00
1419, 1827.00
1420, 1828.00
1421, 1827.00
1422, 1826.00
1423, 1828.00
1424, 1827.00
1425, 1828.00
1426, 1828.00
1427, 1828.00
1428, 1828.00
1429, 1829.00
1430, 1829.00
1431, 1830.00
1432, 1829.00
1433, 1830.00
1434, 1830.00
1435, 1831.00
1436, 1831.00
1437, 1831.00
1438, 1832.00
1439, 1832.00
1440, 1833.00
1441, 1833.00
1442, 1834.00
1443, 1836.00
1444, 1835.00
1445, 1836.00
1446, 1835.00
1447, 1836.00
1448, 1837.00
1449, 1838.00
1450, 1838.00
1451, 1838.00
1452, 1838.00
1453, 1839.00
1454, 1840.00
1455, 1842.00
1456, 1841.00
1457, 1841.00
1458, 1843.00
1459, 1843.00
1460, 1844.00
1461, 1845.00
1462, 1845.00
1463, 1846.00
1464, 1847.00
1465, 1848.00
1466, 1848.00
1467, 1849.00
1468, 1851.00
1469, 1851.00
1470, 1853.00
1471, 1854.00
1472, 1855.00
1473, 1856.00
1474, 1857.00
1475, 1858.00
1476, 1859.00
1477, 1859.00
1478, 1861.00
1479, 1861.00
1480, 1863.00
1481, 1863.00
1482, 1865.00
1483, 1868.00
1484, 1867.00
1485, 1869.00
1486, 1870.00
1487, 1871.00
1488, 1871.00
1489, 1873.00
1490, 1874.00
1491, 1876.00
1492, 1876.00
1493, 1877.00
1494, 1878.00
1495, 1879.00
1496, 1881.00
1497, 1882.00
1498, 1883.00
1499, 1884.00
1500, 1886.00
1501, 1886.00
1502, 1889.00
1503, 1889.00
1504, 1890.00
1505, 1893.00
1506, 1893.00
1507, 1894.00
1508, 1895.00
1509, 1897.00
1510, 1897.00
1511, 1898.00
1512, 1901.00
1513, 1901.00
1514, 1903.00
1515, 1904.00
1516, 1906.00
1517, 1907.00
1518, 1908.00
1519, 1909.00
1520, 1911.00
1521, 1913.00
1522, 1914.00
1523, 1914.00
1524, 1917.00
1525, 1918.00
1526, 1919.00
1527, 1921.00
1528, 1923.00
1529, 1923.00
1530, 1924.00
1531, 1926.00
1532, 1927.00
1533, 1929.00
1534, 1930.00
1535, 1932.00
1536, 1934.00
1537, 1935.00
1538, 1937.00
1539, 1937.00
1540, 1940.00
1541, 1941.00
1542, 1942.00
1543, 1944.00
1544, 1945.00
1545, 1947.00
1546, 1948.00
1547, 1951.00
1548, 1951.00
1549, 1952.00
1550, 1955.00
1551, 1955.00
1552, 1957.00
1553, 1959.00
1554, 1961.00
1555, 1963.00
1556, 1963.00
1557, 1965.00
1558, 1966.00
1559, 1969.00
1560, 1970.00
1561, 1971.00
1562, 1973.00
1563, 1974.00
1564, 1976.00
1565, 1978.00
1566, 1979.00
1567, 1982.00
1568, 1983.00
1569, 1985.00
1570, 1986.00
1571, 1987.00
1572, 1989.00
1573, 1991.00
1574, 1992.00
1575, 1994.00
1576, 1995.00
1577, 1998.00
1578, 1998.00
1579, 2000.00
1580, 2001.00
1581, 2001.00
1582, 2004.00
1583, 2005.00
1584, 2008.00
1585, 2009.00
1586, 2010.00
1587, 2011.00
1588, 2014.00
1589, 2015.00
1590, 2015.00
1591, 2016.00
1592, 2018.00
1593, 2020.00
1594, 2021.00
1595, 2023.00
1596, 2023.00
1597, 2024.00
1598, 2027.00
1599, 2029.00
1600, 2030.00
1601, 2030.00
1602, 2033.00
1603, 2034.00
1604, 2037.00
1605, 2038.00
1606, 2038.00
1607, 2039.00
1608, 2042.00
1609, 2044.00
1610, 2046.00
1611, 2047.00
1612, 2050.00
1613, 2052.00
1614, 2053.00
1615, 2055.00
1616, 2056.00
1617, 2059.00
1618, 2061.00
1619, 2062.00
1620, 2063.00
1621, 2067.00
1622, 2069.00
1623, 2069.00
1624, 2070.00
1625, 2073.00
1626, 2075.00
1627, 2076.00
1628, 2078.00
1629, 2080.00
1630, 2081.00
1631, 2082.00
1632, 2084.00
1633, 2087.00
1634, 2087.00
1635, 2090.00
1636, 2091.00
1637, 2092.00
1638, 2093.00
1639, 2096.00
1640, 2097.00
1641, 2098.00
1642, 2100.00
1643, 2101.00
1644, 2103.00
1645, 2104.00
1646, 2105.00
1647, 2108.00
1648, 2108.00
1649, 2109.00
1650, 2112.00

1750, 2576.00
1751, 2578.00
1752, 2577.00
1753, 2578.00
1754, 2578.00
1755, 2576.00
1756, 2576.00
1757, 2577.00
1758, 2578.00
1759, 2577.00
1760, 2578.00
1761, 2577.00
1762, 2576.00
1763, 2576.00
1764, 2579.00
1765, 2576.00
1766, 2576.00
1767, 2576.00
1768, 2577.00
1769, 2575.00
1770, 2575.00
1771, 2574.00
1772, 2573.00
1773, 2574.00
1774, 2572.00
1775, 2573.00
1776, 2571.00
1777, 2571.00
1778, 2572.00
1779, 2572.00
1780, 2571.00
1781, 2571.00
1782, 2570.00
1783, 2569.00
1784, 2568.00
1785, 2568.00
1786, 2566.00
1787, 2565.00
1788, 2567.00
1789, 2566.00
1790, 2565.00
1791, 2564.00
1792, 2566.00
1793, 2565.00
1794, 2562.00
1795, 2564.00
1796, 2561.00
1797, 2560.00
1798, 2557.00
1799, 2560.00
1800, 2558.00
1801, 2558.00
1802, 2559.00
1803, 2558.00
1804, 2558.00
1805, 2556.00
1806, 2556.00
1807, 2555.00
1808, 2555.00
1809, 2555.00
1810, 2554.00
1811, 2551.00
1812, 2551.00
1813, 2550.00
1814, 2551.00
1815, 2551.00
1816, 2548.00
1817, 2547.00
1818, 2547.00
1819, 2547.00
1820, 2547.00
1821, 2545.00
1822, 2544.00
1823, 2542.00
1824, 2540.00
1825, 2540.00
1826, 2538.00
1827, 2537.00
1828, 2534.00
1829, 2535.00
1830, 2532.00
1831, 2531.00
1832, 2529.00
1833, 2527.00
1834, 2526.00
1835, 2524.00
1836, 2521.00
1837, 2521.00
1838, 2516.00
1839, 2516.00
1840, 2513.00
1841, 2509.00
1842, 2508.00
1843, 2506.00
1844, 2502.00
1845, 2501.00
1846, 2498.00
1847, 2495.00
1848, 2493.00
1849, 2489.00
1850, 2486.00
1851, 2486.00
1852, 2483.00
1853, 2479.00
1854, 2479.00
1855, 2474.00
1856, 2473.00
1857, 2469.00
1858, 2469.00
1859, 2466.00
1860, 2461.00
1861, 2460.00
1862, 2459.00
1863, 2456.00
1864, 2455.00
1865, 2452.00
1866, 2452.00
1867, 2448.00
1868, 2446.00
1869, 2447.00
1870, 2443.00
1871, 2443.00
1872, 2442.00
1873, 2440.00
1874, 2438.00
1875, 2438.00
1876, 2437.00
1877, 2437.00
1878, 2435.00
1879, 2433.00
1880, 2432.00
1881, 2432.00
1882, 2430.00
1883, 2429.00
1884, 2429.00
1885, 2428.00
1886, 2428.00
1887, 2427.00
1888, 2425.00
1889, 2423.00
1890, 2426.00
1891, 2423.00
1892, 2424.00
1893, 2423.00
1894, 2421.00
1895, 2422.00
1896, 2422.00
1897, 2420.00
1898, 2422.00
1899, 2420.00
1900, 2421.00
1901, 2420.00
1902, 2420.00
1903, 2421.00
1904, 2419.00
1905, 2419.00
1906, 2417.00
1907, 2420.00
1908, 2419.00
1909, 2421.00
1910, 2417.00
1911, 2417.00
1912, 2418.00
1913, 2417.00
1914, 2417.00
1915, 2417.00
1916, 2416.00
1917, 2416.00
1918, 2416.00
1919, 2416.00
1920, 2415.00
1921, 2415.00
1922, 2417.00
1923, 2417.00
1924, 2415.00
1925, 2416.00
1926, 2417.00
1927, 2417.00
1928, 2416.00
1929, 2415.00
1930, 2416.00
1931, 2416.00
1932, 2417.00
1933, 2416.00
1934, 2416.00
1935, 2417.00
1936, 2415.00
1937, 2415.00
1938, 2418.00
1939, 2416.00
1940, 2418.00
1941, 2418.00
1942, 2416.00
1943, 2418.00
1944, 2418.00
1945, 2418.00
1946, 2419.00
1947, 2419.00
1948, 2419.00
1949, 2419.00
1950, 2418.00
1951, 2420.00
1952, 2421.00
1953, 2421.00
1954, 2421.00
1955, 2419.00
1956, 2422.00
1957, 2423.00
1958, 2422.00
1959, 2423.00
1960, 2423.00
1961, 2423.00
1962, 2422.00
1963, 2424.00
1964, 2425.00
1965, 2425.00
1966, 2427.00
1967, 2427.00
1968, 2427.00
1969, 2427.00
1970, 2429.00
1971, 2429.00
1972, 2430.00
1973, 2427.00
1974, 2431.00
1975, 2430.00
1976, 2431.00
1977, 2433.00
1978, 2432.00
1979, 2434.00
1980, 2433.00
1981, 2434.00
1982, 2434.00
1983, 2435.00
1984, 2435.00
1985, 2437.00
1986, 2437.00
1987, 2439.00
1988, 2439.00
1989, 2440.00
1990, 2438.00
1991, 2438.00
1992, 2439.00
1993, 2441.00
1994, 2441.00
1995, 2442.00
1996, 2443.00
1997, 2445.00
1998, 2444.00
1999, 2444.00
2000, 2445.00
2001, 2445.00
2002, 2447.00
2003, 2448.00
2004, 2449.00
2005, 2448.00
2006, 2449.00
2007, 2449.00
2008, 2450.00
2009, 2451.00
2010, 2450.00
2011, 2453.00
2012, 2451.00
2013, 2453.00
2014, 2454.00
2015, 2455.00
2016, 2456.00
2017, 2455.00
2018, 2456.00
2019, 2455.00
2020, 2457.00
2021, 2458.00
2022, 2458.00
2023, 2460.00
2024, 2461.00
2025, 2460.00
2026, 2462.00
2027, 2463.00
2028, 2461.00
2029, 2464.00
2030, 2463.00
2031, 2464.00
2032, 2466.00
2033, 2466.00
2034, 2465.00
2035, 2468.00
2036, 2469.00
2037, 2468.00
2038, 2469.00
2039, 2470.00
2040, 2472.00
2041, 2471.00
2042, 2473.00
2043, 2474.00
2044, 2474.00
2045, 2474.00
2046, 2474.00
2047, 2479.00
2048, 2477.00
2049, 2479.00
2050, 2479.00
2051, 2480.00
2052, 2483.00
2053, 2483.00
2054, 2483.00
2055, 2486.00
2056, 2484.00
2057, 2487.00
2058, 2486.00
2059, 2488.00
2060, 2489.00
2061, 2489.00
2062, 2494.00
2063, 2491.00
2064, 2494.00
2065, 2493.00
2066, 2492.00
2067, 2496.00
2068, 2496.00
2069, 2497.00
2070, 2496.00
2071, 2499.00
2072, 2499.00
2073, 2499.00
2074, 2502.00
2075, 2501.00
2076, 2502.00
2077, 2502.00
2078, 2505.00
2079, 2506.00
2080, 2507.00
2081, 2507.00
2082, 2508.00
2083, 2509.00
2084, 2507.00
2085, 2510.00
2086, 2512.00
2087, 2510.00
2088, 2513.00
2089, 2514.00
2090, 2514.00
2091, 2514.00
2092, 2515.00
2093, 2517.00
2094, 2516.00
2095, 2519.00
2096, 2518.00
2097, 2518.00
2098, 2518.00
2099, 2519.00
2100, 2520.00
2101, 2521.00
2102, 2521.00
2103, 2522.00
2104, 2521.00
2105, 2523.00
2106, 2524.00
2107, 2523.00
2108, 2524.00
2109, 2525.00
2110, 2527.00
2111, 2526.00
2112, 2526.00
2113, 2526.00
2114, 2527.00
2115, 2526.00
2116, 2528.00
2117, 2528.00
2118, 2527.00
2119, 2530.00
2120, 2532.00
2121, 2530.00
2122, 2530.00
2123, 2530.00
2124, 2530.00
2125, 2531.00
2126, 2532.00
2127, 2532.00
2128, 2531.00
2129, 2532.00
2130, 2531.00
2131, 2534.00
2132, 2533.00
2133, 2535.00
2134, 2534.00
2135, 2535.00
2136, 2535.00
2137, 2536.00
2138, 2535.00
2139, 2537.00
2140, 2538.00
2141, 2535.00
2142, 2538.00
2143, 2538.00
2144, 2537.00
2145, 2537.00
2146, 2537.00
2147, 2538.00
2148, 2539.00
2149, 2540.00
2150, 2539.00
