FW version: 24
Log Version: 3.0.3

General Info:
       Command/Macro Performed,            Timestamp,             Device ID, COM Port, UART/I2C, Test Name, Host Major, Host Minor, Host Revision, Host Git Commit
            Single_measurement,  2023_07_18_11_03_08,       Insight2_F4_xxx,    USB-C,      USB,          ,          0,          1,             1,      4031237645

Show Spectrometer Status:
l0_version, f4_version, battery_perc, battery_mVolt, accelerometer_temp, accelerometer_x, accelerometer_y, accelerometer_z, compass_temp, compass_x, compass_y, compass_z, lamp_0, lamp_1, gain_0, gain_1
        17,         24,           73,          1990,               6272,           65216,            1152,           18832,            0,     65493,     65239,     18940,   2457,   2457,      1,      1

Temperature Statistic Info:
NTC AVG [°C], NTC2 AVG [°C]
      39.116,        38.854

Statistic Info:
M1:  num,      min,      max,   median,      AVG,      STD,M2:  num,      min,      max,   median,      AVG,      STD
     301,  1056.00,  1232.00,  1093.00,  1114.04,  55.0731,     401,  1505.00,  1609.00,  1550.00,  1552.06,  34.2648,

Measurements:
Wavelength, Data Amplitude
1350, 1084.00
1351, 1085.00
1352, 1083.00
1353, 1083.00
1354, 1082.00
1355, 1082.00
1356, 1082.00
1357, 1080.00
1358, 1080.00
1359, 1079.00
1360, 1079.00
1361, 1077.00
1362, 1078.00
1363, 1077.00
1364, 1076.00
1365, 1075.00
1366, 1073.00
1367, 1073.00
1368, 1073.00
1369, 1072.00
1370, 1072.00
1371, 1070.00
1372, 1069.00
1373, 1069.00
1374, 1068.00
1375, 1067.00
1376, 1065.00
1377, 1066.00
1378, 1064.00
1379, 1066.00
1380, 1064.00
1381, 1063.00
1382, 1062.00
1383, 1062.00
1384, 1061.00
1385, 1062.00
1386, 1061.00
1387, 1061.00
1388, 1061.00
1389, 1060.00
1390, 1059.00
1391, 1059.00
1392, 1060.00
1393, 1060.00
1394, 1058.00
1395, 1057.00
1396, 1059.00
1397, 1059.00
1398, 1059.00
1399, 1057.00
1400, 1058.00
1401, 1058.00
1402, 1059.00
1403, 1057.00
1404, 1057.00
1405, 1057.00
1406, 1058.00
1407, 1057.00
1408, 1057.00
1409, 1057.00
1410, 1056.00
1411, 1056.00
1412, 1057.00
1413, 1056.00
1414, 1056.00
1415, 1056.00
1416, 1057.00
1417, 1057.00
1418, 1056.00
1419, 1056.00
1420, 1056.00
1421, 1056.00
1422, 1057.00
1423, 1057.00
1424, 1057.00
1425, 1056.00
1426, 1056.00
1427, 1057.00
1428, 1058.00
1429, 1057.00
1430, 1058.00
1431, 1057.00
1432, 1058.00
1433, 1058.00
1434, 1058.00
1435, 1057.00
1436, 1059.00
1437, 1060.00
1438, 1059.00
1439, 1060.00
1440, 1059.00
1441, 1059.00
1442, 1061.00
1443, 1061.00
1444, 1060.00
1445, 1061.00
1446, 1062.00
1447, 1062.00
1448, 1062.00
1449, 1062.00
1450, 1063.00
1451, 1063.00
1452, 1064.00
1453, 1064.00
1454, 1064.00
1455, 1065.00
1456, 1065.00
1457, 1065.00
1458, 1066.00
1459, 1066.00
1460, 1068.00
1461, 1068.00
1462, 1068.00
1463, 1069.00
1464, 1069.00
1465, 1070.00
1466, 1070.00
1467, 1071.00
1468, 1071.00
1469, 1071.00
1470, 1073.00
1471, 1073.00
1472, 1074.00
1473, 1074.00
1474, 1075.00
1475, 1076.00
1476, 1076.00
1477, 1076.00
1478, 1078.00
1479, 1079.00
1480, 1079.00
1481, 1079.00
1482, 1080.00
1483, 1080.00
1484, 1081.00
1485, 1083.00
1486, 1083.00
1487, 1084.00
1488, 1085.00
1489, 1086.00
1490, 1087.00
1491, 1086.00
1492, 1087.00
1493, 1088.00
1494, 1089.00
1495, 1089.00
1496, 1090.00
1497, 1091.00
1498, 1091.00
1499, 1093.00
1500, 1093.00
1501, 1093.00
1502, 1094.00
1503, 1095.00
1504, 1096.00
1505, 1097.00
1506, 1098.00
1507, 1099.00
1508, 1099.00
1509, 1100.00
1510, 1100.00
1511, 1102.00
1512, 1102.00
1513, 1103.00
1514, 1103.00
1515, 1105.00
1516, 1106.00
1517, 1106.00
1518, 1108.00
1519, 1109.00
1520, 1109.00
1521, 1110.00
1522, 1110.00
1523, 1112.00
1524, 1112.00
1525, 1114.00
1526, 1115.00
1527, 1116.00
1528, 1116.00
1529, 1117.00
1530, 1117.00
1531, 1119.00
1532, 1120.00
1533, 1120.00
1534, 1122.00
1535, 1122.00
1536, 1123.00
1537, 1124.00
1538, 1125.00
1539, 1126.00
1540, 1128.00
1541, 1129.00
1542, 1129.00
1543, 1130.00
1544, 1130.00
1545, 1131.00
1546, 1132.00
1547, 1133.00
1548, 1134.00
1549, 1135.00
1550, 1136.00
1551, 1137.00
1552, 1138.00
1553, 1138.00
1554, 1139.00
1555, 1141.00
1556, 1142.00
1557, 1142.00
1558, 1144.00
1559, 1144.00
1560, 1144.00
1561, 1146.00
1562, 1147.00
1563, 1147.00
1564, 1149.00
1565, 1150.00
1566, 1151.00
1567, 1153.00
1568, 1153.00
1569, 1154.00
1570, 1155.00
1571, 1156.00
1572, 1156.00
1573, 1157.00
1574, 1158.00
1575, 1159.00
1576, 1160.00
1577, 1161.00
1578, 1163.00
1579, 1163.00
1580, 1165.00
1581, 1164.00
1582, 1166.00
1583, 1166.00
1584, 1167.00
1585, 1169.00
1586, 1169.00
1587, 1170.00
1588, 1171.00
1589, 1171.00
1590, 1172.00
1591, 1173.00
1592, 1174.00
1593, 1175.00
1594, 1177.00
1595, 1176.00
1596, 1178.00
1597, 1178.00
1598, 1180.00
1599, 1180.00
1600, 1181.00
1601, 1181.00
1602, 1184.00
1603, 1184.00
1604, 1185.00
1605, 1186.00
1606, 1187.00
1607, 1188.00
1608, 1190.00
1609, 1191.00
1610, 1192.00
1611, 1192.00
1612, 1194.00
1613, 1195.00
1614, 1196.00
1615, 1197.00
1616, 1197.00
1617, 1199.00
1618, 1201.00
1619, 1202.00
1620, 1203.00
1621, 1204.00
1622, 1205.00
1623, 1206.00
1624, 1207.00
1625, 1209.00
1626, 1209.00
1627, 1210.00
1628, 1211.00
1629, 1212.00
1630, 1214.00
1631, 1214.00
1632, 1216.00
1633, 1217.00
1634, 1217.00
1635, 1218.00
1636, 1220.00
1637, 1220.00
1638, 1221.00
1639, 1222.00
1640, 1223.00
1641, 1223.00
1642, 1225.00
1643, 1225.00
1644, 1227.00
1645, 1227.00
1646, 1228.00
1647, 1230.00
1648, 1230.00
1649, 1230.00
1650, 1232.00

1750, 1608.00
1751, 1609.00
1752, 1606.00
1753, 1607.00
1754, 1606.00
1755, 1606.00
1756, 1609.00
1757, 1607.00
1758, 1607.00
1759, 1607.00
1760, 1606.00
1761, 1606.00
1762, 1606.00
1763, 1608.00
1764, 1607.00
1765, 1607.00
1766, 1604.00
1767, 1608.00
1768, 1607.00
1769, 1606.00
1770, 1605.00
1771, 1606.00
1772, 1605.00
1773, 1605.00
1774, 1606.00
1775, 1605.00
1776, 1604.00
1777, 1606.00
1778, 1603.00
1779, 1603.00
1780, 1604.00
1781, 1603.00
1782, 1602.00
1783, 1604.00
1784, 1601.00
1785, 1600.00
1786, 1602.00
1787, 1602.00
1788, 1602.00
1789, 1600.00
1790, 1599.00
1791, 1599.00
1792, 1600.00
1793, 1597.00
1794, 1598.00
1795, 1599.00
1796, 1598.00
1797, 1599.00
1798, 1599.00
1799, 1598.00
1800, 1595.00
1801, 1596.00
1802, 1597.00
1803, 1597.00
1804, 1596.00
1805, 1596.00
1806, 1594.00
1807, 1594.00
1808, 1594.00
1809, 1595.00
1810, 1593.00
1811, 1594.00
1812, 1591.00
1813, 1591.00
1814, 1593.00
1815, 1592.00
1816, 1591.00
1817, 1590.00
1818, 1590.00
1819, 1589.00
1820, 1589.00
1821, 1588.00
1822, 1585.00
1823, 1589.00
1824, 1586.00
1825, 1586.00
1826, 1585.00
1827, 1584.00
1828, 1582.00
1829, 1581.00
1830, 1580.00
1831, 1579.00
1832, 1579.00
1833, 1577.00
1834, 1577.00
1835, 1574.00
1836, 1573.00
1837, 1572.00
1838, 1570.00
1839, 1569.00
1840, 1566.00
1841, 1567.00
1842, 1566.00
1843, 1563.00
1844, 1561.00
1845, 1558.00
1846, 1560.00
1847, 1557.00
1848, 1555.00
1849, 1554.00
1850, 1551.00
1851, 1550.00
1852, 1549.00
1853, 1548.00
1854, 1545.00
1855, 1544.00
1856, 1541.00
1857, 1541.00
1858, 1540.00
1859, 1536.00
1860, 1537.00
1861, 1535.00
1862, 1534.00
1863, 1535.00
1864, 1531.00
1865, 1530.00
1866, 1529.00
1867, 1527.00
1868, 1526.00
1869, 1525.00
1870, 1525.00
1871, 1523.00
1872, 1521.00
1873, 1522.00
1874, 1521.00
1875, 1522.00
1876, 1519.00
1877, 1520.00
1878, 1517.00
1879, 1517.00
1880, 1517.00
1881, 1516.00
1882, 1516.00
1883, 1516.00
1884, 1516.00
1885, 1514.00
1886, 1514.00
1887, 1514.00
1888, 1514.00
1889, 1512.00
1890, 1512.00
1891, 1512.00
1892, 1512.00
1893, 1510.00
1894, 1512.00
1895, 1509.00
1896, 1511.00
1897, 1514.00
1898, 1510.00
1899, 1511.00
1900, 1507.00
1901, 1510.00
1902, 1509.00
1903, 1508.00
1904, 1509.00
1905, 1509.00
1906, 1509.00
1907, 1509.00
1908, 1507.00
1909, 1506.00
1910, 1509.00
1911, 1508.00
1912, 1509.00
1913, 1508.00
1914, 1507.00
1915, 1508.00
1916, 1507.00
1917, 1508.00
1918, 1507.00
1919, 1507.00
1920, 1508.00
1921, 1507.00
1922, 1507.00
1923, 1505.00
1924, 1505.00
1925, 1506.00
1926, 1505.00
1927, 1507.00
1928, 1506.00
1929, 1506.00
1930, 1506.00
1931, 1506.00
1932, 1506.00
1933, 1507.00
1934, 1506.00
1935, 1507.00
1936, 1505.00
1937, 1507.00
1938, 1506.00
1939, 1506.00
1940, 1507.00
1941, 1509.00
1942, 1508.00
1943, 1509.00
1944, 1508.00
1945, 1508.00
1946, 1509.00
1947, 1509.00
1948, 1510.00
1949, 1509.00
1950, 1509.00
1951, 1509.00
1952, 1509.00
1953, 1511.00
1954, 1510.00
1955, 1510.00
1956, 1509.00
1957, 1510.00
1958, 1511.00
1959, 1510.00
1960, 1510.00
1961, 1512.00
1962, 1512.00
1963, 1512.00
1964, 1513.00
1965, 1514.00
1966, 1513.00
1967, 1513.00
1968, 1515.00
1969, 1516.00
1970, 1513.00
1971, 1515.00
1972, 1517.00
1973, 1517.00
1974, 1516.00
1975, 1516.00
1976, 1517.00
1977, 1516.00
1978, 1519.00
1979, 1519.00
1980, 1518.00
1981, 1518.00
1982, 1521.00
1983, 1521.00
1984, 1519.00
1985, 1519.00
1986, 1521.00
1987, 1521.00
1988, 1521.00
1989, 1522.00
1990, 1522.00
1991, 1523.00
1992, 1523.00
1993, 1524.00
1994, 1525.00
1995, 1525.00
1996, 1525.00
1997, 1524.00
1998, 1524.00
1999, 1526.00
2000, 1526.00
2001, 1526.00
2002, 1528.00
2003, 1526.00
2004, 1526.00
2005, 1528.00
2006, 1528.00
2007, 1528.00
2008, 1529.00
2009, 1529.00
2010, 1529.00
2011, 1530.00
2012, 1532.00
2013, 1531.00
2014, 1530.00
2015, 1532.00
2016, 1532.00
2017, 1533.00
2018, 1533.00
2019, 1532.00
2020, 1536.00
2021, 1534.00
2022, 1535.00
2023, 1536.00
2024, 1535.00
2025, 1536.00
2026, 1537.00
2027, 1537.00
2028, 1537.00
2029, 1539.00
2030, 1538.00
2031, 1539.00
2032, 1540.00
2033, 1539.00
2034, 1540.00
2035, 1541.00
2036, 1542.00
2037, 1541.00
2038, 1541.00
2039, 1543.00
2040, 1542.00
2041, 1543.00
2042, 1545.00
2043, 1545.00
2044, 1544.00
2045, 1544.00
2046, 1544.00
2047, 1546.00
2048, 1547.00
2049, 1548.00
2050, 1547.00
2051, 1550.00
2052, 1550.00
2053, 1551.00
2054, 1549.00
2055, 1551.00
2056, 1552.00
2057, 1553.00
2058, 1552.00
2059, 1554.00
2060, 1553.00
2061, 1554.00
2062, 1557.00
2063, 1556.00
2064, 1557.00
2065, 1559.00
2066, 1558.00
2067, 1559.00
2068, 1560.00
2069, 1562.00
2070, 1561.00
2071, 1562.00
2072, 1563.00
2073, 1563.00
2074, 1563.00
2075, 1564.00
2076, 1565.00
2077, 1563.00
2078, 1565.00
2079, 1567.00
2080, 1566.00
2081, 1568.00
2082, 1568.00
2083, 1568.00
2084, 1568.00
2085, 1568.00
2086, 1569.00
2087, 1569.00
2088, 1570.00
2089, 1571.00
2090, 1571.00
2091, 1571.00
2092, 1573.00
2093, 1573.00
2094, 1573.00
2095, 1574.00
2096, 1575.00
2097, 1574.00
2098, 1574.00
2099, 1575.00
2100, 1575.00
2101, 1575.00
2102, 1578.00
2103, 1577.00
2104, 1578.00
2105, 1578.00
2106, 1577.00
2107, 1578.00
2108, 1579.00
2109, 1579.00
2110, 1578.00
2111, 1579.00
2112, 1579.00
2113, 1582.00
2114, 1579.00
2115, 1581.00
2116, 1580.00
2117, 1580.00
2118, 1581.00
2119, 1581.00
2120, 1581.00
2121, 1582.00
2122, 1583.00
2123, 1583.00
2124, 1583.00
2125, 1584.00
2126, 1583.00
2127, 1584.00
2128, 1585.00
2129, 1584.00
2130, 1584.00
2131, 1585.00
2132, 1585.00
2133, 1586.00
2134, 1586.00
2135, 1586.00
2136, 1584.00
2137, 1588.00
2138, 1587.00
2139, 1587.00
2140, 1588.00
2141, 1587.00
2142, 1589.00
2143, 1590.00
2144, 1588.00
2145, 1587.00
2146, 1588.00
2147, 1589.00
2148, 1590.00
2149, 1587.00
2150, 1590.00
