FW version: 24
Log Version: 3.0.3

General Info:
       Command/Macro Performed,            Timestamp,             Device ID, COM Port, UART/I2C, Test Name, Host Major, Host Minor, Host Revision, Host Git Commit
            Single_measurement,  2023_06_30_12_17_20,       Insight2_F4_xxx,    USB-C,      USB,          ,          0,          1,             1,      4031237645

Show Spectrometer Status:
l0_version, f4_version, battery_perc, battery_mVolt, accelerometer_temp, accelerometer_x, accelerometer_y, accelerometer_z, compass_temp, compass_x, compass_y, compass_z, lamp_0, lamp_1, gain_0, gain_1
        17,         24,           95,          2079,               5760,           65288,             268,           18456,            0,     65354,     65327,     18456,   3276,   3276,      1,      1

Temperature Statistic Info:
NTC AVG [°C], NTC2 AVG [°C]
      37.868,        37.583

Statistic Info:
M1:  num,      min,      max,   median,      AVG,      STD,M2:  num,      min,      max,   median,      AVG,      STD
     301,  1749.00,  1972.00,  1801.00,  1823.37,  70.0213,     401,  2381.00,  2520.00,  2453.00,  2450.29,  46.8069,

Measurements:
Wavelength, Data Amplitude
1350, 1777.00
1351, 1778.00
1352, 1777.00
1353, 1776.00
1354, 1775.00
1355, 1775.00
1356, 1775.00
1357, 1775.00
1358, 1773.00
1359, 1773.00
1360, 1773.00
1361, 1772.00
1362, 1773.00
1363, 1772.00
1364, 1771.00
1365, 1769.00
1366, 1769.00
1367, 1769.00
1368, 1768.00
1369, 1767.00
1370, 1766.00
1371, 1765.00
1372, 1766.00
1373, 1763.00
1374, 1763.00
1375, 1762.00
1376, 1761.00
1377, 1760.00
1378, 1759.00
1379, 1759.00
1380, 1758.00
1381, 1758.00
1382, 1757.00
1383, 1756.00
1384, 1756.00
1385, 1754.00
1386, 1755.00
1387, 1754.00
1388, 1755.00
1389, 1754.00
1390, 1753.00
1391, 1753.00
1392, 1753.00
1393, 1753.00
1394, 1753.00
1395, 1751.00
1396, 1751.00
1397, 1752.00
1398, 1751.00
1399, 1751.00
1400, 1751.00
1401, 1752.00
1402, 1751.00
1403, 1749.00
1404, 1751.00
1405, 1751.00
1406, 1749.00
1407, 1750.00
1408, 1751.00
1409, 1749.00
1410, 1749.00
1411, 1750.00
1412, 1749.00
1413, 1750.00
1414, 1750.00
1415, 1749.00
1416, 1749.00
1417, 1750.00
1418, 1750.00
1419, 1749.00
1420, 1750.00
1421, 1750.00
1422, 1749.00
1423, 1750.00
1424, 1751.00
1425, 1749.00
1426, 1751.00
1427, 1751.00
1428, 1751.00
1429, 1750.00
1430, 1751.00
1431, 1751.00
1432, 1752.00
1433, 1752.00
1434, 1752.00
1435, 1752.00
1436, 1753.00
1437, 1753.00
1438, 1753.00
1439, 1755.00
1440, 1756.00
1441, 1756.00
1442, 1756.00
1443, 1755.00
1444, 1756.00
1445, 1757.00
1446, 1757.00
1447, 1758.00
1448, 1758.00
1449, 1758.00
1450, 1759.00
1451, 1759.00
1452, 1761.00
1453, 1761.00
1454, 1762.00
1455, 1762.00
1456, 1763.00
1457, 1764.00
1458, 1764.00
1459, 1764.00
1460, 1765.00
1461, 1765.00
1462, 1767.00
1463, 1767.00
1464, 1767.00
1465, 1768.00
1466, 1769.00
1467, 1769.00
1468, 1771.00
1469, 1771.00
1470, 1772.00
1471, 1773.00
1472, 1773.00
1473, 1775.00
1474, 1775.00
1475, 1777.00
1476, 1778.00
1477, 1778.00
1478, 1780.00
1479, 1781.00
1480, 1781.00
1481, 1782.00
1482, 1782.00
1483, 1783.00
1484, 1784.00
1485, 1786.00
1486, 1786.00
1487, 1787.00
1488, 1789.00
1489, 1789.00
1490, 1791.00
1491, 1791.00
1492, 1791.00
1493, 1793.00
1494, 1793.00
1495, 1795.00
1496, 1795.00
1497, 1797.00
1498, 1797.00
1499, 1799.00
1500, 1801.00
1501, 1802.00
1502, 1801.00
1503, 1802.00
1504, 1803.00
1505, 1805.00
1506, 1805.00
1507, 1806.00
1508, 1807.00
1509, 1808.00
1510, 1809.00
1511, 1810.00
1512, 1810.00
1513, 1812.00
1514, 1814.00
1515, 1814.00
1516, 1815.00
1517, 1817.00
1518, 1817.00
1519, 1818.00
1520, 1818.00
1521, 1821.00
1522, 1822.00
1523, 1822.00
1524, 1824.00
1525, 1825.00
1526, 1825.00
1527, 1826.00
1528, 1829.00
1529, 1829.00
1530, 1831.00
1531, 1830.00
1532, 1832.00
1533, 1833.00
1534, 1834.00
1535, 1835.00
1536, 1837.00
1537, 1838.00
1538, 1839.00
1539, 1839.00
1540, 1841.00
1541, 1842.00
1542, 1842.00
1543, 1844.00
1544, 1844.00
1545, 1847.00
1546, 1846.00
1547, 1847.00
1548, 1849.00
1549, 1850.00
1550, 1851.00
1551, 1853.00
1552, 1853.00
1553, 1855.00
1554, 1856.00
1555, 1857.00
1556, 1857.00
1557, 1859.00
1558, 1861.00
1559, 1862.00
1560, 1863.00
1561, 1865.00
1562, 1865.00
1563, 1867.00
1564, 1868.00
1565, 1870.00
1566, 1870.00
1567, 1871.00
1568, 1874.00
1569, 1875.00
1570, 1875.00
1571, 1876.00
1572, 1878.00
1573, 1879.00
1574, 1880.00
1575, 1881.00
1576, 1882.00
1577, 1884.00
1578, 1885.00
1579, 1886.00
1580, 1887.00
1581, 1888.00
1582, 1889.00
1583, 1890.00
1584, 1892.00
1585, 1893.00
1586, 1894.00
1587, 1893.00
1588, 1897.00
1589, 1897.00
1590, 1898.00
1591, 1899.00
1592, 1900.00
1593, 1901.00
1594, 1902.00
1595, 1904.00
1596, 1905.00
1597, 1905.00
1598, 1907.00
1599, 1909.00
1600, 1909.00
1601, 1910.00
1602, 1911.00
1603, 1912.00
1604, 1914.00
1605, 1914.00
1606, 1915.00
1607, 1918.00
1608, 1919.00
1609, 1919.00
1610, 1921.00
1611, 1923.00
1612, 1924.00
1613, 1925.00
1614, 1927.00
1615, 1928.00
1616, 1929.00
1617, 1931.00
1618, 1932.00
1619, 1934.00
1620, 1936.00
1621, 1937.00
1622, 1938.00
1623, 1940.00
1624, 1941.00
1625, 1943.00
1626, 1943.00
1627, 1944.00
1628, 1946.00
1629, 1948.00
1630, 1948.00
1631, 1950.00
1632, 1951.00
1633, 1953.00
1634, 1954.00
1635, 1955.00
1636, 1956.00
1637, 1958.00
1638, 1959.00
1639, 1960.00
1640, 1961.00
1641, 1961.00
1642, 1963.00
1643, 1964.00
1644, 1966.00
1645, 1966.00
1646, 1968.00
1647, 1969.00
1648, 1971.00
1649, 1972.00
1650, 1972.00

1750, 2518.00
1751, 2518.00
1752, 2517.00
1753, 2517.00
1754, 2519.00
1755, 2514.00
1756, 2518.00
1757, 2518.00
1758, 2516.00
1759, 2517.00
1760, 2520.00
1761, 2517.00
1762, 2517.00
1763, 2517.00
1764, 2516.00
1765, 2516.00
1766, 2516.00
1767, 2513.00
1768, 2514.00
1769, 2516.00
1770, 2516.00
1771, 2513.00
1772, 2514.00
1773, 2513.00
1774, 2515.00
1775, 2514.00
1776, 2512.00
1777, 2513.00
1778, 2511.00
1779, 2511.00
1780, 2511.00
1781, 2513.00
1782, 2511.00
1783, 2511.00
1784, 2510.00
1785, 2510.00
1786, 2508.00
1787, 2508.00
1788, 2507.00
1789, 2507.00
1790, 2507.00
1791, 2507.00
1792, 2505.00
1793, 2504.00
1794, 2505.00
1795, 2506.00
1796, 2504.00
1797, 2502.00
1798, 2503.00
1799, 2503.00
1800, 2502.00
1801, 2503.00
1802, 2500.00
1803, 2501.00
1804, 2501.00
1805, 2501.00
1806, 2500.00
1807, 2499.00
1808, 2500.00
1809, 2499.00
1810, 2498.00
1811, 2499.00
1812, 2499.00
1813, 2497.00
1814, 2497.00
1815, 2495.00
1816, 2497.00
1817, 2496.00
1818, 2496.00
1819, 2495.00
1820, 2495.00
1821, 2495.00
1822, 2493.00
1823, 2493.00
1824, 2491.00
1825, 2491.00
1826, 2491.00
1827, 2488.00
1828, 2487.00
1829, 2487.00
1830, 2487.00
1831, 2485.00
1832, 2483.00
1833, 2483.00
1834, 2480.00
1835, 2479.00
1836, 2480.00
1837, 2477.00
1838, 2473.00
1839, 2474.00
1840, 2472.00
1841, 2472.00
1842, 2469.00
1843, 2467.00
1844, 2466.00
1845, 2464.00
1846, 2460.00
1847, 2458.00
1848, 2457.00
1849, 2455.00
1850, 2451.00
1851, 2451.00
1852, 2448.00
1853, 2446.00
1854, 2443.00
1855, 2440.00
1856, 2439.00
1857, 2436.00
1858, 2435.00
1859, 2433.00
1860, 2430.00
1861, 2426.00
1862, 2427.00
1863, 2423.00
1864, 2423.00
1865, 2419.00
1866, 2417.00
1867, 2416.00
1868, 2414.00
1869, 2414.00
1870, 2411.00
1871, 2411.00
1872, 2407.00
1873, 2405.00
1874, 2405.00
1875, 2405.00
1876, 2404.00
1877, 2402.00
1878, 2400.00
1879, 2398.00
1880, 2399.00
1881, 2399.00
1882, 2397.00
1883, 2397.00
1884, 2394.00
1885, 2395.00
1886, 2395.00
1887, 2393.00
1888, 2392.00
1889, 2392.00
1890, 2390.00
1891, 2390.00
1892, 2390.00
1893, 2387.00
1894, 2389.00
1895, 2388.00
1896, 2388.00
1897, 2388.00
1898, 2385.00
1899, 2387.00
1900, 2385.00
1901, 2385.00
1902, 2385.00
1903, 2385.00
1904, 2384.00
1905, 2386.00
1906, 2385.00
1907, 2385.00
1908, 2384.00
1909, 2385.00
1910, 2386.00
1911, 2383.00
1912, 2383.00
1913, 2381.00
1914, 2385.00
1915, 2382.00
1916, 2382.00
1917, 2384.00
1918, 2383.00
1919, 2384.00
1920, 2382.00
1921, 2382.00
1922, 2384.00
1923, 2384.00
1924, 2383.00
1925, 2382.00
1926, 2382.00
1927, 2383.00
1928, 2383.00
1929, 2382.00
1930, 2382.00
1931, 2383.00
1932, 2384.00
1933, 2383.00
1934, 2384.00
1935, 2383.00
1936, 2384.00
1937, 2385.00
1938, 2385.00
1939, 2385.00
1940, 2386.00
1941, 2388.00
1942, 2385.00
1943, 2384.00
1944, 2387.00
1945, 2387.00
1946, 2387.00
1947, 2387.00
1948, 2388.00
1949, 2388.00
1950, 2387.00
1951, 2389.00
1952, 2388.00
1953, 2390.00
1954, 2391.00
1955, 2390.00
1956, 2391.00
1957, 2392.00
1958, 2391.00
1959, 2391.00
1960, 2394.00
1961, 2393.00
1962, 2395.00
1963, 2397.00
1964, 2395.00
1965, 2395.00
1966, 2397.00
1967, 2398.00
1968, 2397.00
1969, 2399.00
1970, 2398.00
1971, 2399.00
1972, 2401.00
1973, 2401.00
1974, 2402.00
1975, 2404.00
1976, 2403.00
1977, 2402.00
1978, 2404.00
1979, 2405.00
1980, 2404.00
1981, 2408.00
1982, 2408.00
1983, 2408.00
1984, 2409.00
1985, 2409.00
1986, 2410.00
1987, 2409.00
1988, 2411.00
1989, 2413.00
1990, 2412.00
1991, 2412.00
1992, 2412.00
1993, 2415.00
1994, 2415.00
1995, 2415.00
1996, 2417.00
1997, 2416.00
1998, 2417.00
1999, 2417.00
2000, 2418.00
2001, 2420.00
2002, 2419.00
2003, 2421.00
2004, 2421.00
2005, 2421.00
2006, 2421.00
2007, 2425.00
2008, 2423.00
2009, 2424.00
2010, 2425.00
2011, 2424.00
2012, 2425.00
2013, 2425.00
2014, 2429.00
2015, 2427.00
2016, 2428.00
2017, 2430.00
2018, 2429.00
2019, 2428.00
2020, 2431.00
2021, 2431.00
2022, 2430.00
2023, 2432.00
2024, 2432.00
2025, 2433.00
2026, 2434.00
2027, 2435.00
2028, 2437.00
2029, 2436.00
2030, 2437.00
2031, 2436.00
2032, 2438.00
2033, 2439.00
2034, 2441.00
2035, 2441.00
2036, 2442.00
2037, 2440.00
2038, 2440.00
2039, 2443.00
2040, 2445.00
2041, 2444.00
2042, 2445.00
2043, 2445.00
2044, 2447.00
2045, 2449.00
2046, 2447.00
2047, 2450.00
2048, 2451.00
2049, 2453.00
2050, 2453.00
2051, 2455.00
2052, 2454.00
2053, 2455.00
2054, 2457.00
2055, 2457.00
2056, 2457.00
2057, 2459.00
2058, 2459.00
2059, 2460.00
2060, 2462.00
2061, 2463.00
2062, 2464.00
2063, 2462.00
2064, 2466.00
2065, 2467.00
2066, 2467.00
2067, 2469.00
2068, 2469.00
2069, 2469.00
2070, 2471.00
2071, 2472.00
2072, 2473.00
2073, 2472.00
2074, 2474.00
2075, 2475.00
2076, 2475.00
2077, 2478.00
2078, 2478.00
2079, 2477.00
2080, 2479.00
2081, 2478.00
2082, 2479.00
2083, 2481.00
2084, 2481.00
2085, 2481.00
2086, 2483.00
2087, 2483.00
2088, 2485.00
2089, 2484.00
2090, 2485.00
2091, 2486.00
2092, 2486.00
2093, 2489.00
2094, 2489.00
2095, 2489.00
2096, 2489.00
2097, 2490.00
2098, 2489.00
2099, 2490.00
2100, 2491.00
2101, 2491.00
2102, 2492.00
2103, 2492.00
2104, 2493.00
2105, 2493.00
2106, 2495.00
2107, 2495.00
2108, 2492.00
2109, 2493.00
2110, 2496.00
2111, 2493.00
2112, 2495.00
2113, 2497.00
2114, 2494.00
2115, 2497.00
2116, 2498.00
2117, 2497.00
2118, 2497.00
2119, 2498.00
2120, 2497.00
2121, 2497.00
2122, 2499.00
2123, 2499.00
2124, 2498.00
2125, 2497.00
2126, 2499.00
2127, 2499.00
2128, 2499.00
2129, 2499.00
2130, 2501.00
2131, 2501.00
2132, 2499.00
2133, 2501.00
2134, 2502.00
2135, 2503.00
2136, 2503.00
2137, 2503.00
2138, 2505.00
2139, 2504.00
2140, 2502.00
2141, 2504.00
2142, 2502.00
2143, 2503.00
2144, 2503.00
2145, 2504.00
2146, 2504.00
2147, 2505.00
2148, 2505.00
2149, 2504.00
2150, 2505.00
