FW version: 24
Log Version: 3.0.3

General Info:
       Command/Macro Performed,            Timestamp,             Device ID, COM Port, UART/I2C, Test Name, Host Major, Host Minor, Host Revision, Host Git Commit
            Single_measurement,  2023_06_30_12_17_24,       Insight2_F4_xxx,    USB-C,      USB,          ,          0,          1,             1,      4031237645

Show Spectrometer Status:
l0_version, f4_version, battery_perc, battery_mVolt, accelerometer_temp, accelerometer_x, accelerometer_y, accelerometer_z, compass_temp, compass_x, compass_y, compass_z, lamp_0, lamp_1, gain_0, gain_1
        17,         24,           95,          2078,               5776,           65264,             288,           18568,            0,     65523,     65341,     18570,   3276,   3276,      1,      1

Temperature Statistic Info:
NTC AVG [°C], NTC2 AVG [°C]
      37.897,        37.583

Statistic Info:
M1:  num,      min,      max,   median,      AVG,      STD,M2:  num,      min,      max,   median,      AVG,      STD
     301,  1749.00,  1973.00,  1799.00,  1822.74,  69.8734,     401,  2381.00,  2517.00,  2452.00,  2449.81,  46.8318,

Measurements:
Wavelength, Data Amplitude
1350, 1776.00
1351, 1778.00
1352, 1776.00
1353, 1776.00
1354, 1775.00
1355, 1775.00
1356, 1775.00
1357, 1774.00
1358, 1775.00
1359, 1772.00
1360, 1772.00
1361, 1771.00
1362, 1771.00
1363, 1771.00
1364, 1770.00
1365, 1769.00
1366, 1768.00
1367, 1767.00
1368, 1767.00
1369, 1766.00
1370, 1765.00
1371, 1764.00
1372, 1763.00
1373, 1762.00
1374, 1763.00
1375, 1761.00
1376, 1761.00
1377, 1760.00
1378, 1758.00
1379, 1759.00
1380, 1757.00
1381, 1757.00
1382, 1755.00
1383, 1755.00
1384, 1755.00
1385, 1755.00
1386, 1755.00
1387, 1753.00
1388, 1754.00
1389, 1754.00
1390, 1753.00
1391, 1753.00
1392, 1752.00
1393, 1752.00
1394, 1751.00
1395, 1751.00
1396, 1751.00
1397, 1752.00
1398, 1750.00
1399, 1750.00
1400, 1751.00
1401, 1751.00
1402, 1751.00
1403, 1750.00
1404, 1750.00
1405, 1749.00
1406, 1749.00
1407, 1749.00
1408, 1749.00
1409, 1750.00
1410, 1749.00
1411, 1749.00
1412, 1749.00
1413, 1749.00
1414, 1749.00
1415, 1749.00
1416, 1750.00
1417, 1750.00
1418, 1749.00
1419, 1749.00
1420, 1749.00
1421, 1749.00
1422, 1750.00
1423, 1749.00
1424, 1750.00
1425, 1751.00
1426, 1750.00
1427, 1750.00
1428, 1750.00
1429, 1750.00
1430, 1750.00
1431, 1751.00
1432, 1752.00
1433, 1752.00
1434, 1751.00
1435, 1752.00
1436, 1753.00
1437, 1754.00
1438, 1753.00
1439, 1754.00
1440, 1754.00
1441, 1755.00
1442, 1754.00
1443, 1756.00
1444, 1756.00
1445, 1755.00
1446, 1757.00
1447, 1757.00
1448, 1758.00
1449, 1758.00
1450, 1759.00
1451, 1760.00
1452, 1760.00
1453, 1761.00
1454, 1762.00
1455, 1762.00
1456, 1763.00
1457, 1763.00
1458, 1763.00
1459, 1764.00
1460, 1765.00
1461, 1766.00
1462, 1766.00
1463, 1767.00
1464, 1767.00
1465, 1769.00
1466, 1769.00
1467, 1769.00
1468, 1771.00
1469, 1770.00
1470, 1771.00
1471, 1773.00
1472, 1773.00
1473, 1775.00
1474, 1776.00
1475, 1776.00
1476, 1777.00
1477, 1778.00
1478, 1779.00
1479, 1780.00
1480, 1779.00
1481, 1781.00
1482, 1781.00
1483, 1784.00
1484, 1784.00
1485, 1785.00
1486, 1785.00
1487, 1787.00
1488, 1787.00
1489, 1788.00
1490, 1790.00
1491, 1791.00
1492, 1791.00
1493, 1792.00
1494, 1793.00
1495, 1795.00
1496, 1795.00
1497, 1796.00
1498, 1798.00
1499, 1798.00
1500, 1799.00
1501, 1801.00
1502, 1801.00
1503, 1801.00
1504, 1803.00
1505, 1804.00
1506, 1804.00
1507, 1806.00
1508, 1805.00
1509, 1807.00
1510, 1808.00
1511, 1809.00
1512, 1810.00
1513, 1811.00
1514, 1813.00
1515, 1814.00
1516, 1814.00
1517, 1815.00
1518, 1816.00
1519, 1818.00
1520, 1819.00
1521, 1819.00
1522, 1821.00
1523, 1821.00
1524, 1823.00
1525, 1823.00
1526, 1826.00
1527, 1826.00
1528, 1827.00
1529, 1828.00
1530, 1829.00
1531, 1830.00
1532, 1832.00
1533, 1833.00
1534, 1834.00
1535, 1834.00
1536, 1836.00
1537, 1836.00
1538, 1838.00
1539, 1839.00
1540, 1839.00
1541, 1841.00
1542, 1841.00
1543, 1843.00
1544, 1843.00
1545, 1845.00
1546, 1847.00
1547, 1847.00
1548, 1849.00
1549, 1849.00
1550, 1850.00
1551, 1852.00
1552, 1853.00
1553, 1853.00
1554, 1856.00
1555, 1855.00
1556, 1858.00
1557, 1859.00
1558, 1861.00
1559, 1861.00
1560, 1863.00
1561, 1864.00
1562, 1865.00
1563, 1866.00
1564, 1869.00
1565, 1869.00
1566, 1869.00
1567, 1872.00
1568, 1872.00
1569, 1873.00
1570, 1875.00
1571, 1876.00
1572, 1877.00
1573, 1879.00
1574, 1881.00
1575, 1881.00
1576, 1883.00
1577, 1883.00
1578, 1883.00
1579, 1885.00
1580, 1887.00
1581, 1889.00
1582, 1889.00
1583, 1890.00
1584, 1891.00
1585, 1892.00
1586, 1893.00
1587, 1895.00
1588, 1895.00
1589, 1895.00
1590, 1896.00
1591, 1898.00
1592, 1900.00
1593, 1900.00
1594, 1901.00
1595, 1903.00
1596, 1903.00
1597, 1903.00
1598, 1905.00
1599, 1907.00
1600, 1908.00
1601, 1909.00
1602, 1910.00
1603, 1912.00
1604, 1912.00
1605, 1914.00
1606, 1915.00
1607, 1916.00
1608, 1918.00
1609, 1919.00
1610, 1921.00
1611, 1922.00
1612, 1923.00
1613, 1924.00
1614, 1925.00
1615, 1927.00
1616, 1930.00
1617, 1930.00
1618, 1931.00
1619, 1933.00
1620, 1934.00
1621, 1936.00
1622, 1936.00
1623, 1939.00
1624, 1940.00
1625, 1941.00
1626, 1942.00
1627, 1943.00
1628, 1945.00
1629, 1947.00
1630, 1948.00
1631, 1949.00
1632, 1950.00
1633, 1951.00
1634, 1953.00
1635, 1956.00
1636, 1955.00
1637, 1957.00
1638, 1958.00
1639, 1959.00
1640, 1960.00
1641, 1961.00
1642, 1963.00
1643, 1964.00
1644, 1964.00
1645, 1967.00
1646, 1966.00
1647, 1968.00
1648, 1969.00
1649, 1970.00
1650, 1973.00

1750, 2517.00
1751, 2517.00
1752, 2517.00
1753, 2517.00
1754, 2516.00
1755, 2517.00
1756, 2517.00
1757, 2517.00
1758, 2517.00
1759, 2516.00
1760, 2517.00
1761, 2517.00
1762, 2517.00
1763, 2516.00
1764, 2515.00
1765, 2514.00
1766, 2514.00
1767, 2515.00
1768, 2514.00
1769, 2515.00
1770, 2515.00
1771, 2516.00
1772, 2514.00
1773, 2515.00
1774, 2514.00
1775, 2513.00
1776, 2513.00
1777, 2512.00
1778, 2511.00
1779, 2511.00
1780, 2511.00
1781, 2512.00
1782, 2510.00
1783, 2509.00
1784, 2509.00
1785, 2507.00
1786, 2508.00
1787, 2510.00
1788, 2509.00
1789, 2505.00
1790, 2505.00
1791, 2507.00
1792, 2506.00
1793, 2504.00
1794, 2503.00
1795, 2503.00
1796, 2504.00
1797, 2503.00
1798, 2502.00
1799, 2502.00
1800, 2502.00
1801, 2501.00
1802, 2502.00
1803, 2501.00
1804, 2500.00
1805, 2500.00
1806, 2502.00
1807, 2500.00
1808, 2499.00
1809, 2499.00
1810, 2499.00
1811, 2499.00
1812, 2497.00
1813, 2497.00
1814, 2498.00
1815, 2497.00
1816, 2496.00
1817, 2495.00
1818, 2495.00
1819, 2496.00
1820, 2493.00
1821, 2494.00
1822, 2493.00
1823, 2491.00
1824, 2491.00
1825, 2489.00
1826, 2490.00
1827, 2489.00
1828, 2489.00
1829, 2487.00
1830, 2486.00
1831, 2485.00
1832, 2485.00
1833, 2481.00
1834, 2481.00
1835, 2479.00
1836, 2479.00
1837, 2477.00
1838, 2474.00
1839, 2474.00
1840, 2473.00
1841, 2471.00
1842, 2468.00
1843, 2467.00
1844, 2464.00
1845, 2461.00
1846, 2460.00
1847, 2458.00
1848, 2458.00
1849, 2452.00
1850, 2451.00
1851, 2448.00
1852, 2447.00
1853, 2445.00
1854, 2441.00
1855, 2439.00
1856, 2438.00
1857, 2436.00
1858, 2434.00
1859, 2433.00
1860, 2429.00
1861, 2425.00
1862, 2426.00
1863, 2423.00
1864, 2423.00
1865, 2419.00
1866, 2419.00
1867, 2416.00
1868, 2415.00
1869, 2415.00
1870, 2411.00
1871, 2408.00
1872, 2407.00
1873, 2404.00
1874, 2406.00
1875, 2404.00
1876, 2403.00
1877, 2401.00
1878, 2402.00
1879, 2399.00
1880, 2398.00
1881, 2397.00
1882, 2396.00
1883, 2397.00
1884, 2394.00
1885, 2393.00
1886, 2395.00
1887, 2393.00
1888, 2391.00
1889, 2391.00
1890, 2389.00
1891, 2389.00
1892, 2389.00
1893, 2387.00
1894, 2388.00
1895, 2387.00
1896, 2388.00
1897, 2389.00
1898, 2387.00
1899, 2387.00
1900, 2386.00
1901, 2387.00
1902, 2384.00
1903, 2385.00
1904, 2387.00
1905, 2385.00
1906, 2384.00
1907, 2385.00
1908, 2384.00
1909, 2383.00
1910, 2384.00
1911, 2383.00
1912, 2383.00
1913, 2383.00
1914, 2383.00
1915, 2382.00
1916, 2384.00
1917, 2383.00
1918, 2383.00
1919, 2382.00
1920, 2383.00
1921, 2383.00
1922, 2384.00
1923, 2381.00
1924, 2381.00
1925, 2382.00
1926, 2384.00
1927, 2382.00
1928, 2382.00
1929, 2382.00
1930, 2384.00
1931, 2381.00
1932, 2381.00
1933, 2384.00
1934, 2383.00
1935, 2384.00
1936, 2384.00
1937, 2384.00
1938, 2384.00
1939, 2387.00
1940, 2384.00
1941, 2384.00
1942, 2384.00
1943, 2386.00
1944, 2385.00
1945, 2386.00
1946, 2384.00
1947, 2386.00
1948, 2385.00
1949, 2386.00
1950, 2388.00
1951, 2387.00
1952, 2389.00
1953, 2388.00
1954, 2389.00
1955, 2388.00
1956, 2391.00
1957, 2391.00
1958, 2391.00
1959, 2392.00
1960, 2393.00
1961, 2394.00
1962, 2393.00
1963, 2395.00
1964, 2396.00
1965, 2394.00
1966, 2397.00
1967, 2399.00
1968, 2397.00
1969, 2397.00
1970, 2396.00
1971, 2399.00
1972, 2398.00
1973, 2400.00
1974, 2401.00
1975, 2400.00
1976, 2402.00
1977, 2402.00
1978, 2403.00
1979, 2406.00
1980, 2407.00
1981, 2405.00
1982, 2405.00
1983, 2406.00
1984, 2406.00
1985, 2408.00
1986, 2411.00
1987, 2410.00
1988, 2412.00
1989, 2411.00
1990, 2412.00
1991, 2413.00
1992, 2413.00
1993, 2414.00
1994, 2414.00
1995, 2414.00
1996, 2416.00
1997, 2416.00
1998, 2418.00
1999, 2419.00
2000, 2417.00
2001, 2419.00
2002, 2420.00
2003, 2420.00
2004, 2421.00
2005, 2421.00
2006, 2422.00
2007, 2421.00
2008, 2422.00
2009, 2423.00
2010, 2424.00
2011, 2425.00
2012, 2426.00
2013, 2427.00
2014, 2426.00
2015, 2427.00
2016, 2428.00
2017, 2429.00
2018, 2429.00
2019, 2430.00
2020, 2431.00
2021, 2431.00
2022, 2431.00
2023, 2431.00
2024, 2431.00
2025, 2433.00
2026, 2435.00
2027, 2435.00
2028, 2435.00
2029, 2436.00
2030, 2436.00
2031, 2436.00
2032, 2437.00
2033, 2438.00
2034, 2438.00
2035, 2440.00
2036, 2441.00
2037, 2442.00
2038, 2440.00
2039, 2441.00
2040, 2441.00
2041, 2444.00
2042, 2445.00
2043, 2448.00
2044, 2447.00
2045, 2448.00
2046, 2448.00
2047, 2450.00
2048, 2450.00
2049, 2451.00
2050, 2452.00
2051, 2452.00
2052, 2454.00
2053, 2454.00
2054, 2454.00
2055, 2456.00
2056, 2458.00
2057, 2461.00
2058, 2458.00
2059, 2460.00
2060, 2461.00
2061, 2462.00
2062, 2461.00
2063, 2465.00
2064, 2466.00
2065, 2466.00
2066, 2466.00
2067, 2466.00
2068, 2469.00
2069, 2469.00
2070, 2469.00
2071, 2470.00
2072, 2471.00
2073, 2474.00
2074, 2472.00
2075, 2472.00
2076, 2476.00
2077, 2475.00
2078, 2476.00
2079, 2476.00
2080, 2478.00
2081, 2478.00
2082, 2479.00
2083, 2480.00
2084, 2480.00
2085, 2483.00
2086, 2481.00
2087, 2484.00
2088, 2485.00
2089, 2484.00
2090, 2486.00
2091, 2485.00
2092, 2487.00
2093, 2486.00
2094, 2487.00
2095, 2487.00
2096, 2489.00
2097, 2488.00
2098, 2489.00
2099, 2488.00
2100, 2489.00
2101, 2490.00
2102, 2491.00
2103, 2493.00
2104, 2493.00
2105, 2492.00
2106, 2492.00
2107, 2491.00
2108, 2494.00
2109, 2493.00
2110, 2495.00
2111, 2495.00
2112, 2495.00
2113, 2495.00
2114, 2494.00
2115, 2495.00
2116, 2496.00
2117, 2495.00
2118, 2497.00
2119, 2495.00
2120, 2496.00
2121, 2499.00
2122, 2499.00
2123, 2499.00
2124, 2500.00
2125, 2500.00
2126, 2499.00
2127, 2499.00
2128, 2499.00
2129, 2499.00
2130, 2501.00
2131, 2501.00
2132, 2501.00
2133, 2501.00
2134, 2501.00
2135, 2501.00
2136, 2500.00
2137, 2501.00
2138, 2503.00
2139, 2502.00
2140, 2505.00
2141, 2504.00
2142, 2501.00
2143, 2504.00
2144, 2505.00
2145, 2503.00
2146, 2504.00
2147, 2504.00
2148, 2504.00
2149, 2505.00
2150, 2504.00
