FW version: 24
Log Version: 3.0.3

General Info:
       Command/Macro Performed,            Timestamp,             Device ID, COM Port, UART/I2C, Test Name, Host Major, Host Minor, Host Revision, Host Git Commit
            Single_measurement,  2023_06_30_12_16_45,       Insight2_F4_xxx,    USB-C,      USB,          ,          0,          1,             1,      4031237645

Show Spectrometer Status:
l0_version, f4_version, battery_perc, battery_mVolt, accelerometer_temp, accelerometer_x, accelerometer_y, accelerometer_z, compass_temp, compass_x, compass_y, compass_z, lamp_0, lamp_1, gain_0, gain_1
        17,         24,           95,          2080,               5760,           65024,             236,           18360,            0,     65349,     65532,     18363,   2457,   2457,      1,      1

Temperature Statistic Info:
NTC AVG [°C], NTC2 AVG [°C]
      37.669,        37.353

Statistic Info:
M1:  num,      min,      max,   median,      AVG,      STD,M2:  num,      min,      max,   median,      AVG,      STD
     301,  1012.00,  1153.00,  1045.00,  1059.16,  43.8674,     401,  1487.00,  1573.00,  1533.00,  1531.83,  30.0534,

Measurements:
Wavelength, Data Amplitude
1350, 1027.00
1351, 1027.00
1352, 1027.00
1353, 1027.00
1354, 1027.00
1355, 1027.00
1356, 1027.00
1357, 1026.00
1358, 1026.00
1359, 1026.00
1360, 1025.00
1361, 1025.00
1362, 1024.00
1363, 1024.00
1364, 1024.00
1365, 1024.00
1366, 1022.00
1367, 1022.00
1368, 1022.00
1369, 1021.00
1370, 1022.00
1371, 1019.00
1372, 1021.00
1373, 1019.00
1374, 1019.00
1375, 1019.00
1376, 1019.00
1377, 1017.00
1378, 1017.00
1379, 1017.00
1380, 1017.00
1381, 1017.00
1382, 1016.00
1383, 1016.00
1384, 1015.00
1385, 1015.00
1386, 1015.00
1387, 1016.00
1388, 1014.00
1389, 1014.00
1390, 1015.00
1391, 1014.00
1392, 1015.00
1393, 1014.00
1394, 1013.00
1395, 1013.00
1396, 1014.00
1397, 1014.00
1398, 1013.00
1399, 1014.00
1400, 1012.00
1401, 1014.00
1402, 1013.00
1403, 1013.00
1404, 1013.00
1405, 1013.00
1406, 1013.00
1407, 1014.00
1408, 1013.00
1409, 1014.00
1410, 1013.00
1411, 1013.00
1412, 1014.00
1413, 1012.00
1414, 1013.00
1415, 1012.00
1416, 1013.00
1417, 1013.00
1418, 1013.00
1419, 1012.00
1420, 1013.00
1421, 1013.00
1422, 1014.00
1423, 1013.00
1424, 1013.00
1425, 1013.00
1426, 1013.00
1427, 1013.00
1428, 1014.00
1429, 1015.00
1430, 1015.00
1431, 1015.00
1432, 1015.00
1433, 1015.00
1434, 1015.00
1435, 1016.00
1436, 1015.00
1437, 1016.00
1438, 1016.00
1439, 1017.00
1440, 1017.00
1441, 1016.00
1442, 1017.00
1443, 1018.00
1444, 1018.00
1445, 1018.00
1446, 1018.00
1447, 1018.00
1448, 1019.00
1449, 1020.00
1450, 1019.00
1451, 1019.00
1452, 1020.00
1453, 1020.00
1454, 1020.00
1455, 1021.00
1456, 1022.00
1457, 1022.00
1458, 1023.00
1459, 1024.00
1460, 1024.00
1461, 1025.00
1462, 1025.00
1463, 1025.00
1464, 1026.00
1465, 1026.00
1466, 1025.00
1467, 1027.00
1468, 1027.00
1469, 1028.00
1470, 1029.00
1471, 1028.00
1472, 1029.00
1473, 1029.00
1474, 1030.00
1475, 1031.00
1476, 1031.00
1477, 1031.00
1478, 1033.00
1479, 1033.00
1480, 1033.00
1481, 1035.00
1482, 1034.00
1483, 1035.00
1484, 1036.00
1485, 1036.00
1486, 1038.00
1487, 1038.00
1488, 1039.00
1489, 1039.00
1490, 1039.00
1491, 1040.00
1492, 1041.00
1493, 1041.00
1494, 1042.00
1495, 1042.00
1496, 1043.00
1497, 1044.00
1498, 1043.00
1499, 1045.00
1500, 1044.00
1501, 1046.00
1502, 1046.00
1503, 1047.00
1504, 1048.00
1505, 1047.00
1506, 1049.00
1507, 1050.00
1508, 1051.00
1509, 1050.00
1510, 1051.00
1511, 1053.00
1512, 1053.00
1513, 1053.00
1514, 1054.00
1515, 1055.00
1516, 1056.00
1517, 1057.00
1518, 1056.00
1519, 1057.00
1520, 1057.00
1521, 1058.00
1522, 1060.00
1523, 1060.00
1524, 1060.00
1525, 1061.00
1526, 1062.00
1527, 1062.00
1528, 1063.00
1529, 1064.00
1530, 1065.00
1531, 1064.00
1532, 1065.00
1533, 1067.00
1534, 1067.00
1535, 1066.00
1536, 1068.00
1537, 1069.00
1538, 1069.00
1539, 1071.00
1540, 1070.00
1541, 1072.00
1542, 1073.00
1543, 1073.00
1544, 1073.00
1545, 1075.00
1546, 1075.00
1547, 1076.00
1548, 1076.00
1549, 1077.00
1550, 1077.00
1551, 1079.00
1552, 1079.00
1553, 1079.00
1554, 1080.00
1555, 1080.00
1556, 1081.00
1557, 1082.00
1558, 1082.00
1559, 1085.00
1560, 1084.00
1561, 1084.00
1562, 1085.00
1563, 1087.00
1564, 1088.00
1565, 1088.00
1566, 1089.00
1567, 1089.00
1568, 1090.00
1569, 1091.00
1570, 1092.00
1571, 1093.00
1572, 1094.00
1573, 1094.00
1574, 1095.00
1575, 1094.00
1576, 1096.00
1577, 1097.00
1578, 1098.00
1579, 1098.00
1580, 1099.00
1581, 1099.00
1582, 1100.00
1583, 1101.00
1584, 1101.00
1585, 1103.00
1586, 1103.00
1587, 1103.00
1588, 1104.00
1589, 1104.00
1590, 1106.00
1591, 1106.00
1592, 1106.00
1593, 1108.00
1594, 1109.00
1595, 1108.00
1596, 1109.00
1597, 1110.00
1598, 1110.00
1599, 1111.00
1600, 1113.00
1601, 1112.00
1602, 1114.00
1603, 1115.00
1604, 1115.00
1605, 1115.00
1606, 1117.00
1607, 1118.00
1608, 1119.00
1609, 1120.00
1610, 1120.00
1611, 1121.00
1612, 1122.00
1613, 1122.00
1614, 1123.00
1615, 1124.00
1616, 1125.00
1617, 1127.00
1618, 1127.00
1619, 1127.00
1620, 1129.00
1621, 1129.00
1622, 1130.00
1623, 1132.00
1624, 1132.00
1625, 1134.00
1626, 1134.00
1627, 1134.00
1628, 1136.00
1629, 1137.00
1630, 1137.00
1631, 1139.00
1632, 1139.00
1633, 1139.00
1634, 1141.00
1635, 1141.00
1636, 1143.00
1637, 1144.00
1638, 1143.00
1639, 1145.00
1640, 1145.00
1641, 1144.00
1642, 1146.00
1643, 1148.00
1644, 1147.00
1645, 1149.00
1646, 1149.00
1647, 1151.00
1648, 1152.00
1649, 1152.00
1650, 1153.00

1750, 1569.00
1751, 1570.00
1752, 1571.00
1753, 1572.00
1754, 1569.00
1755, 1572.00
1756, 1571.00
1757, 1572.00
1758, 1571.00
1759, 1572.00
1760, 1572.00
1761, 1571.00
1762, 1573.00
1763, 1571.00
1764, 1572.00
1765, 1571.00
1766, 1572.00
1767, 1572.00
1768, 1572.00
1769, 1572.00
1770, 1570.00
1771, 1571.00
1772, 1570.00
1773, 1570.00
1774, 1570.00
1775, 1569.00
1776, 1569.00
1777, 1569.00
1778, 1569.00
1779, 1568.00
1780, 1568.00
1781, 1567.00
1782, 1567.00
1783, 1567.00
1784, 1568.00
1785, 1567.00
1786, 1567.00
1787, 1568.00
1788, 1566.00
1789, 1566.00
1790, 1566.00
1791, 1565.00
1792, 1563.00
1793, 1564.00
1794, 1565.00
1795, 1563.00
1796, 1565.00
1797, 1565.00
1798, 1565.00
1799, 1563.00
1800, 1564.00
1801, 1563.00
1802, 1562.00
1803, 1562.00
1804, 1562.00
1805, 1564.00
1806, 1561.00
1807, 1562.00
1808, 1560.00
1809, 1560.00
1810, 1563.00
1811, 1560.00
1812, 1561.00
1813, 1561.00
1814, 1560.00
1815, 1561.00
1816, 1560.00
1817, 1559.00
1818, 1560.00
1819, 1559.00
1820, 1558.00
1821, 1559.00
1822, 1557.00
1823, 1557.00
1824, 1557.00
1825, 1556.00
1826, 1558.00
1827, 1555.00
1828, 1553.00
1829, 1553.00
1830, 1554.00
1831, 1553.00
1832, 1553.00
1833, 1551.00
1834, 1550.00
1835, 1550.00
1836, 1549.00
1837, 1549.00
1838, 1546.00
1839, 1546.00
1840, 1545.00
1841, 1547.00
1842, 1542.00
1843, 1540.00
1844, 1540.00
1845, 1539.00
1846, 1538.00
1847, 1538.00
1848, 1535.00
1849, 1531.00
1850, 1533.00
1851, 1532.00
1852, 1530.00
1853, 1528.00
1854, 1527.00
1855, 1525.00
1856, 1524.00
1857, 1523.00
1858, 1521.00
1859, 1520.00
1860, 1517.00
1861, 1516.00
1862, 1515.00
1863, 1514.00
1864, 1514.00
1865, 1513.00
1866, 1508.00
1867, 1509.00
1868, 1509.00
1869, 1507.00
1870, 1507.00
1871, 1506.00
1872, 1503.00
1873, 1503.00
1874, 1501.00
1875, 1502.00
1876, 1502.00
1877, 1500.00
1878, 1501.00
1879, 1499.00
1880, 1499.00
1881, 1500.00
1882, 1497.00
1883, 1497.00
1884, 1496.00
1885, 1496.00
1886, 1496.00
1887, 1494.00
1888, 1493.00
1889, 1493.00
1890, 1493.00
1891, 1494.00
1892, 1493.00
1893, 1493.00
1894, 1492.00
1895, 1492.00
1896, 1493.00
1897, 1492.00
1898, 1491.00
1899, 1492.00
1900, 1490.00
1901, 1491.00
1902, 1490.00
1903, 1489.00
1904, 1490.00
1905, 1489.00
1906, 1489.00
1907, 1489.00
1908, 1489.00
1909, 1489.00
1910, 1489.00
1911, 1488.00
1912, 1488.00
1913, 1488.00
1914, 1489.00
1915, 1487.00
1916, 1489.00
1917, 1489.00
1918, 1488.00
1919, 1488.00
1920, 1488.00
1921, 1487.00
1922, 1489.00
1923, 1489.00
1924, 1489.00
1925, 1489.00
1926, 1488.00
1927, 1488.00
1928, 1489.00
1929, 1489.00
1930, 1488.00
1931, 1490.00
1932, 1488.00
1933, 1488.00
1934, 1490.00
1935, 1490.00
1936, 1489.00
1937, 1489.00
1938, 1487.00
1939, 1490.00
1940, 1489.00
1941, 1491.00
1942, 1492.00
1943, 1490.00
1944, 1490.00
1945, 1490.00
1946, 1491.00
1947, 1492.00
1948, 1490.00
1949, 1491.00
1950, 1493.00
1951, 1491.00
1952, 1494.00
1953, 1492.00
1954, 1491.00
1955, 1492.00
1956, 1495.00
1957, 1495.00
1958, 1493.00
1959, 1495.00
1960, 1494.00
1961, 1495.00
1962, 1496.00
1963, 1496.00
1964, 1496.00
1965, 1497.00
1966, 1496.00
1967, 1499.00
1968, 1498.00
1969, 1498.00
1970, 1500.00
1971, 1500.00
1972, 1499.00
1973, 1499.00
1974, 1501.00
1975, 1499.00
1976, 1501.00
1977, 1502.00
1978, 1502.00
1979, 1503.00
1980, 1503.00
1981, 1505.00
1982, 1504.00
1983, 1503.00
1984, 1505.00
1985, 1506.00
1986, 1504.00
1987, 1507.00
1988, 1507.00
1989, 1506.00
1990, 1508.00
1991, 1509.00
1992, 1507.00
1993, 1507.00
1994, 1509.00
1995, 1507.00
1996, 1511.00
1997, 1509.00
1998, 1512.00
1999, 1510.00
2000, 1513.00
2001, 1513.00
2002, 1512.00
2003, 1512.00
2004, 1514.00
2005, 1515.00
2006, 1513.00
2007, 1515.00
2008, 1516.00
2009, 1515.00
2010, 1515.00
2011, 1517.00
2012, 1516.00
2013, 1517.00
2014, 1517.00
2015, 1516.00
2016, 1516.00
2017, 1518.00
2018, 1518.00
2019, 1518.00
2020, 1522.00
2021, 1519.00
2022, 1519.00
2023, 1520.00
2024, 1521.00
2025, 1523.00
2026, 1522.00
2027, 1523.00
2028, 1522.00
2029, 1522.00
2030, 1525.00
2031, 1523.00
2032, 1525.00
2033, 1526.00
2034, 1526.00
2035, 1526.00
2036, 1527.00
2037, 1529.00
2038, 1528.00
2039, 1527.00
2040, 1528.00
2041, 1528.00
2042, 1529.00
2043, 1529.00
2044, 1531.00
2045, 1530.00
2046, 1531.00
2047, 1533.00
2048, 1533.00
2049, 1533.00
2050, 1533.00
2051, 1536.00
2052, 1535.00
2053, 1537.00
2054, 1536.00
2055, 1536.00
2056, 1538.00
2057, 1539.00
2058, 1540.00
2059, 1539.00
2060, 1540.00
2061, 1541.00
2062, 1543.00
2063, 1542.00
2064, 1544.00
2065, 1543.00
2066, 1543.00
2067, 1545.00
2068, 1544.00
2069, 1544.00
2070, 1545.00
2071, 1548.00
2072, 1548.00
2073, 1548.00
2074, 1547.00
2075, 1550.00
2076, 1551.00
2077, 1549.00
2078, 1551.00
2079, 1550.00
2080, 1552.00
2081, 1553.00
2082, 1554.00
2083, 1556.00
2084, 1553.00
2085, 1552.00
2086, 1555.00
2087, 1556.00
2088, 1555.00
2089, 1556.00
2090, 1556.00
2091, 1557.00
2092, 1557.00
2093, 1558.00
2094, 1559.00
2095, 1559.00
2096, 1558.00
2097, 1558.00
2098, 1560.00
2099, 1560.00
2100, 1559.00
2101, 1561.00
2102, 1561.00
2103, 1561.00
2104, 1561.00
2105, 1561.00
2106, 1561.00
2107, 1562.00
2108, 1564.00
2109, 1561.00
2110, 1562.00
2111, 1564.00
2112, 1564.00
2113, 1564.00
2114, 1564.00
2115, 1564.00
2116, 1564.00
2117, 1566.00
2118, 1564.00
2119, 1565.00
2120, 1563.00
2121, 1566.00
2122, 1567.00
2123, 1567.00
2124, 1568.00
2125, 1566.00
2126, 1567.00
2127, 1566.00
2128, 1566.00
2129, 1567.00
2130, 1568.00
2131, 1567.00
2132, 1567.00
2133, 1568.00
2134, 1567.00
2135, 1568.00
2136, 1569.00
2137, 1569.00
2138, 1567.00
2139, 1569.00
2140, 1568.00
2141, 1568.00
2142, 1569.00
2143, 1570.00
2144, 1570.00
2145, 1571.00
2146, 1569.00
2147, 1569.00
2148, 1570.00
2149, 1568.00
2150, 1570.00
