FW version: 24
Log Version: 3.0.3

General Info:
       Command/Macro Performed,            Timestamp,             Device ID, COM Port, UART/I2C, Test Name, Host Major, Host Minor, Host Revision, Host Git Commit
            Single_measurement,  2023_06_30_12_16_26,       Insight2_F4_xxx,    USB-C,      USB,          ,          0,          1,             1,      4031237645

Show Spectrometer Status:
l0_version, f4_version, battery_perc, battery_mVolt, accelerometer_temp, accelerometer_x, accelerometer_y, accelerometer_z, compass_temp, compass_x, compass_y, compass_z, lamp_0, lamp_1, gain_0, gain_1
        17,         24,           95,          2079,               5744,           65268,             252,           18416,            0,     65527,     65534,     18423,   2047,   2047,      1,      1

Temperature Statistic Info:
NTC AVG [°C], NTC2 AVG [°C]
      37.583,        37.295

Statistic Info:
M1:  num,      min,      max,   median,      AVG,      STD,M2:  num,      min,      max,   median,      AVG,      STD
     301,   700.00,   801.00,   726.00,   734.79,  31.6731,     401,  1082.00,  1147.00,  1118.00,  1116.38,  22.2020,

Measurements:
Wavelength, Data Amplitude
1350, 711.00
1351, 711.00
1352, 710.00
1353, 710.00
1354, 709.00
1355, 710.00
1356, 709.00
1357, 709.00
1358, 709.00
1359, 709.00
1360, 709.00
1361, 708.00
1362, 709.00
1363, 707.00
1364, 707.00
1365, 707.00
1366, 707.00
1367, 707.00
1368, 707.00
1369, 706.00
1370, 707.00
1371, 707.00
1372, 705.00
1373, 705.00
1374, 704.00
1375, 706.00
1376, 704.00
1377, 704.00
1378, 703.00
1379, 703.00
1380, 703.00
1381, 704.00
1382, 703.00
1383, 702.00
1384, 702.00
1385, 703.00
1386, 701.00
1387, 701.00
1388, 703.00
1389, 702.00
1390, 701.00
1391, 702.00
1392, 701.00
1393, 701.00
1394, 702.00
1395, 702.00
1396, 702.00
1397, 701.00
1398, 702.00
1399, 701.00
1400, 701.00
1401, 701.00
1402, 702.00
1403, 701.00
1404, 701.00
1405, 702.00
1406, 700.00
1407, 701.00
1408, 701.00
1409, 701.00
1410, 700.00
1411, 700.00
1412, 702.00
1413, 701.00
1414, 701.00
1415, 701.00
1416, 701.00
1417, 701.00
1418, 701.00
1419, 701.00
1420, 701.00
1421, 701.00
1422, 701.00
1423, 701.00
1424, 702.00
1425, 701.00
1426, 701.00
1427, 702.00
1428, 701.00
1429, 701.00
1430, 703.00
1431, 703.00
1432, 703.00
1433, 703.00
1434, 703.00
1435, 703.00
1436, 703.00
1437, 704.00
1438, 705.00
1439, 704.00
1440, 703.00
1441, 705.00
1442, 705.00
1443, 705.00
1444, 705.00
1445, 705.00
1446, 705.00
1447, 706.00
1448, 706.00
1449, 706.00
1450, 706.00
1451, 706.00
1452, 706.00
1453, 707.00
1454, 708.00
1455, 709.00
1456, 708.00
1457, 708.00
1458, 709.00
1459, 709.00
1460, 709.00
1461, 710.00
1462, 710.00
1463, 711.00
1464, 711.00
1465, 710.00
1466, 710.00
1467, 712.00
1468, 712.00
1469, 712.00
1470, 713.00
1471, 713.00
1472, 713.00
1473, 714.00
1474, 714.00
1475, 714.00
1476, 716.00
1477, 715.00
1478, 716.00
1479, 717.00
1480, 717.00
1481, 717.00
1482, 717.00
1483, 718.00
1484, 718.00
1485, 719.00
1486, 720.00
1487, 719.00
1488, 720.00
1489, 720.00
1490, 721.00
1491, 722.00
1492, 722.00
1493, 723.00
1494, 723.00
1495, 724.00
1496, 724.00
1497, 725.00
1498, 725.00
1499, 725.00
1500, 726.00
1501, 726.00
1502, 727.00
1503, 726.00
1504, 727.00
1505, 727.00
1506, 729.00
1507, 729.00
1508, 730.00
1509, 730.00
1510, 731.00
1511, 730.00
1512, 730.00
1513, 732.00
1514, 733.00
1515, 733.00
1516, 733.00
1517, 733.00
1518, 734.00
1519, 735.00
1520, 735.00
1521, 735.00
1522, 736.00
1523, 737.00
1524, 737.00
1525, 738.00
1526, 738.00
1527, 739.00
1528, 738.00
1529, 740.00
1530, 740.00
1531, 741.00
1532, 741.00
1533, 741.00
1534, 741.00
1535, 742.00
1536, 742.00
1537, 743.00
1538, 744.00
1539, 745.00
1540, 744.00
1541, 746.00
1542, 746.00
1543, 747.00
1544, 746.00
1545, 747.00
1546, 747.00
1547, 748.00
1548, 748.00
1549, 748.00
1550, 749.00
1551, 750.00
1552, 750.00
1553, 750.00
1554, 751.00
1555, 751.00
1556, 752.00
1557, 752.00
1558, 753.00
1559, 754.00
1560, 754.00
1561, 755.00
1562, 754.00
1563, 756.00
1564, 756.00
1565, 756.00
1566, 756.00
1567, 758.00
1568, 757.00
1569, 759.00
1570, 759.00
1571, 759.00
1572, 759.00
1573, 760.00
1574, 761.00
1575, 762.00
1576, 762.00
1577, 762.00
1578, 762.00
1579, 764.00
1580, 764.00
1581, 764.00
1582, 764.00
1583, 765.00
1584, 766.00
1585, 766.00
1586, 766.00
1587, 767.00
1588, 767.00
1589, 767.00
1590, 768.00
1591, 769.00
1592, 769.00
1593, 770.00
1594, 770.00
1595, 770.00
1596, 770.00
1597, 771.00
1598, 772.00
1599, 773.00
1600, 773.00
1601, 774.00
1602, 773.00
1603, 774.00
1604, 776.00
1605, 776.00
1606, 776.00
1607, 777.00
1608, 778.00
1609, 779.00
1610, 779.00
1611, 779.00
1612, 780.00
1613, 780.00
1614, 781.00
1615, 781.00
1616, 783.00
1617, 782.00
1618, 784.00
1619, 784.00
1620, 785.00
1621, 785.00
1622, 785.00
1623, 787.00
1624, 787.00
1625, 787.00
1626, 788.00
1627, 789.00
1628, 789.00
1629, 790.00
1630, 791.00
1631, 791.00
1632, 792.00
1633, 791.00
1634, 793.00
1635, 795.00
1636, 793.00
1637, 794.00
1638, 796.00
1639, 794.00
1640, 796.00
1641, 796.00
1642, 797.00
1643, 796.00
1644, 797.00
1645, 798.00
1646, 798.00
1647, 798.00
1648, 799.00
1649, 800.00
1650, 801.00

1750, 1144.00
1751, 1144.00
1752, 1144.00
1753, 1145.00
1754, 1144.00
1755, 1142.00
1756, 1145.00
1757, 1144.00
1758, 1142.00
1759, 1145.00
1760, 1146.00
1761, 1143.00
1762, 1145.00
1763, 1145.00
1764, 1145.00
1765, 1145.00
1766, 1144.00
1767, 1143.00
1768, 1144.00
1769, 1144.00
1770, 1144.00
1771, 1144.00
1772, 1144.00
1773, 1143.00
1774, 1142.00
1775, 1143.00
1776, 1141.00
1777, 1144.00
1778, 1142.00
1779, 1142.00
1780, 1143.00
1781, 1142.00
1782, 1141.00
1783, 1142.00
1784, 1142.00
1785, 1141.00
1786, 1140.00
1787, 1141.00
1788, 1140.00
1789, 1139.00
1790, 1139.00
1791, 1140.00
1792, 1140.00
1793, 1139.00
1794, 1139.00
1795, 1140.00
1796, 1138.00
1797, 1138.00
1798, 1140.00
1799, 1139.00
1800, 1138.00
1801, 1139.00
1802, 1138.00
1803, 1139.00
1804, 1139.00
1805, 1138.00
1806, 1138.00
1807, 1136.00
1808, 1136.00
1809, 1138.00
1810, 1136.00
1811, 1136.00
1812, 1136.00
1813, 1138.00
1814, 1137.00
1815, 1135.00
1816, 1137.00
1817, 1136.00
1818, 1136.00
1819, 1134.00
1820, 1137.00
1821, 1135.00
1822, 1134.00
1823, 1136.00
1824, 1135.00
1825, 1135.00
1826, 1131.00
1827, 1136.00
1828, 1134.00
1829, 1133.00
1830, 1132.00
1831, 1131.00
1832, 1130.00
1833, 1129.00
1834, 1130.00
1835, 1129.00
1836, 1128.00
1837, 1127.00
1838, 1127.00
1839, 1126.00
1840, 1126.00
1841, 1124.00
1842, 1126.00
1843, 1123.00
1844, 1123.00
1845, 1120.00
1846, 1120.00
1847, 1119.00
1848, 1118.00
1849, 1117.00
1850, 1117.00
1851, 1117.00
1852, 1114.00
1853, 1114.00
1854, 1112.00
1855, 1112.00
1856, 1112.00
1857, 1108.00
1858, 1108.00
1859, 1107.00
1860, 1106.00
1861, 1105.00
1862, 1104.00
1863, 1104.00
1864, 1103.00
1865, 1100.00
1866, 1101.00
1867, 1101.00
1868, 1099.00
1869, 1099.00
1870, 1097.00
1871, 1096.00
1872, 1096.00
1873, 1095.00
1874, 1096.00
1875, 1096.00
1876, 1093.00
1877, 1093.00
1878, 1090.00
1879, 1091.00
1880, 1093.00
1881, 1091.00
1882, 1090.00
1883, 1091.00
1884, 1090.00
1885, 1090.00
1886, 1089.00
1887, 1090.00
1888, 1088.00
1889, 1089.00
1890, 1087.00
1891, 1086.00
1892, 1088.00
1893, 1085.00
1894, 1086.00
1895, 1085.00
1896, 1088.00
1897, 1088.00
1898, 1085.00
1899, 1088.00
1900, 1086.00
1901, 1085.00
1902, 1085.00
1903, 1085.00
1904, 1085.00
1905, 1085.00
1906, 1085.00
1907, 1084.00
1908, 1085.00
1909, 1083.00
1910, 1087.00
1911, 1084.00
1912, 1083.00
1913, 1084.00
1914, 1084.00
1915, 1083.00
1916, 1084.00
1917, 1084.00
1918, 1084.00
1919, 1085.00
1920, 1082.00
1921, 1084.00
1922, 1083.00
1923, 1084.00
1924, 1083.00
1925, 1085.00
1926, 1084.00
1927, 1083.00
1928, 1085.00
1929, 1083.00
1930, 1083.00
1931, 1085.00
1932, 1084.00
1933, 1084.00
1934, 1083.00
1935, 1085.00
1936, 1084.00
1937, 1086.00
1938, 1085.00
1939, 1084.00
1940, 1084.00
1941, 1085.00
1942, 1086.00
1943, 1085.00
1944, 1086.00
1945, 1086.00
1946, 1085.00
1947, 1086.00
1948, 1086.00
1949, 1088.00
1950, 1088.00
1951, 1088.00
1952, 1089.00
1953, 1087.00
1954, 1089.00
1955, 1088.00
1956, 1089.00
1957, 1088.00
1958, 1090.00
1959, 1089.00
1960, 1088.00
1961, 1091.00
1962, 1090.00
1963, 1089.00
1964, 1090.00
1965, 1091.00
1966, 1090.00
1967, 1092.00
1968, 1090.00
1969, 1091.00
1970, 1092.00
1971, 1091.00
1972, 1092.00
1973, 1095.00
1974, 1095.00
1975, 1093.00
1976, 1094.00
1977, 1095.00
1978, 1093.00
1979, 1096.00
1980, 1096.00
1981, 1094.00
1982, 1095.00
1983, 1098.00
1984, 1097.00
1985, 1097.00
1986, 1096.00
1987, 1099.00
1988, 1098.00
1989, 1099.00
1990, 1098.00
1991, 1099.00
1992, 1099.00
1993, 1099.00
1994, 1102.00
1995, 1101.00
1996, 1100.00
1997, 1099.00
1998, 1101.00
1999, 1101.00
2000, 1102.00
2001, 1101.00
2002, 1104.00
2003, 1102.00
2004, 1102.00
2005, 1101.00
2006, 1105.00
2007, 1105.00
2008, 1103.00
2009, 1104.00
2010, 1104.00
2011, 1105.00
2012, 1105.00
2013, 1105.00
2014, 1106.00
2015, 1105.00
2016, 1103.00
2017, 1106.00
2018, 1107.00
2019, 1108.00
2020, 1107.00
2021, 1108.00
2022, 1109.00
2023, 1108.00
2024, 1109.00
2025, 1110.00
2026, 1109.00
2027, 1110.00
2028, 1111.00
2029, 1109.00
2030, 1111.00
2031, 1110.00
2032, 1111.00
2033, 1112.00
2034, 1112.00
2035, 1113.00
2036, 1113.00
2037, 1114.00
2038, 1113.00
2039, 1115.00
2040, 1114.00
2041, 1114.00
2042, 1117.00
2043, 1116.00
2044, 1116.00
2045, 1118.00
2046, 1118.00
2047, 1118.00
2048, 1117.00
2049, 1117.00
2050, 1119.00
2051, 1118.00
2052, 1121.00
2053, 1120.00
2054, 1123.00
2055, 1121.00
2056, 1121.00
2057, 1122.00
2058, 1121.00
2059, 1123.00
2060, 1122.00
2061, 1124.00
2062, 1123.00
2063, 1125.00
2064, 1124.00
2065, 1126.00
2066, 1125.00
2067, 1126.00
2068, 1128.00
2069, 1127.00
2070, 1127.00
2071, 1127.00
2072, 1129.00
2073, 1128.00
2074, 1130.00
2075, 1129.00
2076, 1131.00
2077, 1129.00
2078, 1131.00
2079, 1132.00
2080, 1131.00
2081, 1131.00
2082, 1132.00
2083, 1132.00
2084, 1132.00
2085, 1136.00
2086, 1135.00
2087, 1135.00
2088, 1135.00
2089, 1136.00
2090, 1135.00
2091, 1136.00
2092, 1137.00
2093, 1137.00
2094, 1135.00
2095, 1138.00
2096, 1137.00
2097, 1138.00
2098, 1139.00
2099, 1139.00
2100, 1137.00
2101, 1139.00
2102, 1140.00
2103, 1139.00
2104, 1140.00
2105, 1140.00
2106, 1139.00
2107, 1140.00
2108, 1141.00
2109, 1140.00
2110, 1140.00
2111, 1141.00
2112, 1141.00
2113, 1140.00
2114, 1140.00
2115, 1140.00
2116, 1141.00
2117, 1142.00
2118, 1142.00
2119, 1141.00
2120, 1142.00
2121, 1143.00
2122, 1143.00
2123, 1143.00
2124, 1141.00
2125, 1143.00
2126, 1144.00
2127, 1143.00
2128, 1144.00
2129, 1142.00
2130, 1144.00
2131, 1144.00
2132, 1144.00
2133, 1145.00
2134, 1144.00
2135, 1144.00
2136, 1145.00
2137, 1143.00
2138, 1145.00
2139, 1144.00
2140, 1144.00
2141, 1145.00
2142, 1145.00
2143, 1146.00
2144, 1147.00
2145, 1146.00
2146, 1145.00
2147, 1145.00
2148, 1145.00
2149, 1145.00
2150, 1147.00
