FW version: 24
Log Version: 3.0.3

General Info:
       Command/Macro Performed,            Timestamp,             Device ID, COM Port, UART/I2C, Test Name, Host Major, Host Minor, Host Revision, Host Git Commit
            Single_measurement,  2023_06_30_12_16_22,       Insight2_F4_xxx,    USB-C,      USB,          ,          0,          1,             1,      4031237645

Show Spectrometer Status:
l0_version, f4_version, battery_perc, battery_mVolt, accelerometer_temp, accelerometer_x, accelerometer_y, accelerometer_z, compass_temp, compass_x, compass_y, compass_z, lamp_0, lamp_1, gain_0, gain_1
        17,         24,           95,          2079,               5728,           65284,             256,           18392,            0,     65350,     65313,     18397,   2047,   2047,      1,      1

Temperature Statistic Info:
NTC AVG [°C], NTC2 AVG [°C]
      37.554,        37.266

Statistic Info:
M1:  num,      min,      max,   median,      AVG,      STD,M2:  num,      min,      max,   median,      AVG,      STD
     301,   700.00,   800.00,   726.00,   734.70,  31.6377,     401,  1082.00,  1147.00,  1119.00,  1116.48,  22.2603,

Measurements:
Wavelength, Data Amplitude
1350, 710.00
1351, 710.00
1352, 711.00
1353, 709.00
1354, 709.00
1355, 709.00
1356, 710.00
1357, 709.00
1358, 710.00
1359, 708.00
1360, 709.00
1361, 708.00
1362, 709.00
1363, 708.00
1364, 707.00
1365, 707.00
1366, 706.00
1367, 706.00
1368, 707.00
1369, 706.00
1370, 706.00
1371, 706.00
1372, 705.00
1373, 704.00
1374, 705.00
1375, 704.00
1376, 704.00
1377, 703.00
1378, 703.00
1379, 703.00
1380, 703.00
1381, 703.00
1382, 703.00
1383, 703.00
1384, 702.00
1385, 703.00
1386, 702.00
1387, 701.00
1388, 702.00
1389, 702.00
1390, 702.00
1391, 702.00
1392, 702.00
1393, 702.00
1394, 702.00
1395, 701.00
1396, 701.00
1397, 701.00
1398, 702.00
1399, 700.00
1400, 702.00
1401, 700.00
1402, 701.00
1403, 700.00
1404, 701.00
1405, 701.00
1406, 701.00
1407, 701.00
1408, 701.00
1409, 701.00
1410, 701.00
1411, 701.00
1412, 701.00
1413, 701.00
1414, 701.00
1415, 702.00
1416, 701.00
1417, 701.00
1418, 701.00
1419, 702.00
1420, 702.00
1421, 701.00
1422, 701.00
1423, 701.00
1424, 701.00
1425, 701.00
1426, 702.00
1427, 702.00
1428, 701.00
1429, 703.00
1430, 703.00
1431, 703.00
1432, 702.00
1433, 703.00
1434, 703.00
1435, 703.00
1436, 703.00
1437, 704.00
1438, 704.00
1439, 705.00
1440, 704.00
1441, 704.00
1442, 704.00
1443, 705.00
1444, 705.00
1445, 705.00
1446, 705.00
1447, 706.00
1448, 706.00
1449, 706.00
1450, 707.00
1451, 707.00
1452, 708.00
1453, 708.00
1454, 709.00
1455, 708.00
1456, 708.00
1457, 708.00
1458, 709.00
1459, 709.00
1460, 709.00
1461, 710.00
1462, 709.00
1463, 710.00
1464, 711.00
1465, 710.00
1466, 711.00
1467, 711.00
1468, 712.00
1469, 712.00
1470, 713.00
1471, 713.00
1472, 714.00
1473, 714.00
1474, 715.00
1475, 714.00
1476, 714.00
1477, 715.00
1478, 716.00
1479, 717.00
1480, 716.00
1481, 718.00
1482, 717.00
1483, 718.00
1484, 718.00
1485, 720.00
1486, 719.00
1487, 720.00
1488, 720.00
1489, 720.00
1490, 721.00
1491, 721.00
1492, 721.00
1493, 722.00
1494, 722.00
1495, 725.00
1496, 723.00
1497, 724.00
1498, 725.00
1499, 725.00
1500, 726.00
1501, 726.00
1502, 726.00
1503, 726.00
1504, 728.00
1505, 728.00
1506, 728.00
1507, 729.00
1508, 728.00
1509, 729.00
1510, 730.00
1511, 732.00
1512, 732.00
1513, 731.00
1514, 733.00
1515, 733.00
1516, 732.00
1517, 734.00
1518, 734.00
1519, 734.00
1520, 735.00
1521, 735.00
1522, 736.00
1523, 736.00
1524, 737.00
1525, 736.00
1526, 737.00
1527, 739.00
1528, 738.00
1529, 739.00
1530, 740.00
1531, 740.00
1532, 740.00
1533, 741.00
1534, 741.00
1535, 742.00
1536, 743.00
1537, 744.00
1538, 743.00
1539, 744.00
1540, 745.00
1541, 745.00
1542, 746.00
1543, 746.00
1544, 746.00
1545, 747.00
1546, 747.00
1547, 748.00
1548, 749.00
1549, 750.00
1550, 749.00
1551, 750.00
1552, 750.00
1553, 751.00
1554, 751.00
1555, 752.00
1556, 751.00
1557, 753.00
1558, 753.00
1559, 754.00
1560, 754.00
1561, 754.00
1562, 754.00
1563, 755.00
1564, 756.00
1565, 756.00
1566, 757.00
1567, 756.00
1568, 757.00
1569, 758.00
1570, 759.00
1571, 759.00
1572, 760.00
1573, 760.00
1574, 760.00
1575, 762.00
1576, 761.00
1577, 762.00
1578, 762.00
1579, 763.00
1580, 764.00
1581, 764.00
1582, 764.00
1583, 765.00
1584, 765.00
1585, 766.00
1586, 766.00
1587, 766.00
1588, 768.00
1589, 768.00
1590, 767.00
1591, 769.00
1592, 769.00
1593, 769.00
1594, 770.00
1595, 771.00
1596, 772.00
1597, 772.00
1598, 772.00
1599, 772.00
1600, 773.00
1601, 773.00
1602, 774.00
1603, 774.00
1604, 775.00
1605, 775.00
1606, 776.00
1607, 776.00
1608, 776.00
1609, 778.00
1610, 779.00
1611, 779.00
1612, 779.00
1613, 780.00
1614, 781.00
1615, 782.00
1616, 783.00
1617, 783.00
1618, 783.00
1619, 783.00
1620, 784.00
1621, 786.00
1622, 786.00
1623, 788.00
1624, 786.00
1625, 788.00
1626, 788.00
1627, 789.00
1628, 789.00
1629, 790.00
1630, 791.00
1631, 791.00
1632, 792.00
1633, 792.00
1634, 793.00
1635, 794.00
1636, 794.00
1637, 794.00
1638, 794.00
1639, 796.00
1640, 796.00
1641, 796.00
1642, 796.00
1643, 796.00
1644, 797.00
1645, 797.00
1646, 798.00
1647, 798.00
1648, 798.00
1649, 800.00
1650, 800.00

1750, 1144.00
1751, 1145.00
1752, 1144.00
1753, 1143.00
1754, 1144.00
1755, 1144.00
1756, 1143.00
1757, 1144.00
1758, 1145.00
1759, 1144.00
1760, 1144.00
1761, 1145.00
1762, 1144.00
1763, 1145.00
1764, 1143.00
1765, 1145.00
1766, 1143.00
1767, 1145.00
1768, 1144.00
1769, 1144.00
1770, 1143.00
1771, 1144.00
1772, 1144.00
1773, 1143.00
1774, 1143.00
1775, 1144.00
1776, 1144.00
1777, 1142.00
1778, 1142.00
1779, 1143.00
1780, 1141.00
1781, 1143.00
1782, 1141.00
1783, 1140.00
1784, 1141.00
1785, 1143.00
1786, 1143.00
1787, 1142.00
1788, 1141.00
1789, 1141.00
1790, 1140.00
1791, 1139.00
1792, 1141.00
1793, 1139.00
1794, 1141.00
1795, 1140.00
1796, 1140.00
1797, 1139.00
1798, 1138.00
1799, 1138.00
1800, 1138.00
1801, 1138.00
1802, 1137.00
1803, 1139.00
1804, 1138.00
1805, 1138.00
1806, 1138.00
1807, 1140.00
1808, 1136.00
1809, 1137.00
1810, 1136.00
1811, 1137.00
1812, 1138.00
1813, 1137.00
1814, 1136.00
1815, 1136.00
1816, 1135.00
1817, 1137.00
1818, 1135.00
1819, 1137.00
1820, 1135.00
1821, 1135.00
1822, 1136.00
1823, 1135.00
1824, 1133.00
1825, 1135.00
1826, 1135.00
1827, 1133.00
1828, 1134.00
1829, 1132.00
1830, 1132.00
1831, 1131.00
1832, 1129.00
1833, 1133.00
1834, 1131.00
1835, 1131.00
1836, 1128.00
1837, 1129.00
1838, 1127.00
1839, 1127.00
1840, 1126.00
1841, 1125.00
1842, 1123.00
1843, 1123.00
1844, 1122.00
1845, 1121.00
1846, 1121.00
1847, 1121.00
1848, 1119.00
1849, 1119.00
1850, 1116.00
1851, 1116.00
1852, 1115.00
1853, 1115.00
1854, 1112.00
1855, 1111.00
1856, 1111.00
1857, 1109.00
1858, 1108.00
1859, 1107.00
1860, 1105.00
1861, 1104.00
1862, 1105.00
1863, 1101.00
1864, 1103.00
1865, 1099.00
1866, 1100.00
1867, 1099.00
1868, 1098.00
1869, 1097.00
1870, 1098.00
1871, 1097.00
1872, 1094.00
1873, 1094.00
1874, 1095.00
1875, 1094.00
1876, 1092.00
1877, 1092.00
1878, 1091.00
1879, 1093.00
1880, 1094.00
1881, 1090.00
1882, 1089.00
1883, 1088.00
1884, 1089.00
1885, 1090.00
1886, 1090.00
1887, 1089.00
1888, 1090.00
1889, 1088.00
1890, 1087.00
1891, 1088.00
1892, 1087.00
1893, 1087.00
1894, 1087.00
1895, 1085.00
1896, 1087.00
1897, 1085.00
1898, 1086.00
1899, 1085.00
1900, 1085.00
1901, 1087.00
1902, 1085.00
1903, 1084.00
1904, 1085.00
1905, 1086.00
1906, 1084.00
1907, 1085.00
1908, 1084.00
1909, 1084.00
1910, 1085.00
1911, 1088.00
1912, 1084.00
1913, 1086.00
1914, 1083.00
1915, 1083.00
1916, 1085.00
1917, 1084.00
1918, 1085.00
1919, 1083.00
1920, 1084.00
1921, 1084.00
1922, 1083.00
1923, 1083.00
1924, 1085.00
1925, 1085.00
1926, 1083.00
1927, 1085.00
1928, 1085.00
1929, 1083.00
1930, 1084.00
1931, 1084.00
1932, 1085.00
1933, 1082.00
1934, 1083.00
1935, 1086.00
1936, 1085.00
1937, 1085.00
1938, 1085.00
1939, 1085.00
1940, 1085.00
1941, 1086.00
1942, 1084.00
1943, 1086.00
1944, 1085.00
1945, 1087.00
1946, 1085.00
1947, 1085.00
1948, 1088.00
1949, 1087.00
1950, 1086.00
1951, 1088.00
1952, 1088.00
1953, 1087.00
1954, 1089.00
1955, 1089.00
1956, 1088.00
1957, 1090.00
1958, 1089.00
1959, 1088.00
1960, 1089.00
1961, 1088.00
1962, 1091.00
1963, 1090.00
1964, 1090.00
1965, 1092.00
1966, 1091.00
1967, 1091.00
1968, 1091.00
1969, 1094.00
1970, 1091.00
1971, 1091.00
1972, 1093.00
1973, 1093.00
1974, 1094.00
1975, 1094.00
1976, 1095.00
1977, 1095.00
1978, 1094.00
1979, 1095.00
1980, 1094.00
1981, 1096.00
1982, 1097.00
1983, 1098.00
1984, 1096.00
1985, 1098.00
1986, 1099.00
1987, 1098.00
1988, 1098.00
1989, 1098.00
1990, 1099.00
1991, 1099.00
1992, 1099.00
1993, 1100.00
1994, 1099.00
1995, 1100.00
1996, 1100.00
1997, 1101.00
1998, 1102.00
1999, 1102.00
2000, 1101.00
2001, 1102.00
2002, 1101.00
2003, 1103.00
2004, 1102.00
2005, 1104.00
2006, 1103.00
2007, 1105.00
2008, 1104.00
2009, 1104.00
2010, 1105.00
2011, 1105.00
2012, 1105.00
2013, 1107.00
2014, 1104.00
2015, 1106.00
2016, 1107.00
2017, 1107.00
2018, 1106.00
2019, 1107.00
2020, 1108.00
2021, 1108.00
2022, 1109.00
2023, 1110.00
2024, 1108.00
2025, 1111.00
2026, 1109.00
2027, 1109.00
2028, 1109.00
2029, 1110.00
2030, 1111.00
2031, 1112.00
2032, 1111.00
2033, 1112.00
2034, 1112.00
2035, 1113.00
2036, 1113.00
2037, 1113.00
2038, 1114.00
2039, 1113.00
2040, 1114.00
2041, 1115.00
2042, 1115.00
2043, 1117.00
2044, 1117.00
2045, 1116.00
2046, 1117.00
2047, 1118.00
2048, 1118.00
2049, 1119.00
2050, 1120.00
2051, 1118.00
2052, 1119.00
2053, 1121.00
2054, 1120.00
2055, 1121.00
2056, 1122.00
2057, 1121.00
2058, 1125.00
2059, 1122.00
2060, 1124.00
2061, 1124.00
2062, 1124.00
2063, 1125.00
2064, 1125.00
2065, 1126.00
2066, 1126.00
2067, 1127.00
2068, 1127.00
2069, 1128.00
2070, 1127.00
2071, 1127.00
2072, 1127.00
2073, 1129.00
2074, 1129.00
2075, 1131.00
2076, 1130.00
2077, 1130.00
2078, 1133.00
2079, 1133.00
2080, 1131.00
2081, 1131.00
2082, 1134.00
2083, 1133.00
2084, 1132.00
2085, 1133.00
2086, 1134.00
2087, 1135.00
2088, 1133.00
2089, 1135.00
2090, 1135.00
2091, 1135.00
2092, 1137.00
2093, 1137.00
2094, 1136.00
2095, 1137.00
2096, 1138.00
2097, 1137.00
2098, 1138.00
2099, 1139.00
2100, 1137.00
2101, 1139.00
2102, 1138.00
2103, 1136.00
2104, 1139.00
2105, 1139.00
2106, 1140.00
2107, 1140.00
2108, 1141.00
2109, 1141.00
2110, 1140.00
2111, 1139.00
2112, 1141.00
2113, 1142.00
2114, 1141.00
2115, 1142.00
2116, 1143.00
2117, 1142.00
2118, 1142.00
2119, 1142.00
2120, 1142.00
2121, 1145.00
2122, 1143.00
2123, 1142.00
2124, 1143.00
2125, 1143.00
2126, 1142.00
2127, 1144.00
2128, 1141.00
2129, 1143.00
2130, 1142.00
2131, 1145.00
2132, 1144.00
2133, 1144.00
2134, 1145.00
2135, 1146.00
2136, 1145.00
2137, 1146.00
2138, 1146.00
2139, 1144.00
2140, 1145.00
2141, 1146.00
2142, 1145.00
2143, 1146.00
2144, 1147.00
2145, 1146.00
2146, 1146.00
2147, 1147.00
2148, 1144.00
2149, 1146.00
2150, 1146.00
