FW version: 24
Log Version: 3.0.3

General Info:
       Command/Macro Performed,            Timestamp,             Device ID, COM Port, UART/I2C, Test Name, Host Major, Host Minor, Host Revision, Host Git Commit
            Single_measurement,  2023_06_27_11_36_09,       Insight2_F4_xxx,    USB-C,      USB,          ,          0,          1,             1,      4031237645

Show Spectrometer Status:
l0_version, f4_version, battery_perc, battery_mVolt, accelerometer_temp, accelerometer_x, accelerometer_y, accelerometer_z, compass_temp, compass_x, compass_y, compass_z, lamp_0, lamp_1, gain_0, gain_1
        17,         24,           95,          2077,               5312,           65332,              40,           18484,            0,     65463,     65384,     65462,   3276,   3276,    0,    0

Temperature Statistic Info:
NTC AVG [°C], NTC2 AVG [°C]
      36.293,        36.004

Statistic Info:
M1:  num,      min,      max,   median,      AVG,      STD,M2:  num,      min,      max,   median,      AVG,      STD
     301,   543.00,   619.00,   558.00,   567.81,  23.2822,     401,   722.00,   768.00,   741.00,   741.86,  14.9308,

Measurements:
Wavelength, Data Amplitude
1350, 557.00
1351, 557.00
1352, 557.00
1353, 557.00
1354, 557.00
1355, 556.00
1356, 556.00
1357, 556.00
1358, 555.00
1359, 555.00
1360, 555.00
1361, 555.00
1362, 554.00
1363, 554.00
1364, 553.00
1365, 553.00
1366, 553.00
1367, 552.00
1368, 552.00
1369, 552.00
1370, 551.00
1371, 551.00
1372, 550.00
1373, 550.00
1374, 550.00
1375, 549.00
1376, 549.00
1377, 548.00
1378, 548.00
1379, 548.00
1380, 548.00
1381, 547.00
1382, 547.00
1383, 547.00
1384, 546.00
1385, 546.00
1386, 546.00
1387, 546.00
1388, 546.00
1389, 546.00
1390, 545.00
1391, 545.00
1392, 545.00
1393, 545.00
1394, 545.00
1395, 545.00
1396, 545.00
1397, 544.00
1398, 544.00
1399, 544.00
1400, 544.00
1401, 544.00
1402, 545.00
1403, 544.00
1404, 544.00
1405, 544.00
1406, 544.00
1407, 544.00
1408, 544.00
1409, 544.00
1410, 544.00
1411, 544.00
1412, 544.00
1413, 544.00
1414, 544.00
1415, 543.00
1416, 544.00
1417, 544.00
1418, 543.00
1419, 544.00
1420, 544.00
1421, 544.00
1422, 544.00
1423, 544.00
1424, 543.00
1425, 544.00
1426, 544.00
1427, 544.00
1428, 543.00
1429, 544.00
1430, 544.00
1431, 544.00
1432, 544.00
1433, 544.00
1434, 544.00
1435, 544.00
1436, 544.00
1437, 544.00
1438, 545.00
1439, 544.00
1440, 545.00
1441, 544.00
1442, 545.00
1443, 544.00
1444, 545.00
1445, 545.00
1446, 545.00
1447, 545.00
1448, 545.00
1449, 545.00
1450, 546.00
1451, 546.00
1452, 546.00
1453, 546.00
1454, 546.00
1455, 546.00
1456, 546.00
1457, 546.00
1458, 547.00
1459, 547.00
1460, 548.00
1461, 548.00
1462, 548.00
1463, 548.00
1464, 548.00
1465, 549.00
1466, 549.00
1467, 549.00
1468, 549.00
1469, 549.00
1470, 549.00
1471, 550.00
1472, 550.00
1473, 550.00
1474, 551.00
1475, 551.00
1476, 551.00
1477, 551.00
1478, 552.00
1479, 552.00
1480, 552.00
1481, 553.00
1482, 553.00
1483, 553.00
1484, 553.00
1485, 553.00
1486, 554.00
1487, 554.00
1488, 554.00
1489, 555.00
1490, 555.00
1491, 556.00
1492, 556.00
1493, 556.00
1494, 556.00
1495, 557.00
1496, 557.00
1497, 557.00
1498, 558.00
1499, 558.00
1500, 558.00
1501, 559.00
1502, 559.00
1503, 560.00
1504, 560.00
1505, 560.00
1506, 560.00
1507, 560.00
1508, 561.00
1509, 562.00
1510, 562.00
1511, 562.00
1512, 563.00
1513, 563.00
1514, 563.00
1515, 563.00
1516, 564.00
1517, 564.00
1518, 564.00
1519, 565.00
1520, 565.00
1521, 565.00
1522, 566.00
1523, 566.00
1524, 567.00
1525, 566.00
1526, 567.00
1527, 568.00
1528, 568.00
1529, 568.00
1530, 569.00
1531, 569.00
1532, 570.00
1533, 570.00
1534, 571.00
1535, 571.00
1536, 571.00
1537, 571.00
1538, 572.00
1539, 572.00
1540, 573.00
1541, 573.00
1542, 573.00
1543, 574.00
1544, 573.00
1545, 574.00
1546, 575.00
1547, 576.00
1548, 576.00
1549, 576.00
1550, 576.00
1551, 577.00
1552, 577.00
1553, 578.00
1554, 578.00
1555, 578.00
1556, 579.00
1557, 578.00
1558, 580.00
1559, 580.00
1560, 580.00
1561, 581.00
1562, 582.00
1563, 581.00
1564, 582.00
1565, 582.00
1566, 583.00
1567, 583.00
1568, 584.00
1569, 584.00
1570, 585.00
1571, 585.00
1572, 585.00
1573, 586.00
1574, 587.00
1575, 587.00
1576, 587.00
1577, 588.00
1578, 588.00
1579, 588.00
1580, 589.00
1581, 589.00
1582, 589.00
1583, 590.00
1584, 590.00
1585, 591.00
1586, 591.00
1587, 592.00
1588, 592.00
1589, 592.00
1590, 592.00
1591, 593.00
1592, 594.00
1593, 593.00
1594, 594.00
1595, 595.00
1596, 595.00
1597, 595.00
1598, 595.00
1599, 596.00
1600, 596.00
1601, 597.00
1602, 597.00
1603, 597.00
1604, 598.00
1605, 598.00
1606, 599.00
1607, 600.00
1608, 599.00
1609, 601.00
1610, 601.00
1611, 601.00
1612, 602.00
1613, 602.00
1614, 603.00
1615, 603.00
1616, 604.00
1617, 604.00
1618, 604.00
1619, 605.00
1620, 605.00
1621, 605.00
1622, 606.00
1623, 607.00
1624, 608.00
1625, 607.00
1626, 608.00
1627, 609.00
1628, 609.00
1629, 610.00
1630, 610.00
1631, 611.00
1632, 611.00
1633, 611.00
1634, 612.00
1635, 612.00
1636, 613.00
1637, 613.00
1638, 614.00
1639, 614.00
1640, 614.00
1641, 615.00
1642, 615.00
1643, 616.00
1644, 616.00
1645, 616.00
1646, 617.00
1647, 617.00
1648, 617.00
1649, 618.00
1650, 619.00

1750, 767.00
1751, 767.00
1752, 767.00
1753, 767.00
1754, 768.00
1755, 767.00
1756, 767.00
1757, 767.00
1758, 767.00
1759, 767.00
1760, 767.00
1761, 768.00
1762, 767.00
1763, 767.00
1764, 766.00
1765, 767.00
1766, 767.00
1767, 767.00
1768, 767.00
1769, 766.00
1770, 766.00
1771, 766.00
1772, 766.00
1773, 766.00
1774, 766.00
1775, 766.00
1776, 766.00
1777, 766.00
1778, 765.00
1779, 766.00
1780, 765.00
1781, 765.00
1782, 765.00
1783, 765.00
1784, 765.00
1785, 765.00
1786, 764.00
1787, 764.00
1788, 764.00
1789, 764.00
1790, 764.00
1791, 763.00
1792, 763.00
1793, 764.00
1794, 763.00
1795, 762.00
1796, 763.00
1797, 763.00
1798, 762.00
1799, 762.00
1800, 763.00
1801, 762.00
1802, 762.00
1803, 762.00
1804, 761.00
1805, 762.00
1806, 762.00
1807, 761.00
1808, 761.00
1809, 761.00
1810, 761.00
1811, 761.00
1812, 760.00
1813, 760.00
1814, 760.00
1815, 760.00
1816, 759.00
1817, 759.00
1818, 759.00
1819, 759.00
1820, 759.00
1821, 759.00
1822, 758.00
1823, 758.00
1824, 758.00
1825, 757.00
1826, 757.00
1827, 757.00
1828, 756.00
1829, 756.00
1830, 755.00
1831, 755.00
1832, 755.00
1833, 754.00
1834, 754.00
1835, 753.00
1836, 753.00
1837, 752.00
1838, 751.00
1839, 751.00
1840, 750.00
1841, 750.00
1842, 749.00
1843, 748.00
1844, 747.00
1845, 747.00
1846, 746.00
1847, 746.00
1848, 745.00
1849, 745.00
1850, 743.00
1851, 743.00
1852, 742.00
1853, 741.00
1854, 741.00
1855, 740.00
1856, 739.00
1857, 739.00
1858, 738.00
1859, 737.00
1860, 737.00
1861, 736.00
1862, 736.00
1863, 735.00
1864, 734.00
1865, 733.00
1866, 733.00
1867, 732.00
1868, 732.00
1869, 731.00
1870, 731.00
1871, 730.00
1872, 730.00
1873, 730.00
1874, 729.00
1875, 729.00
1876, 729.00
1877, 728.00
1878, 728.00
1879, 727.00
1880, 727.00
1881, 728.00
1882, 727.00
1883, 727.00
1884, 726.00
1885, 726.00
1886, 726.00
1887, 726.00
1888, 726.00
1889, 725.00
1890, 724.00
1891, 725.00
1892, 725.00
1893, 724.00
1894, 724.00
1895, 724.00
1896, 724.00
1897, 724.00
1898, 725.00
1899, 724.00
1900, 724.00
1901, 724.00
1902, 723.00
1903, 723.00
1904, 724.00
1905, 723.00
1906, 723.00
1907, 723.00
1908, 723.00
1909, 723.00
1910, 722.00
1911, 723.00
1912, 723.00
1913, 723.00
1914, 723.00
1915, 723.00
1916, 722.00
1917, 722.00
1918, 723.00
1919, 722.00
1920, 722.00
1921, 723.00
1922, 722.00
1923, 722.00
1924, 722.00
1925, 722.00
1926, 723.00
1927, 723.00
1928, 722.00
1929, 722.00
1930, 722.00
1931, 722.00
1932, 722.00
1933, 722.00
1934, 722.00
1935, 723.00
1936, 723.00
1937, 722.00
1938, 723.00
1939, 722.00
1940, 722.00
1941, 723.00
1942, 723.00
1943, 722.00
1944, 723.00
1945, 723.00
1946, 723.00
1947, 723.00
1948, 723.00
1949, 724.00
1950, 723.00
1951, 723.00
1952, 724.00
1953, 724.00
1954, 724.00
1955, 723.00
1956, 724.00
1957, 724.00
1958, 724.00
1959, 724.00
1960, 725.00
1961, 725.00
1962, 725.00
1963, 725.00
1964, 725.00
1965, 724.00
1966, 725.00
1967, 725.00
1968, 725.00
1969, 725.00
1970, 725.00
1971, 726.00
1972, 726.00
1973, 726.00
1974, 726.00
1975, 726.00
1976, 727.00
1977, 727.00
1978, 727.00
1979, 727.00
1980, 727.00
1981, 727.00
1982, 727.00
1983, 727.00
1984, 728.00
1985, 728.00
1986, 728.00
1987, 728.00
1988, 728.00
1989, 729.00
1990, 728.00
1991, 729.00
1992, 728.00
1993, 729.00
1994, 730.00
1995, 729.00
1996, 730.00
1997, 730.00
1998, 730.00
1999, 730.00
2000, 730.00
2001, 731.00
2002, 731.00
2003, 731.00
2004, 731.00
2005, 731.00
2006, 731.00
2007, 731.00
2008, 731.00
2009, 732.00
2010, 732.00
2011, 732.00
2012, 732.00
2013, 733.00
2014, 733.00
2015, 732.00
2016, 733.00
2017, 733.00
2018, 733.00
2019, 734.00
2020, 733.00
2021, 734.00
2022, 733.00
2023, 734.00
2024, 734.00
2025, 734.00
2026, 734.00
2027, 734.00
2028, 735.00
2029, 735.00
2030, 735.00
2031, 735.00
2032, 735.00
2033, 736.00
2034, 736.00
2035, 736.00
2036, 737.00
2037, 737.00
2038, 737.00
2039, 737.00
2040, 737.00
2041, 737.00
2042, 738.00
2043, 738.00
2044, 738.00
2045, 738.00
2046, 739.00
2047, 739.00
2048, 739.00
2049, 739.00
2050, 740.00
2051, 740.00
2052, 740.00
2053, 740.00
2054, 741.00
2055, 741.00
2056, 740.00
2057, 741.00
2058, 742.00
2059, 742.00
2060, 742.00
2061, 743.00
2062, 742.00
2063, 742.00
2064, 743.00
2065, 743.00
2066, 743.00
2067, 745.00
2068, 744.00
2069, 745.00
2070, 744.00
2071, 745.00
2072, 745.00
2073, 746.00
2074, 746.00
2075, 745.00
2076, 746.00
2077, 746.00
2078, 746.00
2079, 747.00
2080, 747.00
2081, 747.00
2082, 747.00
2083, 747.00
2084, 747.00
2085, 748.00
2086, 749.00
2087, 748.00
2088, 748.00
2089, 749.00
2090, 748.00
2091, 749.00
2092, 750.00
2093, 750.00
2094, 750.00
2095, 750.00
2096, 750.00
2097, 750.00
2098, 750.00
2099, 750.00
2100, 751.00
2101, 751.00
2102, 751.00
2103, 751.00
2104, 751.00
2105, 751.00
2106, 752.00
2107, 752.00
2108, 752.00
2109, 752.00
2110, 751.00
2111, 753.00
2112, 752.00
2113, 752.00
2114, 753.00
2115, 753.00
2116, 753.00
2117, 753.00
2118, 753.00
2119, 753.00
2120, 754.00
2121, 753.00
2122, 753.00
2123, 754.00
2124, 754.00
2125, 754.00
2126, 754.00
2127, 754.00
2128, 754.00
2129, 753.00
2130, 754.00
2131, 754.00
2132, 754.00
2133, 754.00
2134, 754.00
2135, 755.00
2136, 755.00
2137, 755.00
2138, 754.00
2139, 755.00
2140, 755.00
2141, 755.00
2142, 755.00
2143, 755.00
2144, 756.00
2145, 756.00
2146, 756.00
2147, 756.00
2148, 756.00
2149, 755.00
2150, 756.00
