FW version: 24
Log Version: 3.0.3

General Info:
       Command/Macro Performed,            Timestamp,             Device ID, COM Port, UART/I2C, Test Name, Host Major, Host Minor, Host Revision, Host Git Commit
            Single_measurement,  2023_06_27_11_36_58,       Insight2_F4_xxx,    USB-C,      USB,          ,          0,          1,             1,      4031237645

Show Spectrometer Status:
l0_version, f4_version, battery_perc, battery_mVolt, accelerometer_temp, accelerometer_x, accelerometer_y, accelerometer_z, compass_temp, compass_x, compass_y, compass_z, lamp_0, lamp_1, gain_0, gain_1
        17,         24,           95,          2077,               5360,           65316,           65484,           18412,            0,     65468,     65517,     65533,   3276,   3276,    1,    1

Temperature Statistic Info:
NTC AVG [°C], NTC2 AVG [°C]
      36.750,        36.437

Statistic Info:
M1:  num,      min,      max,   median,      AVG,      STD,M2:  num,      min,      max,   median,      AVG,      STD
     301,  1566.00,  1784.00,  1611.00,  1637.76,  67.2388,     401,  2081.00,  2213.00,  2136.00,  2139.00,  42.8335,

Measurements:
Wavelength, Data Amplitude
1350, 1608.00
1351, 1608.00
1352, 1607.00
1353, 1606.00
1354, 1604.00
1355, 1604.00
1356, 1603.00
1357, 1604.00
1358, 1602.00
1359, 1600.00
1360, 1601.00
1361, 1599.00
1362, 1598.00
1363, 1597.00
1364, 1596.00
1365, 1595.00
1366, 1593.00
1367, 1593.00
1368, 1591.00
1369, 1589.00
1370, 1589.00
1371, 1588.00
1372, 1586.00
1373, 1586.00
1374, 1584.00
1375, 1584.00
1376, 1583.00
1377, 1583.00
1378, 1581.00
1379, 1581.00
1380, 1580.00
1381, 1579.00
1382, 1577.00
1383, 1577.00
1384, 1576.00
1385, 1576.00
1386, 1575.00
1387, 1575.00
1388, 1573.00
1389, 1573.00
1390, 1572.00
1391, 1572.00
1392, 1572.00
1393, 1572.00
1394, 1572.00
1395, 1571.00
1396, 1571.00
1397, 1570.00
1398, 1571.00
1399, 1570.00
1400, 1569.00
1401, 1570.00
1402, 1568.00
1403, 1569.00
1404, 1568.00
1405, 1568.00
1406, 1568.00
1407, 1568.00
1408, 1568.00
1409, 1570.00
1410, 1567.00
1411, 1567.00
1412, 1567.00
1413, 1567.00
1414, 1567.00
1415, 1568.00
1416, 1567.00
1417, 1567.00
1418, 1567.00
1419, 1567.00
1420, 1568.00
1421, 1568.00
1422, 1567.00
1423, 1566.00
1424, 1567.00
1425, 1567.00
1426, 1567.00
1427, 1567.00
1428, 1568.00
1429, 1568.00
1430, 1568.00
1431, 1568.00
1432, 1569.00
1433, 1569.00
1434, 1568.00
1435, 1570.00
1436, 1569.00
1437, 1570.00
1438, 1569.00
1439, 1570.00
1440, 1570.00
1441, 1571.00
1442, 1571.00
1443, 1572.00
1444, 1572.00
1445, 1573.00
1446, 1572.00
1447, 1573.00
1448, 1573.00
1449, 1573.00
1450, 1574.00
1451, 1574.00
1452, 1575.00
1453, 1576.00
1454, 1577.00
1455, 1576.00
1456, 1577.00
1457, 1577.00
1458, 1578.00
1459, 1579.00
1460, 1579.00
1461, 1579.00
1462, 1580.00
1463, 1581.00
1464, 1581.00
1465, 1581.00
1466, 1582.00
1467, 1584.00
1468, 1585.00
1469, 1586.00
1470, 1586.00
1471, 1586.00
1472, 1586.00
1473, 1588.00
1474, 1588.00
1475, 1589.00
1476, 1589.00
1477, 1591.00
1478, 1591.00
1479, 1592.00
1480, 1594.00
1481, 1593.00
1482, 1595.00
1483, 1597.00
1484, 1597.00
1485, 1597.00
1486, 1598.00
1487, 1600.00
1488, 1600.00
1489, 1601.00
1490, 1603.00
1491, 1603.00
1492, 1604.00
1493, 1605.00
1494, 1605.00
1495, 1606.00
1496, 1607.00
1497, 1608.00
1498, 1609.00
1499, 1610.00
1500, 1611.00
1501, 1611.00
1502, 1612.00
1503, 1614.00
1504, 1615.00
1505, 1616.00
1506, 1616.00
1507, 1617.00
1508, 1618.00
1509, 1620.00
1510, 1620.00
1511, 1622.00
1512, 1621.00
1513, 1624.00
1514, 1624.00
1515, 1625.00
1516, 1627.00
1517, 1629.00
1518, 1628.00
1519, 1629.00
1520, 1631.00
1521, 1632.00
1522, 1633.00
1523, 1634.00
1524, 1635.00
1525, 1636.00
1526, 1637.00
1527, 1638.00
1528, 1640.00
1529, 1641.00
1530, 1640.00
1531, 1642.00
1532, 1643.00
1533, 1644.00
1534, 1645.00
1535, 1646.00
1536, 1647.00
1537, 1648.00
1538, 1651.00
1539, 1650.00
1540, 1651.00
1541, 1654.00
1542, 1653.00
1543, 1655.00
1544, 1656.00
1545, 1656.00
1546, 1658.00
1547, 1659.00
1548, 1659.00
1549, 1661.00
1550, 1663.00
1551, 1664.00
1552, 1665.00
1553, 1666.00
1554, 1667.00
1555, 1668.00
1556, 1669.00
1557, 1670.00
1558, 1671.00
1559, 1672.00
1560, 1674.00
1561, 1675.00
1562, 1676.00
1563, 1678.00
1564, 1679.00
1565, 1680.00
1566, 1681.00
1567, 1682.00
1568, 1684.00
1569, 1685.00
1570, 1687.00
1571, 1688.00
1572, 1689.00
1573, 1690.00
1574, 1691.00
1575, 1693.00
1576, 1693.00
1577, 1694.00
1578, 1696.00
1579, 1697.00
1580, 1698.00
1581, 1699.00
1582, 1700.00
1583, 1702.00
1584, 1703.00
1585, 1704.00
1586, 1705.00
1587, 1706.00
1588, 1706.00
1589, 1708.00
1590, 1709.00
1591, 1710.00
1592, 1710.00
1593, 1712.00
1594, 1714.00
1595, 1714.00
1596, 1716.00
1597, 1717.00
1598, 1719.00
1599, 1719.00
1600, 1719.00
1601, 1722.00
1602, 1723.00
1603, 1724.00
1604, 1725.00
1605, 1727.00
1606, 1728.00
1607, 1729.00
1608, 1729.00
1609, 1731.00
1610, 1733.00
1611, 1734.00
1612, 1735.00
1613, 1737.00
1614, 1737.00
1615, 1740.00
1616, 1740.00
1617, 1742.00
1618, 1744.00
1619, 1745.00
1620, 1747.00
1621, 1747.00
1622, 1750.00
1623, 1751.00
1624, 1752.00
1625, 1754.00
1626, 1754.00
1627, 1756.00
1628, 1756.00
1629, 1759.00
1630, 1760.00
1631, 1761.00
1632, 1762.00
1633, 1763.00
1634, 1765.00
1635, 1766.00
1636, 1767.00
1637, 1769.00
1638, 1770.00
1639, 1770.00
1640, 1772.00
1641, 1773.00
1642, 1774.00
1643, 1776.00
1644, 1777.00
1645, 1777.00
1646, 1779.00
1647, 1780.00
1648, 1781.00
1649, 1783.00
1650, 1784.00

1750, 2211.00
1751, 2212.00
1752, 2211.00
1753, 2212.00
1754, 2212.00
1755, 2211.00
1756, 2211.00
1757, 2209.00
1758, 2213.00
1759, 2211.00
1760, 2211.00
1761, 2213.00
1762, 2211.00
1763, 2210.00
1764, 2212.00
1765, 2210.00
1766, 2212.00
1767, 2212.00
1768, 2211.00
1769, 2208.00
1770, 2210.00
1771, 2209.00
1772, 2207.00
1773, 2208.00
1774, 2209.00
1775, 2205.00
1776, 2210.00
1777, 2207.00
1778, 2208.00
1779, 2207.00
1780, 2206.00
1781, 2206.00
1782, 2203.00
1783, 2204.00
1784, 2205.00
1785, 2204.00
1786, 2202.00
1787, 2203.00
1788, 2201.00
1789, 2202.00
1790, 2202.00
1791, 2200.00
1792, 2201.00
1793, 2198.00
1794, 2200.00
1795, 2198.00
1796, 2199.00
1797, 2198.00
1798, 2196.00
1799, 2198.00
1800, 2197.00
1801, 2196.00
1802, 2197.00
1803, 2195.00
1804, 2195.00
1805, 2196.00
1806, 2195.00
1807, 2193.00
1808, 2193.00
1809, 2192.00
1810, 2193.00
1811, 2190.00
1812, 2189.00
1813, 2191.00
1814, 2191.00
1815, 2188.00
1816, 2190.00
1817, 2188.00
1818, 2189.00
1819, 2185.00
1820, 2186.00
1821, 2187.00
1822, 2185.00
1823, 2186.00
1824, 2184.00
1825, 2184.00
1826, 2182.00
1827, 2181.00
1828, 2179.00
1829, 2179.00
1830, 2176.00
1831, 2176.00
1832, 2176.00
1833, 2173.00
1834, 2172.00
1835, 2170.00
1836, 2168.00
1837, 2168.00
1838, 2167.00
1839, 2165.00
1840, 2163.00
1841, 2160.00
1842, 2160.00
1843, 2155.00
1844, 2154.00
1845, 2152.00
1846, 2150.00
1847, 2149.00
1848, 2145.00
1849, 2143.00
1850, 2142.00
1851, 2139.00
1852, 2139.00
1853, 2138.00
1854, 2134.00
1855, 2132.00
1856, 2131.00
1857, 2127.00
1858, 2127.00
1859, 2124.00
1860, 2123.00
1861, 2120.00
1862, 2119.00
1863, 2116.00
1864, 2114.00
1865, 2114.00
1866, 2112.00
1867, 2110.00
1868, 2111.00
1869, 2108.00
1870, 2107.00
1871, 2105.00
1872, 2104.00
1873, 2103.00
1874, 2103.00
1875, 2101.00
1876, 2098.00
1877, 2099.00
1878, 2098.00
1879, 2098.00
1880, 2096.00
1881, 2095.00
1882, 2093.00
1883, 2094.00
1884, 2094.00
1885, 2091.00
1886, 2093.00
1887, 2093.00
1888, 2090.00
1889, 2091.00
1890, 2089.00
1891, 2090.00
1892, 2091.00
1893, 2088.00
1894, 2090.00
1895, 2089.00
1896, 2088.00
1897, 2088.00
1898, 2086.00
1899, 2087.00
1900, 2087.00
1901, 2086.00
1902, 2086.00
1903, 2086.00
1904, 2085.00
1905, 2086.00
1906, 2085.00
1907, 2084.00
1908, 2084.00
1909, 2084.00
1910, 2084.00
1911, 2085.00
1912, 2085.00
1913, 2083.00
1914, 2083.00
1915, 2082.00
1916, 2083.00
1917, 2084.00
1918, 2084.00
1919, 2081.00
1920, 2084.00
1921, 2082.00
1922, 2083.00
1923, 2084.00
1924, 2082.00
1925, 2084.00
1926, 2082.00
1927, 2084.00
1928, 2082.00
1929, 2082.00
1930, 2082.00
1931, 2084.00
1932, 2082.00
1933, 2084.00
1934, 2083.00
1935, 2084.00
1936, 2084.00
1937, 2083.00
1938, 2083.00
1939, 2084.00
1940, 2083.00
1941, 2082.00
1942, 2084.00
1943, 2083.00
1944, 2083.00
1945, 2084.00
1946, 2085.00
1947, 2084.00
1948, 2085.00
1949, 2084.00
1950, 2087.00
1951, 2087.00
1952, 2087.00
1953, 2085.00
1954, 2087.00
1955, 2087.00
1956, 2087.00
1957, 2087.00
1958, 2088.00
1959, 2088.00
1960, 2088.00
1961, 2089.00
1962, 2090.00
1963, 2089.00
1964, 2089.00
1965, 2091.00
1966, 2089.00
1967, 2091.00
1968, 2092.00
1969, 2092.00
1970, 2091.00
1971, 2096.00
1972, 2092.00
1973, 2094.00
1974, 2094.00
1975, 2096.00
1976, 2094.00
1977, 2095.00
1978, 2098.00
1979, 2096.00
1980, 2097.00
1981, 2096.00
1982, 2098.00
1983, 2097.00
1984, 2099.00
1985, 2100.00
1986, 2100.00
1987, 2099.00
1988, 2101.00
1989, 2102.00
1990, 2103.00
1991, 2103.00
1992, 2102.00
1993, 2103.00
1994, 2104.00
1995, 2104.00
1996, 2104.00
1997, 2105.00
1998, 2106.00
1999, 2104.00
2000, 2105.00
2001, 2106.00
2002, 2108.00
2003, 2109.00
2004, 2109.00
2005, 2109.00
2006, 2110.00
2007, 2109.00
2008, 2110.00
2009, 2110.00
2010, 2111.00
2011, 2112.00
2012, 2113.00
2013, 2113.00
2014, 2112.00
2015, 2115.00
2016, 2115.00
2017, 2114.00
2018, 2115.00
2019, 2115.00
2020, 2117.00
2021, 2114.00
2022, 2117.00
2023, 2117.00
2024, 2119.00
2025, 2118.00
2026, 2118.00
2027, 2119.00
2028, 2121.00
2029, 2119.00
2030, 2120.00
2031, 2120.00
2032, 2120.00
2033, 2121.00
2034, 2122.00
2035, 2124.00
2036, 2125.00
2037, 2125.00
2038, 2126.00
2039, 2127.00
2040, 2128.00
2041, 2126.00
2042, 2128.00
2043, 2128.00
2044, 2128.00
2045, 2130.00
2046, 2130.00
2047, 2129.00
2048, 2130.00
2049, 2132.00
2050, 2134.00
2051, 2132.00
2052, 2135.00
2053, 2135.00
2054, 2137.00
2055, 2136.00
2056, 2138.00
2057, 2137.00
2058, 2138.00
2059, 2139.00
2060, 2139.00
2061, 2140.00
2062, 2141.00
2063, 2145.00
2064, 2143.00
2065, 2145.00
2066, 2145.00
2067, 2145.00
2068, 2146.00
2069, 2146.00
2070, 2147.00
2071, 2147.00
2072, 2150.00
2073, 2149.00
2074, 2149.00
2075, 2152.00
2076, 2151.00
2077, 2153.00
2078, 2151.00
2079, 2153.00
2080, 2155.00
2081, 2155.00
2082, 2156.00
2083, 2156.00
2084, 2157.00
2085, 2158.00
2086, 2159.00
2087, 2160.00
2088, 2159.00
2089, 2159.00
2090, 2159.00
2091, 2161.00
2092, 2163.00
2093, 2161.00
2094, 2163.00
2095, 2163.00
2096, 2163.00
2097, 2164.00
2098, 2164.00
2099, 2165.00
2100, 2165.00
2101, 2167.00
2102, 2164.00
2103, 2167.00
2104, 2166.00
2105, 2167.00
2106, 2168.00
2107, 2169.00
2108, 2168.00
2109, 2169.00
2110, 2170.00
2111, 2170.00
2112, 2172.00
2113, 2169.00
2114, 2169.00
2115, 2171.00
2116, 2169.00
2117, 2170.00
2118, 2170.00
2119, 2171.00
2120, 2171.00
2121, 2173.00
2122, 2173.00
2123, 2175.00
2124, 2175.00
2125, 2175.00
2126, 2173.00
2127, 2172.00
2128, 2175.00
2129, 2174.00
2130, 2176.00
2131, 2176.00
2132, 2176.00
2133, 2176.00
2134, 2174.00
2135, 2177.00
2136, 2178.00
2137, 2176.00
2138, 2177.00
2139, 2177.00
2140, 2176.00
2141, 2179.00
2142, 2180.00
2143, 2178.00
2144, 2179.00
2145, 2179.00
2146, 2177.00
2147, 2179.00
2148, 2180.00
2149, 2179.00
2150, 2178.00
