FW version: 24
Log Version: 3.0.3

General Info:
       Command/Macro Performed,            Timestamp,             Device ID, COM Port, UART/I2C, Test Name, Host Major, Host Minor, Host Revision, Host Git Commit
            Single_measurement,  2023_06_27_11_36_21,       Insight2_F4_xxx,    USB-C,      USB,          ,          0,          1,             1,      4031237645

Show Spectrometer Status:
l0_version, f4_version, battery_perc, battery_mVolt, accelerometer_temp, accelerometer_x, accelerometer_y, accelerometer_z, compass_temp, compass_x, compass_y, compass_z, lamp_0, lamp_1, gain_0, gain_1
        17,         24,           95,          2078,               5328,           65376,              76,           18460,            0,     65523,     65390,     65468,   2047,   2047,    1,    1

Temperature Statistic Info:
NTC AVG [°C], NTC2 AVG [°C]
      36.351,        36.033

Statistic Info:
M1:  num,      min,      max,   median,      AVG,      STD,M2:  num,      min,      max,   median,      AVG,      STD
     301,   626.00,   726.00,   649.00,   659.47,  30.4414,     401,   945.00,  1006.00,   972.00,   972.90,  20.0463,

Measurements:
Wavelength, Data Amplitude
1350, 642.00
1351, 640.00
1352, 640.00
1353, 641.00
1354, 640.00
1355, 640.00
1356, 640.00
1357, 640.00
1358, 639.00
1359, 639.00
1360, 638.00
1361, 639.00
1362, 638.00
1363, 637.00
1364, 636.00
1365, 637.00
1366, 636.00
1367, 637.00
1368, 636.00
1369, 635.00
1370, 635.00
1371, 634.00
1372, 634.00
1373, 632.00
1374, 634.00
1375, 632.00
1376, 633.00
1377, 633.00
1378, 632.00
1379, 631.00
1380, 631.00
1381, 631.00
1382, 630.00
1383, 630.00
1384, 630.00
1385, 631.00
1386, 629.00
1387, 629.00
1388, 628.00
1389, 629.00
1390, 629.00
1391, 630.00
1392, 629.00
1393, 629.00
1394, 629.00
1395, 627.00
1396, 628.00
1397, 628.00
1398, 628.00
1399, 628.00
1400, 629.00
1401, 628.00
1402, 628.00
1403, 628.00
1404, 627.00
1405, 628.00
1406, 628.00
1407, 629.00
1408, 626.00
1409, 627.00
1410, 628.00
1411, 627.00
1412, 627.00
1413, 627.00
1414, 627.00
1415, 628.00
1416, 628.00
1417, 628.00
1418, 627.00
1419, 627.00
1420, 628.00
1421, 628.00
1422, 627.00
1423, 627.00
1424, 627.00
1425, 628.00
1426, 629.00
1427, 628.00
1428, 627.00
1429, 628.00
1430, 629.00
1431, 628.00
1432, 629.00
1433, 629.00
1434, 629.00
1435, 629.00
1436, 630.00
1437, 630.00
1438, 630.00
1439, 630.00
1440, 629.00
1441, 630.00
1442, 629.00
1443, 630.00
1444, 630.00
1445, 630.00
1446, 630.00
1447, 631.00
1448, 632.00
1449, 631.00
1450, 631.00
1451, 632.00
1452, 632.00
1453, 632.00
1454, 633.00
1455, 632.00
1456, 633.00
1457, 633.00
1458, 633.00
1459, 634.00
1460, 633.00
1461, 635.00
1462, 634.00
1463, 635.00
1464, 635.00
1465, 635.00
1466, 635.00
1467, 636.00
1468, 637.00
1469, 636.00
1470, 637.00
1471, 637.00
1472, 638.00
1473, 638.00
1474, 638.00
1475, 638.00
1476, 639.00
1477, 639.00
1478, 640.00
1479, 640.00
1480, 640.00
1481, 640.00
1482, 641.00
1483, 641.00
1484, 642.00
1485, 643.00
1486, 644.00
1487, 644.00
1488, 644.00
1489, 644.00
1490, 644.00
1491, 645.00
1492, 644.00
1493, 646.00
1494, 647.00
1495, 647.00
1496, 647.00
1497, 647.00
1498, 648.00
1499, 648.00
1500, 649.00
1501, 649.00
1502, 650.00
1503, 650.00
1504, 650.00
1505, 650.00
1506, 651.00
1507, 652.00
1508, 652.00
1509, 653.00
1510, 652.00
1511, 653.00
1512, 654.00
1513, 655.00
1514, 655.00
1515, 656.00
1516, 655.00
1517, 657.00
1518, 657.00
1519, 658.00
1520, 658.00
1521, 659.00
1522, 659.00
1523, 660.00
1524, 660.00
1525, 660.00
1526, 661.00
1527, 662.00
1528, 662.00
1529, 663.00
1530, 663.00
1531, 664.00
1532, 664.00
1533, 664.00
1534, 665.00
1535, 665.00
1536, 666.00
1537, 666.00
1538, 667.00
1539, 667.00
1540, 667.00
1541, 668.00
1542, 668.00
1543, 669.00
1544, 669.00
1545, 669.00
1546, 670.00
1547, 670.00
1548, 670.00
1549, 672.00
1550, 672.00
1551, 672.00
1552, 673.00
1553, 673.00
1554, 674.00
1555, 674.00
1556, 674.00
1557, 675.00
1558, 675.00
1559, 676.00
1560, 677.00
1561, 677.00
1562, 677.00
1563, 678.00
1564, 678.00
1565, 678.00
1566, 680.00
1567, 679.00
1568, 681.00
1569, 681.00
1570, 682.00
1571, 682.00
1572, 682.00
1573, 682.00
1574, 683.00
1575, 684.00
1576, 684.00
1577, 685.00
1578, 685.00
1579, 687.00
1580, 687.00
1581, 687.00
1582, 687.00
1583, 688.00
1584, 689.00
1585, 689.00
1586, 689.00
1587, 690.00
1588, 690.00
1589, 691.00
1590, 691.00
1591, 692.00
1592, 692.00
1593, 692.00
1594, 693.00
1595, 694.00
1596, 695.00
1597, 694.00
1598, 695.00
1599, 696.00
1600, 697.00
1601, 696.00
1602, 697.00
1603, 698.00
1604, 699.00
1605, 699.00
1606, 699.00
1607, 700.00
1608, 701.00
1609, 701.00
1610, 702.00
1611, 703.00
1612, 703.00
1613, 704.00
1614, 705.00
1615, 705.00
1616, 706.00
1617, 706.00
1618, 707.00
1619, 708.00
1620, 708.00
1621, 709.00
1622, 709.00
1623, 710.00
1624, 711.00
1625, 711.00
1626, 712.00
1627, 712.00
1628, 714.00
1629, 713.00
1630, 714.00
1631, 714.00
1632, 715.00
1633, 716.00
1634, 717.00
1635, 718.00
1636, 718.00
1637, 719.00
1638, 718.00
1639, 719.00
1640, 721.00
1641, 720.00
1642, 721.00
1643, 720.00
1644, 722.00
1645, 722.00
1646, 723.00
1647, 723.00
1648, 724.00
1649, 725.00
1650, 726.00

1750, 1004.00
1751, 1004.00
1752, 1005.00
1753, 1002.00
1754, 1004.00
1755, 1004.00
1756, 1004.00
1757, 1005.00
1758, 1004.00
1759, 1005.00
1760, 1006.00
1761, 1003.00
1762, 1004.00
1763, 1002.00
1764, 1003.00
1765, 1005.00
1766, 1004.00
1767, 1003.00
1768, 1005.00
1769, 1005.00
1770, 1004.00
1771, 1002.00
1772, 1005.00
1773, 1002.00
1774, 1003.00
1775, 1002.00
1776, 1003.00
1777, 1002.00
1778, 1003.00
1779, 1002.00
1780, 1001.00
1781, 1002.00
1782, 1000.00
1783, 1001.00
1784, 1001.00
1785, 1001.00
1786, 1002.00
1787, 1000.00
1788, 1003.00
1789, 1001.00
1790, 1000.00
1791, 999.00
1792, 1000.00
1793, 1000.00
1794, 1000.00
1795, 998.00
1796, 1000.00
1797, 999.00
1798, 999.00
1799, 998.00
1800, 999.00
1801, 999.00
1802, 999.00
1803, 998.00
1804, 996.00
1805, 998.00
1806, 998.00
1807, 997.00
1808, 998.00
1809, 996.00
1810, 998.00
1811, 999.00
1812, 996.00
1813, 996.00
1814, 995.00
1815, 995.00
1816, 996.00
1817, 995.00
1818, 996.00
1819, 995.00
1820, 996.00
1821, 995.00
1822, 993.00
1823, 992.00
1824, 991.00
1825, 991.00
1826, 992.00
1827, 991.00
1828, 990.00
1829, 990.00
1830, 990.00
1831, 990.00
1832, 988.00
1833, 987.00
1834, 988.00
1835, 987.00
1836, 986.00
1837, 984.00
1838, 986.00
1839, 983.00
1840, 982.00
1841, 982.00
1842, 981.00
1843, 980.00
1844, 980.00
1845, 979.00
1846, 979.00
1847, 975.00
1848, 977.00
1849, 973.00
1850, 973.00
1851, 972.00
1852, 973.00
1853, 971.00
1854, 971.00
1855, 971.00
1856, 968.00
1857, 969.00
1858, 968.00
1859, 965.00
1860, 965.00
1861, 964.00
1862, 963.00
1863, 963.00
1864, 961.00
1865, 961.00
1866, 961.00
1867, 958.00
1868, 957.00
1869, 957.00
1870, 956.00
1871, 956.00
1872, 956.00
1873, 953.00
1874, 957.00
1875, 953.00
1876, 955.00
1877, 955.00
1878, 954.00
1879, 954.00
1880, 952.00
1881, 952.00
1882, 951.00
1883, 952.00
1884, 950.00
1885, 951.00
1886, 950.00
1887, 950.00
1888, 951.00
1889, 950.00
1890, 950.00
1891, 949.00
1892, 948.00
1893, 949.00
1894, 950.00
1895, 947.00
1896, 949.00
1897, 949.00
1898, 947.00
1899, 948.00
1900, 948.00
1901, 947.00
1902, 946.00
1903, 947.00
1904, 947.00
1905, 948.00
1906, 946.00
1907, 947.00
1908, 945.00
1909, 947.00
1910, 947.00
1911, 947.00
1912, 946.00
1913, 945.00
1914, 947.00
1915, 945.00
1916, 946.00
1917, 947.00
1918, 946.00
1919, 945.00
1920, 946.00
1921, 947.00
1922, 945.00
1923, 946.00
1924, 946.00
1925, 946.00
1926, 946.00
1927, 946.00
1928, 946.00
1929, 947.00
1930, 946.00
1931, 947.00
1932, 947.00
1933, 946.00
1934, 946.00
1935, 946.00
1936, 947.00
1937, 946.00
1938, 945.00
1939, 946.00
1940, 947.00
1941, 947.00
1942, 947.00
1943, 946.00
1944, 946.00
1945, 949.00
1946, 949.00
1947, 947.00
1948, 946.00
1949, 946.00
1950, 949.00
1951, 948.00
1952, 949.00
1953, 947.00
1954, 947.00
1955, 948.00
1956, 949.00
1957, 948.00
1958, 949.00
1959, 948.00
1960, 949.00
1961, 950.00
1962, 949.00
1963, 952.00
1964, 949.00
1965, 949.00
1966, 951.00
1967, 951.00
1968, 951.00
1969, 951.00
1970, 951.00
1971, 952.00
1972, 950.00
1973, 952.00
1974, 951.00
1975, 952.00
1976, 951.00
1977, 952.00
1978, 951.00
1979, 953.00
1980, 954.00
1981, 955.00
1982, 952.00
1983, 955.00
1984, 955.00
1985, 954.00
1986, 954.00
1987, 954.00
1988, 953.00
1989, 955.00
1990, 955.00
1991, 956.00
1992, 956.00
1993, 954.00
1994, 957.00
1995, 957.00
1996, 956.00
1997, 957.00
1998, 958.00
1999, 958.00
2000, 957.00
2001, 957.00
2002, 957.00
2003, 959.00
2004, 959.00
2005, 956.00
2006, 959.00
2007, 958.00
2008, 959.00
2009, 959.00
2010, 959.00
2011, 960.00
2012, 959.00
2013, 963.00
2014, 962.00
2015, 962.00
2016, 963.00
2017, 962.00
2018, 960.00
2019, 960.00
2020, 962.00
2021, 962.00
2022, 962.00
2023, 962.00
2024, 964.00
2025, 965.00
2026, 964.00
2027, 964.00
2028, 963.00
2029, 964.00
2030, 966.00
2031, 965.00
2032, 967.00
2033, 964.00
2034, 965.00
2035, 967.00
2036, 965.00
2037, 966.00
2038, 968.00
2039, 967.00
2040, 969.00
2041, 967.00
2042, 968.00
2043, 969.00
2044, 970.00
2045, 968.00
2046, 970.00
2047, 970.00
2048, 970.00
2049, 970.00
2050, 971.00
2051, 972.00
2052, 971.00
2053, 972.00
2054, 973.00
2055, 972.00
2056, 973.00
2057, 973.00
2058, 975.00
2059, 974.00
2060, 976.00
2061, 975.00
2062, 976.00
2063, 976.00
2064, 976.00
2065, 977.00
2066, 977.00
2067, 977.00
2068, 978.00
2069, 978.00
2070, 978.00
2071, 977.00
2072, 978.00
2073, 980.00
2074, 979.00
2075, 979.00
2076, 980.00
2077, 981.00
2078, 982.00
2079, 982.00
2080, 982.00
2081, 983.00
2082, 983.00
2083, 981.00
2084, 982.00
2085, 982.00
2086, 983.00
2087, 984.00
2088, 985.00
2089, 985.00
2090, 986.00
2091, 985.00
2092, 986.00
2093, 985.00
2094, 986.00
2095, 987.00
2096, 985.00
2097, 986.00
2098, 987.00
2099, 987.00
2100, 986.00
2101, 987.00
2102, 988.00
2103, 989.00
2104, 988.00
2105, 988.00
2106, 988.00
2107, 989.00
2108, 989.00
2109, 989.00
2110, 989.00
2111, 989.00
2112, 990.00
2113, 990.00
2114, 991.00
2115, 991.00
2116, 990.00
2117, 991.00
2118, 990.00
2119, 991.00
2120, 990.00
2121, 991.00
2122, 991.00
2123, 992.00
2124, 991.00
2125, 993.00
2126, 993.00
2127, 991.00
2128, 991.00
2129, 993.00
2130, 992.00
2131, 993.00
2132, 993.00
2133, 994.00
2134, 993.00
2135, 993.00
2136, 995.00
2137, 994.00
2138, 993.00
2139, 993.00
2140, 995.00
2141, 994.00
2142, 994.00
2143, 994.00
2144, 995.00
2145, 995.00
2146, 996.00
2147, 994.00
2148, 993.00
2149, 995.00
2150, 994.00
