FW version: 24
Log Version: 3.0.3

General Info:
       Command/Macro Performed,            Timestamp,             Device ID, COM Port, UART/I2C, Test Name, Host Major, Host Minor, Host Revision, Host Git Commit
            Single_measurement,  2023_06_27_11_36_18,       Insight2_F4_xxx,    USB-C,      USB,          ,          0,          1,             1,      4031237645

Show Spectrometer Status:
l0_version, f4_version, battery_perc, battery_mVolt, accelerometer_temp, accelerometer_x, accelerometer_y, accelerometer_z, compass_temp, compass_x, compass_y, compass_z, lamp_0, lamp_1, gain_0, gain_1
        17,         24,           95,          2078,               5328,           65340,              80,           18556,            0,     65471,     65397,     65532,   2047,   2047,    1,    1

Temperature Statistic Info:
NTC AVG [°C], NTC2 AVG [°C]
      36.351,        36.004

Statistic Info:
M1:  num,      min,      max,   median,      AVG,      STD,M2:  num,      min,      max,   median,      AVG,      STD
     301,   627.00,   726.00,   649.00,   659.44,  30.4471,     401,   944.00,  1005.00,   971.00,   972.84,  19.9559,

Measurements:
Wavelength, Data Amplitude
1350, 641.00
1351, 641.00
1352, 640.00
1353, 640.00
1354, 640.00
1355, 639.00
1356, 640.00
1357, 640.00
1358, 640.00
1359, 638.00
1360, 640.00
1361, 638.00
1362, 639.00
1363, 638.00
1364, 636.00
1365, 637.00
1366, 636.00
1367, 636.00
1368, 636.00
1369, 634.00
1370, 635.00
1371, 634.00
1372, 634.00
1373, 633.00
1374, 632.00
1375, 634.00
1376, 633.00
1377, 633.00
1378, 632.00
1379, 632.00
1380, 631.00
1381, 631.00
1382, 630.00
1383, 630.00
1384, 631.00
1385, 630.00
1386, 630.00
1387, 629.00
1388, 629.00
1389, 628.00
1390, 628.00
1391, 629.00
1392, 629.00
1393, 629.00
1394, 628.00
1395, 629.00
1396, 629.00
1397, 629.00
1398, 628.00
1399, 628.00
1400, 629.00
1401, 628.00
1402, 628.00
1403, 628.00
1404, 627.00
1405, 627.00
1406, 628.00
1407, 628.00
1408, 628.00
1409, 628.00
1410, 627.00
1411, 628.00
1412, 627.00
1413, 627.00
1414, 628.00
1415, 628.00
1416, 627.00
1417, 628.00
1418, 628.00
1419, 627.00
1420, 628.00
1421, 627.00
1422, 627.00
1423, 628.00
1424, 628.00
1425, 628.00
1426, 627.00
1427, 628.00
1428, 628.00
1429, 628.00
1430, 628.00
1431, 628.00
1432, 628.00
1433, 628.00
1434, 629.00
1435, 629.00
1436, 630.00
1437, 629.00
1438, 629.00
1439, 629.00
1440, 630.00
1441, 630.00
1442, 630.00
1443, 630.00
1444, 630.00
1445, 630.00
1446, 631.00
1447, 631.00
1448, 631.00
1449, 631.00
1450, 631.00
1451, 632.00
1452, 632.00
1453, 632.00
1454, 633.00
1455, 633.00
1456, 633.00
1457, 632.00
1458, 634.00
1459, 635.00
1460, 633.00
1461, 633.00
1462, 634.00
1463, 636.00
1464, 634.00
1465, 635.00
1466, 636.00
1467, 635.00
1468, 636.00
1469, 636.00
1470, 636.00
1471, 638.00
1472, 637.00
1473, 639.00
1474, 639.00
1475, 638.00
1476, 639.00
1477, 639.00
1478, 639.00
1479, 641.00
1480, 640.00
1481, 641.00
1482, 641.00
1483, 642.00
1484, 642.00
1485, 642.00
1486, 643.00
1487, 643.00
1488, 644.00
1489, 644.00
1490, 643.00
1491, 644.00
1492, 646.00
1493, 646.00
1494, 646.00
1495, 646.00
1496, 647.00
1497, 648.00
1498, 647.00
1499, 649.00
1500, 648.00
1501, 649.00
1502, 649.00
1503, 649.00
1504, 650.00
1505, 651.00
1506, 651.00
1507, 651.00
1508, 652.00
1509, 653.00
1510, 653.00
1511, 654.00
1512, 655.00
1513, 655.00
1514, 655.00
1515, 655.00
1516, 656.00
1517, 657.00
1518, 657.00
1519, 657.00
1520, 658.00
1521, 659.00
1522, 659.00
1523, 660.00
1524, 660.00
1525, 660.00
1526, 661.00
1527, 662.00
1528, 662.00
1529, 663.00
1530, 663.00
1531, 664.00
1532, 663.00
1533, 664.00
1534, 665.00
1535, 665.00
1536, 666.00
1537, 666.00
1538, 667.00
1539, 666.00
1540, 667.00
1541, 667.00
1542, 668.00
1543, 669.00
1544, 669.00
1545, 669.00
1546, 670.00
1547, 670.00
1548, 670.00
1549, 672.00
1550, 672.00
1551, 672.00
1552, 672.00
1553, 673.00
1554, 673.00
1555, 674.00
1556, 675.00
1557, 675.00
1558, 676.00
1559, 676.00
1560, 676.00
1561, 677.00
1562, 677.00
1563, 677.00
1564, 679.00
1565, 679.00
1566, 680.00
1567, 680.00
1568, 680.00
1569, 681.00
1570, 681.00
1571, 681.00
1572, 682.00
1573, 683.00
1574, 684.00
1575, 684.00
1576, 685.00
1577, 684.00
1578, 685.00
1579, 686.00
1580, 686.00
1581, 687.00
1582, 687.00
1583, 687.00
1584, 688.00
1585, 688.00
1586, 690.00
1587, 690.00
1588, 690.00
1589, 691.00
1590, 691.00
1591, 691.00
1592, 692.00
1593, 692.00
1594, 693.00
1595, 694.00
1596, 694.00
1597, 695.00
1598, 695.00
1599, 696.00
1600, 696.00
1601, 697.00
1602, 697.00
1603, 697.00
1604, 698.00
1605, 699.00
1606, 700.00
1607, 700.00
1608, 701.00
1609, 701.00
1610, 701.00
1611, 702.00
1612, 704.00
1613, 703.00
1614, 705.00
1615, 705.00
1616, 706.00
1617, 706.00
1618, 708.00
1619, 708.00
1620, 709.00
1621, 708.00
1622, 710.00
1623, 711.00
1624, 711.00
1625, 712.00
1626, 711.00
1627, 712.00
1628, 713.00
1629, 714.00
1630, 715.00
1631, 715.00
1632, 715.00
1633, 716.00
1634, 717.00
1635, 718.00
1636, 717.00
1637, 719.00
1638, 719.00
1639, 720.00
1640, 720.00
1641, 720.00
1642, 721.00
1643, 722.00
1644, 722.00
1645, 722.00
1646, 724.00
1647, 723.00
1648, 723.00
1649, 724.00
1650, 726.00

1750, 1003.00
1751, 1003.00
1752, 1004.00
1753, 1005.00
1754, 1004.00
1755, 1005.00
1756, 1005.00
1757, 1003.00
1758, 1004.00
1759, 1004.00
1760, 1004.00
1761, 1004.00
1762, 1004.00
1763, 1004.00
1764, 1004.00
1765, 1003.00
1766, 1002.00
1767, 1002.00
1768, 1003.00
1769, 1003.00
1770, 1003.00
1771, 1003.00
1772, 1004.00
1773, 1003.00
1774, 1004.00
1775, 1003.00
1776, 1004.00
1777, 1002.00
1778, 1003.00
1779, 1002.00
1780, 1001.00
1781, 1001.00
1782, 1001.00
1783, 1002.00
1784, 1001.00
1785, 1000.00
1786, 1000.00
1787, 1000.00
1788, 1000.00
1789, 1000.00
1790, 1000.00
1791, 1001.00
1792, 1001.00
1793, 1000.00
1794, 999.00
1795, 998.00
1796, 997.00
1797, 999.00
1798, 999.00
1799, 998.00
1800, 998.00
1801, 997.00
1802, 998.00
1803, 998.00
1804, 997.00
1805, 998.00
1806, 997.00
1807, 997.00
1808, 996.00
1809, 997.00
1810, 998.00
1811, 997.00
1812, 996.00
1813, 995.00
1814, 996.00
1815, 996.00
1816, 993.00
1817, 995.00
1818, 995.00
1819, 993.00
1820, 995.00
1821, 995.00
1822, 994.00
1823, 993.00
1824, 992.00
1825, 991.00
1826, 991.00
1827, 991.00
1828, 991.00
1829, 991.00
1830, 990.00
1831, 989.00
1832, 990.00
1833, 987.00
1834, 987.00
1835, 988.00
1836, 986.00
1837, 986.00
1838, 986.00
1839, 984.00
1840, 983.00
1841, 983.00
1842, 980.00
1843, 980.00
1844, 979.00
1845, 978.00
1846, 977.00
1847, 976.00
1848, 975.00
1849, 976.00
1850, 974.00
1851, 974.00
1852, 972.00
1853, 971.00
1854, 970.00
1855, 969.00
1856, 968.00
1857, 966.00
1858, 967.00
1859, 966.00
1860, 965.00
1861, 964.00
1862, 962.00
1863, 963.00
1864, 961.00
1865, 962.00
1866, 960.00
1867, 960.00
1868, 958.00
1869, 958.00
1870, 956.00
1871, 957.00
1872, 955.00
1873, 956.00
1874, 954.00
1875, 954.00
1876, 953.00
1877, 954.00
1878, 953.00
1879, 953.00
1880, 952.00
1881, 951.00
1882, 952.00
1883, 951.00
1884, 951.00
1885, 951.00
1886, 950.00
1887, 950.00
1888, 951.00
1889, 949.00
1890, 950.00
1891, 950.00
1892, 949.00
1893, 949.00
1894, 950.00
1895, 950.00
1896, 948.00
1897, 948.00
1898, 949.00
1899, 947.00
1900, 948.00
1901, 947.00
1902, 947.00
1903, 948.00
1904, 948.00
1905, 948.00
1906, 945.00
1907, 946.00
1908, 946.00
1909, 945.00
1910, 945.00
1911, 948.00
1912, 947.00
1913, 947.00
1914, 946.00
1915, 946.00
1916, 947.00
1917, 946.00
1918, 946.00
1919, 946.00
1920, 945.00
1921, 946.00
1922, 946.00
1923, 947.00
1924, 945.00
1925, 946.00
1926, 947.00
1927, 946.00
1928, 946.00
1929, 945.00
1930, 945.00
1931, 946.00
1932, 946.00
1933, 944.00
1934, 946.00
1935, 948.00
1936, 946.00
1937, 946.00
1938, 946.00
1939, 948.00
1940, 947.00
1941, 947.00
1942, 945.00
1943, 947.00
1944, 946.00
1945, 946.00
1946, 948.00
1947, 948.00
1948, 947.00
1949, 948.00
1950, 947.00
1951, 948.00
1952, 949.00
1953, 948.00
1954, 947.00
1955, 949.00
1956, 950.00
1957, 947.00
1958, 949.00
1959, 947.00
1960, 949.00
1961, 948.00
1962, 950.00
1963, 951.00
1964, 949.00
1965, 949.00
1966, 951.00
1967, 951.00
1968, 951.00
1969, 951.00
1970, 951.00
1971, 951.00
1972, 951.00
1973, 953.00
1974, 952.00
1975, 953.00
1976, 952.00
1977, 954.00
1978, 951.00
1979, 952.00
1980, 953.00
1981, 953.00
1982, 954.00
1983, 953.00
1984, 955.00
1985, 954.00
1986, 955.00
1987, 955.00
1988, 956.00
1989, 955.00
1990, 955.00
1991, 954.00
1992, 958.00
1993, 958.00
1994, 955.00
1995, 956.00
1996, 957.00
1997, 957.00
1998, 956.00
1999, 957.00
2000, 956.00
2001, 958.00
2002, 957.00
2003, 957.00
2004, 958.00
2005, 959.00
2006, 957.00
2007, 959.00
2008, 959.00
2009, 961.00
2010, 959.00
2011, 960.00
2012, 960.00
2013, 960.00
2014, 961.00
2015, 962.00
2016, 961.00
2017, 962.00
2018, 962.00
2019, 963.00
2020, 961.00
2021, 963.00
2022, 963.00
2023, 963.00
2024, 962.00
2025, 963.00
2026, 965.00
2027, 963.00
2028, 965.00
2029, 966.00
2030, 965.00
2031, 964.00
2032, 964.00
2033, 965.00
2034, 965.00
2035, 966.00
2036, 967.00
2037, 967.00
2038, 968.00
2039, 967.00
2040, 967.00
2041, 968.00
2042, 968.00
2043, 969.00
2044, 969.00
2045, 970.00
2046, 969.00
2047, 970.00
2048, 969.00
2049, 971.00
2050, 971.00
2051, 971.00
2052, 972.00
2053, 971.00
2054, 973.00
2055, 974.00
2056, 974.00
2057, 974.00
2058, 971.00
2059, 974.00
2060, 975.00
2061, 975.00
2062, 976.00
2063, 976.00
2064, 975.00
2065, 976.00
2066, 979.00
2067, 977.00
2068, 978.00
2069, 978.00
2070, 978.00
2071, 980.00
2072, 979.00
2073, 980.00
2074, 980.00
2075, 981.00
2076, 980.00
2077, 981.00
2078, 981.00
2079, 982.00
2080, 979.00
2081, 981.00
2082, 983.00
2083, 982.00
2084, 983.00
2085, 985.00
2086, 983.00
2087, 984.00
2088, 984.00
2089, 984.00
2090, 985.00
2091, 987.00
2092, 985.00
2093, 984.00
2094, 984.00
2095, 986.00
2096, 986.00
2097, 987.00
2098, 986.00
2099, 986.00
2100, 987.00
2101, 988.00
2102, 987.00
2103, 988.00
2104, 989.00
2105, 989.00
2106, 989.00
2107, 990.00
2108, 989.00
2109, 990.00
2110, 988.00
2111, 991.00
2112, 989.00
2113, 991.00
2114, 990.00
2115, 990.00
2116, 990.00
2117, 991.00
2118, 991.00
2119, 990.00
2120, 991.00
2121, 991.00
2122, 990.00
2123, 991.00
2124, 993.00
2125, 991.00
2126, 993.00
2127, 991.00
2128, 991.00
2129, 993.00
2130, 991.00
2131, 992.00
2132, 993.00
2133, 992.00
2134, 993.00
2135, 993.00
2136, 994.00
2137, 993.00
2138, 994.00
2139, 994.00
2140, 993.00
2141, 994.00
2142, 994.00
2143, 994.00
2144, 994.00
2145, 994.00
2146, 995.00
2147, 995.00
2148, 995.00
2149, 994.00
2150, 994.00
