FW version: 24
Log Version: 3.0.3

General Info:
       Command/Macro Performed,            Timestamp,             Device ID, COM Port, UART/I2C, Test Name, Host Major, Host Minor, Host Revision, Host Git Commit
            Single_measurement,  2023_06_30_11_54_33,       Insight2_F4_xxx,    USB-C,      USB,          ,          0,          1,             1,      4031237645

Show Spectrometer Status:
l0_version, f4_version, battery_perc, battery_mVolt, accelerometer_temp, accelerometer_x, accelerometer_y, accelerometer_z, compass_temp, compass_x, compass_y, compass_z, lamp_0, lamp_1, gain_0, gain_1
        17,         24,           95,          2080,               5904,           65256,             312,           18488,            0,     65531,     65405,     65529,   3276,   3276,      1,      1

Temperature Statistic Info:
NTC AVG [°C], NTC2 AVG [°C]
      38.333,        38.070

Statistic Info:
M1:  num,      min,      max,   median,      AVG,      STD,M2:  num,      min,      max,   median,      AVG,      STD
     301,  1927.00,  2209.00,  1985.00,  2020.07,  87.3474,     401,  2533.00,  2705.00,  2605.00,  2608.95,  56.2518,

Measurements:
Wavelength, Data Amplitude
1350, 1981.00
1351, 1979.00
1352, 1978.00
1353, 1977.00
1354, 1975.00
1355, 1975.00
1356, 1974.00
1357, 1973.00
1358, 1973.00
1359, 1970.00
1360, 1970.00
1361, 1968.00
1362, 1967.00
1363, 1965.00
1364, 1964.00
1365, 1964.00
1366, 1963.00
1367, 1961.00
1368, 1959.00
1369, 1957.00
1370, 1956.00
1371, 1955.00
1372, 1954.00
1373, 1951.00
1374, 1951.00
1375, 1950.00
1376, 1949.00
1377, 1948.00
1378, 1945.00
1379, 1945.00
1380, 1944.00
1381, 1942.00
1382, 1942.00
1383, 1941.00
1384, 1940.00
1385, 1939.00
1386, 1939.00
1387, 1938.00
1388, 1939.00
1389, 1936.00
1390, 1936.00
1391, 1936.00
1392, 1935.00
1393, 1935.00
1394, 1934.00
1395, 1934.00
1396, 1933.00
1397, 1933.00
1398, 1932.00
1399, 1931.00
1400, 1932.00
1401, 1932.00
1402, 1932.00
1403, 1930.00
1404, 1931.00
1405, 1931.00
1406, 1930.00
1407, 1930.00
1408, 1929.00
1409, 1928.00
1410, 1928.00
1411, 1928.00
1412, 1930.00
1413, 1929.00
1414, 1929.00
1415, 1930.00
1416, 1929.00
1417, 1928.00
1418, 1928.00
1419, 1930.00
1420, 1930.00
1421, 1928.00
1422, 1928.00
1423, 1928.00
1424, 1928.00
1425, 1927.00
1426, 1929.00
1427, 1927.00
1428, 1929.00
1429, 1930.00
1430, 1929.00
1431, 1929.00
1432, 1930.00
1433, 1930.00
1434, 1931.00
1435, 1931.00
1436, 1932.00
1437, 1931.00
1438, 1931.00
1439, 1933.00
1440, 1933.00
1441, 1933.00
1442, 1933.00
1443, 1934.00
1444, 1934.00
1445, 1936.00
1446, 1935.00
1447, 1935.00
1448, 1937.00
1449, 1937.00
1450, 1938.00
1451, 1938.00
1452, 1938.00
1453, 1939.00
1454, 1941.00
1455, 1941.00
1456, 1942.00
1457, 1942.00
1458, 1943.00
1459, 1943.00
1460, 1944.00
1461, 1944.00
1462, 1945.00
1463, 1945.00
1464, 1947.00
1465, 1948.00
1466, 1949.00
1467, 1950.00
1468, 1951.00
1469, 1952.00
1470, 1954.00
1471, 1953.00
1472, 1954.00
1473, 1955.00
1474, 1956.00
1475, 1957.00
1476, 1959.00
1477, 1959.00
1478, 1960.00
1479, 1962.00
1480, 1963.00
1481, 1965.00
1482, 1965.00
1483, 1965.00
1484, 1967.00
1485, 1967.00
1486, 1969.00
1487, 1971.00
1488, 1972.00
1489, 1973.00
1490, 1974.00
1491, 1975.00
1492, 1975.00
1493, 1977.00
1494, 1978.00
1495, 1979.00
1496, 1980.00
1497, 1981.00
1498, 1982.00
1499, 1984.00
1500, 1985.00
1501, 1985.00
1502, 1987.00
1503, 1989.00
1504, 1991.00
1505, 1991.00
1506, 1992.00
1507, 1993.00
1508, 1995.00
1509, 1995.00
1510, 1996.00
1511, 1998.00
1512, 1999.00
1513, 2001.00
1514, 2002.00
1515, 2004.00
1516, 2006.00
1517, 2006.00
1518, 2008.00
1519, 2009.00
1520, 2010.00
1521, 2010.00
1522, 2013.00
1523, 2014.00
1524, 2015.00
1525, 2017.00
1526, 2018.00
1527, 2021.00
1528, 2021.00
1529, 2023.00
1530, 2024.00
1531, 2025.00
1532, 2026.00
1533, 2027.00
1534, 2030.00
1535, 2031.00
1536, 2033.00
1537, 2034.00
1538, 2035.00
1539, 2037.00
1540, 2038.00
1541, 2040.00
1542, 2040.00
1543, 2041.00
1544, 2043.00
1545, 2045.00
1546, 2046.00
1547, 2048.00
1548, 2050.00
1549, 2051.00
1550, 2053.00
1551, 2054.00
1552, 2056.00
1553, 2056.00
1554, 2058.00
1555, 2060.00
1556, 2061.00
1557, 2063.00
1558, 2065.00
1559, 2066.00
1560, 2067.00
1561, 2069.00
1562, 2071.00
1563, 2073.00
1564, 2074.00
1565, 2075.00
1566, 2078.00
1567, 2079.00
1568, 2081.00
1569, 2083.00
1570, 2084.00
1571, 2086.00
1572, 2088.00
1573, 2090.00
1574, 2091.00
1575, 2091.00
1576, 2093.00
1577, 2094.00
1578, 2096.00
1579, 2098.00
1580, 2099.00
1581, 2101.00
1582, 2103.00
1583, 2104.00
1584, 2105.00
1585, 2107.00
1586, 2107.00
1587, 2109.00
1588, 2109.00
1589, 2112.00
1590, 2113.00
1591, 2116.00
1592, 2117.00
1593, 2120.00
1594, 2119.00
1595, 2121.00
1596, 2122.00
1597, 2124.00
1598, 2124.00
1599, 2127.00
1600, 2128.00
1601, 2128.00
1602, 2131.00
1603, 2133.00
1604, 2135.00
1605, 2136.00
1606, 2137.00
1607, 2138.00
1608, 2139.00
1609, 2141.00
1610, 2143.00
1611, 2145.00
1612, 2148.00
1613, 2149.00
1614, 2151.00
1615, 2153.00
1616, 2153.00
1617, 2155.00
1618, 2157.00
1619, 2159.00
1620, 2161.00
1621, 2163.00
1622, 2165.00
1623, 2167.00
1624, 2168.00
1625, 2169.00
1626, 2172.00
1627, 2172.00
1628, 2175.00
1629, 2177.00
1630, 2178.00
1631, 2180.00
1632, 2181.00
1633, 2183.00
1634, 2185.00
1635, 2187.00
1636, 2187.00
1637, 2190.00
1638, 2191.00
1639, 2193.00
1640, 2194.00
1641, 2196.00
1642, 2196.00
1643, 2198.00
1644, 2200.00
1645, 2199.00
1646, 2202.00
1647, 2202.00
1648, 2205.00
1649, 2207.00
1650, 2209.00

1750, 2701.00
1751, 2704.00
1752, 2704.00
1753, 2703.00
1754, 2704.00
1755, 2703.00
1756, 2705.00
1757, 2704.00
1758, 2703.00
1759, 2704.00
1760, 2702.00
1761, 2703.00
1762, 2702.00
1763, 2704.00
1764, 2702.00
1765, 2701.00
1766, 2702.00
1767, 2703.00
1768, 2701.00
1769, 2701.00
1770, 2701.00
1771, 2700.00
1772, 2700.00
1773, 2699.00
1774, 2697.00
1775, 2697.00
1776, 2696.00
1777, 2697.00
1778, 2698.00
1779, 2697.00
1780, 2696.00
1781, 2694.00
1782, 2695.00
1783, 2694.00
1784, 2694.00
1785, 2693.00
1786, 2691.00
1787, 2693.00
1788, 2691.00
1789, 2691.00
1790, 2689.00
1791, 2690.00
1792, 2689.00
1793, 2688.00
1794, 2687.00
1795, 2689.00
1796, 2686.00
1797, 2686.00
1798, 2687.00
1799, 2685.00
1800, 2684.00
1801, 2685.00
1802, 2685.00
1803, 2683.00
1804, 2684.00
1805, 2684.00
1806, 2682.00
1807, 2681.00
1808, 2680.00
1809, 2682.00
1810, 2679.00
1811, 2679.00
1812, 2678.00
1813, 2677.00
1814, 2676.00
1815, 2677.00
1816, 2674.00
1817, 2674.00
1818, 2673.00
1819, 2672.00
1820, 2672.00
1821, 2673.00
1822, 2669.00
1823, 2668.00
1824, 2668.00
1825, 2666.00
1826, 2664.00
1827, 2662.00
1828, 2660.00
1829, 2659.00
1830, 2658.00
1831, 2656.00
1832, 2657.00
1833, 2653.00
1834, 2652.00
1835, 2650.00
1836, 2647.00
1837, 2646.00
1838, 2642.00
1839, 2642.00
1840, 2637.00
1841, 2635.00
1842, 2633.00
1843, 2631.00
1844, 2627.00
1845, 2625.00
1846, 2623.00
1847, 2620.00
1848, 2618.00
1849, 2616.00
1850, 2611.00
1851, 2611.00
1852, 2607.00
1853, 2604.00
1854, 2601.00
1855, 2597.00
1856, 2594.00
1857, 2593.00
1858, 2591.00
1859, 2591.00
1860, 2587.00
1861, 2584.00
1862, 2581.00
1863, 2580.00
1864, 2577.00
1865, 2574.00
1866, 2572.00
1867, 2571.00
1868, 2569.00
1869, 2566.00
1870, 2565.00
1871, 2564.00
1872, 2564.00
1873, 2562.00
1874, 2561.00
1875, 2557.00
1876, 2555.00
1877, 2555.00
1878, 2553.00
1879, 2552.00
1880, 2552.00
1881, 2551.00
1882, 2552.00
1883, 2550.00
1884, 2550.00
1885, 2549.00
1886, 2547.00
1887, 2548.00
1888, 2545.00
1889, 2545.00
1890, 2545.00
1891, 2543.00
1892, 2543.00
1893, 2543.00
1894, 2542.00
1895, 2543.00
1896, 2541.00
1897, 2541.00
1898, 2540.00
1899, 2541.00
1900, 2540.00
1901, 2537.00
1902, 2539.00
1903, 2539.00
1904, 2540.00
1905, 2538.00
1906, 2539.00
1907, 2538.00
1908, 2539.00
1909, 2538.00
1910, 2537.00
1911, 2535.00
1912, 2536.00
1913, 2536.00
1914, 2534.00
1915, 2536.00
1916, 2535.00
1917, 2536.00
1918, 2536.00
1919, 2535.00
1920, 2536.00
1921, 2535.00
1922, 2534.00
1923, 2534.00
1924, 2535.00
1925, 2533.00
1926, 2535.00
1927, 2535.00
1928, 2534.00
1929, 2534.00
1930, 2533.00
1931, 2535.00
1932, 2536.00
1933, 2535.00
1934, 2535.00
1935, 2535.00
1936, 2535.00
1937, 2535.00
1938, 2534.00
1939, 2536.00
1940, 2538.00
1941, 2536.00
1942, 2536.00
1943, 2538.00
1944, 2537.00
1945, 2536.00
1946, 2537.00
1947, 2538.00
1948, 2536.00
1949, 2539.00
1950, 2539.00
1951, 2539.00
1952, 2539.00
1953, 2540.00
1954, 2542.00
1955, 2541.00
1956, 2541.00
1957, 2541.00
1958, 2541.00
1959, 2542.00
1960, 2544.00
1961, 2543.00
1962, 2543.00
1963, 2543.00
1964, 2545.00
1965, 2544.00
1966, 2546.00
1967, 2546.00
1968, 2547.00
1969, 2547.00
1970, 2547.00
1971, 2549.00
1972, 2548.00
1973, 2550.00
1974, 2549.00
1975, 2551.00
1976, 2551.00
1977, 2555.00
1978, 2553.00
1979, 2555.00
1980, 2554.00
1981, 2554.00
1982, 2555.00
1983, 2556.00
1984, 2557.00
1985, 2557.00
1986, 2557.00
1987, 2558.00
1988, 2557.00
1989, 2559.00
1990, 2561.00
1991, 2560.00
1992, 2561.00
1993, 2562.00
1994, 2561.00
1995, 2562.00
1996, 2562.00
1997, 2565.00
1998, 2566.00
1999, 2567.00
2000, 2567.00
2001, 2567.00
2002, 2569.00
2003, 2567.00
2004, 2568.00
2005, 2571.00
2006, 2571.00
2007, 2571.00
2008, 2571.00
2009, 2572.00
2010, 2573.00
2011, 2573.00
2012, 2574.00
2013, 2575.00
2014, 2576.00
2015, 2573.00
2016, 2575.00
2017, 2575.00
2018, 2578.00
2019, 2578.00
2020, 2580.00
2021, 2581.00
2022, 2581.00
2023, 2581.00
2024, 2581.00
2025, 2582.00
2026, 2583.00
2027, 2583.00
2028, 2584.00
2029, 2584.00
2030, 2585.00
2031, 2585.00
2032, 2586.00
2033, 2586.00
2034, 2587.00
2035, 2589.00
2036, 2589.00
2037, 2591.00
2038, 2592.00
2039, 2592.00
2040, 2593.00
2041, 2595.00
2042, 2596.00
2043, 2595.00
2044, 2596.00
2045, 2597.00
2046, 2598.00
2047, 2600.00
2048, 2601.00
2049, 2601.00
2050, 2601.00
2051, 2601.00
2052, 2603.00
2053, 2605.00
2054, 2606.00
2055, 2606.00
2056, 2605.00
2057, 2609.00
2058, 2610.00
2059, 2610.00
2060, 2610.00
2061, 2612.00
2062, 2611.00
2063, 2615.00
2064, 2614.00
2065, 2616.00
2066, 2616.00
2067, 2616.00
2068, 2618.00
2069, 2621.00
2070, 2621.00
2071, 2623.00
2072, 2623.00
2073, 2626.00
2074, 2626.00
2075, 2625.00
2076, 2624.00
2077, 2627.00
2078, 2629.00
2079, 2628.00
2080, 2631.00
2081, 2630.00
2082, 2632.00
2083, 2631.00
2084, 2632.00
2085, 2635.00
2086, 2635.00
2087, 2633.00
2088, 2635.00
2089, 2636.00
2090, 2637.00
2091, 2637.00
2092, 2640.00
2093, 2639.00
2094, 2640.00
2095, 2640.00
2096, 2641.00
2097, 2643.00
2098, 2644.00
2099, 2643.00
2100, 2643.00
2101, 2643.00
2102, 2645.00
2103, 2645.00
2104, 2647.00
2105, 2645.00
2106, 2648.00
2107, 2648.00
2108, 2648.00
2109, 2649.00
2110, 2650.00
2111, 2650.00
2112, 2651.00
2113, 2651.00
2114, 2651.00
2115, 2652.00
2116, 2650.00
2117, 2653.00
2118, 2654.00
2119, 2654.00
2120, 2653.00
2121, 2654.00
2122, 2655.00
2123, 2654.00
2124, 2655.00
2125, 2654.00
2126, 2654.00
2127, 2656.00
2128, 2657.00
2129, 2656.00
2130, 2658.00
2131, 2658.00
2132, 2657.00
2133, 2659.00
2134, 2659.00
2135, 2657.00
2136, 2659.00
2137, 2660.00
2138, 2663.00
2139, 2660.00
2140, 2661.00
2141, 2659.00
2142, 2661.00
2143, 2662.00
2144, 2661.00
2145, 2662.00
2146, 2661.00
2147, 2661.00
2148, 2664.00
2149, 2665.00
2150, 2665.00
