FW version: 24
Log Version: 3.0.3

General Info:
       Command/Macro Performed,            Timestamp,             Device ID, COM Port, UART/I2C, Test Name, Host Major, Host Minor, Host Revision, Host Git Commit
            Single_measurement,  2023_06_30_11_53_24,       Insight2_F4_xxx,    USB-C,      USB,          ,          0,          1,             1,      4031237645

Show Spectrometer Status:
l0_version, f4_version, battery_perc, battery_mVolt, accelerometer_temp, accelerometer_x, accelerometer_y, accelerometer_z, compass_temp, compass_x, compass_y, compass_z, lamp_0, lamp_1, gain_0, gain_1
        17,         24,           95,          2079,               5888,              88,             152,           18564,            0,     65401,     65497,     65524,   3276,   3276,      0,      0

Temperature Statistic Info:
NTC AVG [°C], NTC2 AVG [°C]
      37.954,        37.698

Statistic Info:
M1:  num,      min,      max,   median,      AVG,      STD,M2:  num,      min,      max,   median,      AVG,      STD
     301,   665.00,   761.00,   685.00,   696.57,  29.9489,     401,   875.00,   934.00,   900.00,   901.28,  19.3628,

Measurements:
Wavelength, Data Amplitude
1350, 683.00
1351, 683.00
1352, 682.00
1353, 682.00
1354, 681.00
1355, 682.00
1356, 681.00
1357, 681.00
1358, 680.00
1359, 680.00
1360, 680.00
1361, 678.00
1362, 679.00
1363, 678.00
1364, 678.00
1365, 677.00
1366, 676.00
1367, 677.00
1368, 676.00
1369, 675.00
1370, 675.00
1371, 675.00
1372, 674.00
1373, 674.00
1374, 673.00
1375, 672.00
1376, 672.00
1377, 672.00
1378, 672.00
1379, 671.00
1380, 671.00
1381, 670.00
1382, 670.00
1383, 670.00
1384, 669.00
1385, 669.00
1386, 669.00
1387, 669.00
1388, 668.00
1389, 668.00
1390, 668.00
1391, 668.00
1392, 667.00
1393, 667.00
1394, 667.00
1395, 667.00
1396, 667.00
1397, 667.00
1398, 667.00
1399, 666.00
1400, 666.00
1401, 666.00
1402, 666.00
1403, 666.00
1404, 666.00
1405, 666.00
1406, 666.00
1407, 666.00
1408, 666.00
1409, 666.00
1410, 666.00
1411, 665.00
1412, 666.00
1413, 665.00
1414, 665.00
1415, 665.00
1416, 665.00
1417, 665.00
1418, 665.00
1419, 665.00
1420, 665.00
1421, 665.00
1422, 665.00
1423, 665.00
1424, 665.00
1425, 665.00
1426, 665.00
1427, 665.00
1428, 665.00
1429, 665.00
1430, 665.00
1431, 665.00
1432, 666.00
1433, 665.00
1434, 666.00
1435, 666.00
1436, 666.00
1437, 666.00
1438, 666.00
1439, 666.00
1440, 666.00
1441, 667.00
1442, 667.00
1443, 667.00
1444, 667.00
1445, 667.00
1446, 668.00
1447, 668.00
1448, 668.00
1449, 668.00
1450, 669.00
1451, 669.00
1452, 669.00
1453, 669.00
1454, 669.00
1455, 669.00
1456, 670.00
1457, 670.00
1458, 670.00
1459, 670.00
1460, 670.00
1461, 670.00
1462, 671.00
1463, 671.00
1464, 672.00
1465, 672.00
1466, 672.00
1467, 672.00
1468, 673.00
1469, 673.00
1470, 673.00
1471, 674.00
1472, 674.00
1473, 674.00
1474, 674.00
1475, 674.00
1476, 676.00
1477, 676.00
1478, 676.00
1479, 677.00
1480, 677.00
1481, 677.00
1482, 678.00
1483, 678.00
1484, 678.00
1485, 679.00
1486, 678.00
1487, 680.00
1488, 680.00
1489, 680.00
1490, 680.00
1491, 681.00
1492, 682.00
1493, 682.00
1494, 682.00
1495, 683.00
1496, 683.00
1497, 684.00
1498, 683.00
1499, 684.00
1500, 685.00
1501, 685.00
1502, 685.00
1503, 686.00
1504, 686.00
1505, 686.00
1506, 687.00
1507, 687.00
1508, 688.00
1509, 688.00
1510, 688.00
1511, 689.00
1512, 690.00
1513, 690.00
1514, 690.00
1515, 690.00
1516, 691.00
1517, 692.00
1518, 692.00
1519, 693.00
1520, 693.00
1521, 694.00
1522, 694.00
1523, 694.00
1524, 694.00
1525, 695.00
1526, 696.00
1527, 696.00
1528, 697.00
1529, 697.00
1530, 698.00
1531, 698.00
1532, 699.00
1533, 699.00
1534, 699.00
1535, 700.00
1536, 701.00
1537, 701.00
1538, 702.00
1539, 702.00
1540, 703.00
1541, 704.00
1542, 704.00
1543, 704.00
1544, 705.00
1545, 706.00
1546, 706.00
1547, 706.00
1548, 707.00
1549, 707.00
1550, 707.00
1551, 708.00
1552, 709.00
1553, 709.00
1554, 710.00
1555, 710.00
1556, 711.00
1557, 711.00
1558, 712.00
1559, 712.00
1560, 713.00
1561, 714.00
1562, 714.00
1563, 715.00
1564, 715.00
1565, 716.00
1566, 716.00
1567, 717.00
1568, 717.00
1569, 718.00
1570, 718.00
1571, 719.00
1572, 720.00
1573, 720.00
1574, 721.00
1575, 721.00
1576, 722.00
1577, 723.00
1578, 723.00
1579, 723.00
1580, 724.00
1581, 724.00
1582, 724.00
1583, 726.00
1584, 726.00
1585, 727.00
1586, 727.00
1587, 727.00
1588, 727.00
1589, 728.00
1590, 728.00
1591, 729.00
1592, 729.00
1593, 730.00
1594, 731.00
1595, 731.00
1596, 731.00
1597, 732.00
1598, 732.00
1599, 733.00
1600, 733.00
1601, 734.00
1602, 734.00
1603, 735.00
1604, 735.00
1605, 736.00
1606, 737.00
1607, 737.00
1608, 738.00
1609, 738.00
1610, 739.00
1611, 740.00
1612, 740.00
1613, 741.00
1614, 741.00
1615, 742.00
1616, 743.00
1617, 744.00
1618, 744.00
1619, 744.00
1620, 745.00
1621, 746.00
1622, 746.00
1623, 747.00
1624, 747.00
1625, 748.00
1626, 749.00
1627, 749.00
1628, 750.00
1629, 750.00
1630, 750.00
1631, 752.00
1632, 752.00
1633, 752.00
1634, 753.00
1635, 754.00
1636, 754.00
1637, 754.00
1638, 755.00
1639, 756.00
1640, 756.00
1641, 756.00
1642, 757.00
1643, 758.00
1644, 759.00
1645, 758.00
1646, 759.00
1647, 760.00
1648, 760.00
1649, 760.00
1650, 761.00

1750, 934.00
1751, 933.00
1752, 934.00
1753, 933.00
1754, 934.00
1755, 933.00
1756, 934.00
1757, 934.00
1758, 934.00
1759, 934.00
1760, 934.00
1761, 934.00
1762, 933.00
1763, 933.00
1764, 934.00
1765, 933.00
1766, 933.00
1767, 933.00
1768, 934.00
1769, 933.00
1770, 933.00
1771, 933.00
1772, 933.00
1773, 933.00
1774, 932.00
1775, 932.00
1776, 932.00
1777, 932.00
1778, 932.00
1779, 931.00
1780, 932.00
1781, 930.00
1782, 931.00
1783, 931.00
1784, 931.00
1785, 930.00
1786, 930.00
1787, 930.00
1788, 930.00
1789, 930.00
1790, 930.00
1791, 930.00
1792, 928.00
1793, 928.00
1794, 930.00
1795, 928.00
1796, 928.00
1797, 928.00
1798, 928.00
1799, 928.00
1800, 927.00
1801, 927.00
1802, 927.00
1803, 927.00
1804, 926.00
1805, 927.00
1806, 926.00
1807, 926.00
1808, 926.00
1809, 925.00
1810, 925.00
1811, 925.00
1812, 925.00
1813, 925.00
1814, 925.00
1815, 924.00
1816, 924.00
1817, 923.00
1818, 924.00
1819, 924.00
1820, 923.00
1821, 923.00
1822, 922.00
1823, 923.00
1824, 920.00
1825, 921.00
1826, 920.00
1827, 920.00
1828, 920.00
1829, 919.00
1830, 919.00
1831, 918.00
1832, 917.00
1833, 917.00
1834, 916.00
1835, 915.00
1836, 914.00
1837, 914.00
1838, 913.00
1839, 912.00
1840, 911.00
1841, 910.00
1842, 910.00
1843, 909.00
1844, 907.00
1845, 907.00
1846, 906.00
1847, 906.00
1848, 905.00
1849, 903.00
1850, 902.00
1851, 902.00
1852, 900.00
1853, 900.00
1854, 899.00
1855, 898.00
1856, 897.00
1857, 896.00
1858, 895.00
1859, 894.00
1860, 894.00
1861, 893.00
1862, 892.00
1863, 891.00
1864, 891.00
1865, 890.00
1866, 890.00
1867, 888.00
1868, 887.00
1869, 887.00
1870, 887.00
1871, 886.00
1872, 885.00
1873, 885.00
1874, 884.00
1875, 884.00
1876, 884.00
1877, 883.00
1878, 883.00
1879, 882.00
1880, 881.00
1881, 882.00
1882, 881.00
1883, 881.00
1884, 881.00
1885, 881.00
1886, 881.00
1887, 880.00
1888, 879.00
1889, 880.00
1890, 879.00
1891, 879.00
1892, 879.00
1893, 879.00
1894, 878.00
1895, 878.00
1896, 878.00
1897, 878.00
1898, 878.00
1899, 877.00
1900, 878.00
1901, 877.00
1902, 877.00
1903, 877.00
1904, 877.00
1905, 878.00
1906, 877.00
1907, 877.00
1908, 876.00
1909, 877.00
1910, 877.00
1911, 876.00
1912, 877.00
1913, 877.00
1914, 876.00
1915, 876.00
1916, 876.00
1917, 876.00
1918, 876.00
1919, 875.00
1920, 875.00
1921, 876.00
1922, 876.00
1923, 875.00
1924, 875.00
1925, 876.00
1926, 876.00
1927, 876.00
1928, 876.00
1929, 876.00
1930, 875.00
1931, 875.00
1932, 876.00
1933, 877.00
1934, 875.00
1935, 876.00
1936, 876.00
1937, 876.00
1938, 876.00
1939, 876.00
1940, 876.00
1941, 876.00
1942, 877.00
1943, 877.00
1944, 877.00
1945, 876.00
1946, 877.00
1947, 877.00
1948, 877.00
1949, 876.00
1950, 877.00
1951, 877.00
1952, 878.00
1953, 877.00
1954, 878.00
1955, 878.00
1956, 877.00
1957, 878.00
1958, 878.00
1959, 878.00
1960, 879.00
1961, 879.00
1962, 879.00
1963, 879.00
1964, 879.00
1965, 879.00
1966, 880.00
1967, 880.00
1968, 880.00
1969, 880.00
1970, 879.00
1971, 880.00
1972, 880.00
1973, 880.00
1974, 881.00
1975, 882.00
1976, 882.00
1977, 882.00
1978, 882.00
1979, 883.00
1980, 882.00
1981, 882.00
1982, 883.00
1983, 883.00
1984, 883.00
1985, 883.00
1986, 884.00
1987, 884.00
1988, 884.00
1989, 885.00
1990, 885.00
1991, 884.00
1992, 885.00
1993, 885.00
1994, 885.00
1995, 886.00
1996, 885.00
1997, 887.00
1998, 886.00
1999, 885.00
2000, 886.00
2001, 887.00
2002, 887.00
2003, 887.00
2004, 887.00
2005, 888.00
2006, 888.00
2007, 889.00
2008, 888.00
2009, 888.00
2010, 889.00
2011, 889.00
2012, 889.00
2013, 889.00
2014, 889.00
2015, 889.00
2016, 890.00
2017, 890.00
2018, 890.00
2019, 890.00
2020, 891.00
2021, 891.00
2022, 892.00
2023, 891.00
2024, 892.00
2025, 892.00
2026, 892.00
2027, 892.00
2028, 893.00
2029, 893.00
2030, 893.00
2031, 893.00
2032, 893.00
2033, 894.00
2034, 894.00
2035, 894.00
2036, 893.00
2037, 895.00
2038, 895.00
2039, 895.00
2040, 896.00
2041, 896.00
2042, 897.00
2043, 897.00
2044, 897.00
2045, 897.00
2046, 898.00
2047, 898.00
2048, 898.00
2049, 898.00
2050, 898.00
2051, 899.00
2052, 899.00
2053, 900.00
2054, 900.00
2055, 901.00
2056, 900.00
2057, 901.00
2058, 902.00
2059, 902.00
2060, 902.00
2061, 902.00
2062, 903.00
2063, 903.00
2064, 904.00
2065, 903.00
2066, 903.00
2067, 904.00
2068, 904.00
2069, 905.00
2070, 904.00
2071, 905.00
2072, 906.00
2073, 906.00
2074, 906.00
2075, 907.00
2076, 907.00
2077, 907.00
2078, 907.00
2079, 908.00
2080, 908.00
2081, 909.00
2082, 909.00
2083, 909.00
2084, 910.00
2085, 909.00
2086, 910.00
2087, 910.00
2088, 910.00
2089, 911.00
2090, 911.00
2091, 910.00
2092, 912.00
2093, 912.00
2094, 912.00
2095, 912.00
2096, 913.00
2097, 913.00
2098, 912.00
2099, 913.00
2100, 913.00
2101, 914.00
2102, 913.00
2103, 914.00
2104, 914.00
2105, 914.00
2106, 915.00
2107, 914.00
2108, 915.00
2109, 915.00
2110, 914.00
2111, 916.00
2112, 915.00
2113, 915.00
2114, 915.00
2115, 916.00
2116, 916.00
2117, 916.00
2118, 916.00
2119, 917.00
2120, 917.00
2121, 917.00
2122, 916.00
2123, 917.00
2124, 916.00
2125, 917.00
2126, 917.00
2127, 917.00
2128, 918.00
2129, 918.00
2130, 918.00
2131, 919.00
2132, 918.00
2133, 918.00
2134, 919.00
2135, 919.00
2136, 918.00
2137, 918.00
2138, 919.00
2139, 919.00
2140, 919.00
2141, 919.00
2142, 919.00
2143, 920.00
2144, 919.00
2145, 920.00
2146, 920.00
2147, 919.00
2148, 920.00
2149, 921.00
2150, 920.00
