FW version: 24
Log Version: 3.0.3

General Info:
       Command/Macro Performed,            Timestamp,             Device ID, COM Port, UART/I2C, Test Name, Host Major, Host Minor, Host Revision, Host Git Commit
            Single_measurement,  2023_06_30_11_54_22,       Insight2_F4_xxx,    USB-C,      USB,          ,          0,          1,             1,      4031237645

Show Spectrometer Status:
l0_version, f4_version, battery_perc, battery_mVolt, accelerometer_temp, accelerometer_x, accelerometer_y, accelerometer_z, compass_temp, compass_x, compass_y, compass_z, lamp_0, lamp_1, gain_0, gain_1
        17,         24,           95,          2079,               5920,             404,             404,           18432,            0,     65462,     65524,     65526,   2866,   2866,      1,      1

Temperature Statistic Info:
NTC AVG [°C], NTC2 AVG [°C]
      38.304,        38.011

Statistic Info:
M1:  num,      min,      max,   median,      AVG,      STD,M2:  num,      min,      max,   median,      AVG,      STD
     301,  1499.00,  1725.00,  1547.00,  1573.50,  69.9575,     401,  2039.00,  2179.00,  2100.00,  2102.80,  45.7101,

Measurements:
Wavelength, Data Amplitude
1350, 1538.00
1351, 1538.00
1352, 1536.00
1353, 1536.00
1354, 1535.00
1355, 1535.00
1356, 1535.00
1357, 1533.00
1358, 1533.00
1359, 1533.00
1360, 1531.00
1361, 1529.00
1362, 1530.00
1363, 1527.00
1364, 1527.00
1365, 1527.00
1366, 1525.00
1367, 1524.00
1368, 1523.00
1369, 1522.00
1370, 1522.00
1371, 1520.00
1372, 1519.00
1373, 1518.00
1374, 1517.00
1375, 1516.00
1376, 1515.00
1377, 1513.00
1378, 1514.00
1379, 1513.00
1380, 1513.00
1381, 1512.00
1382, 1510.00
1383, 1510.00
1384, 1509.00
1385, 1508.00
1386, 1508.00
1387, 1507.00
1388, 1507.00
1389, 1505.00
1390, 1505.00
1391, 1505.00
1392, 1505.00
1393, 1506.00
1394, 1505.00
1395, 1503.00
1396, 1503.00
1397, 1503.00
1398, 1503.00
1399, 1503.00
1400, 1502.00
1401, 1502.00
1402, 1502.00
1403, 1502.00
1404, 1501.00
1405, 1501.00
1406, 1501.00
1407, 1501.00
1408, 1501.00
1409, 1502.00
1410, 1502.00
1411, 1501.00
1412, 1500.00
1413, 1500.00
1414, 1500.00
1415, 1501.00
1416, 1499.00
1417, 1500.00
1418, 1500.00
1419, 1501.00
1420, 1500.00
1421, 1500.00
1422, 1502.00
1423, 1501.00
1424, 1499.00
1425, 1500.00
1426, 1500.00
1427, 1501.00
1428, 1501.00
1429, 1501.00
1430, 1501.00
1431, 1501.00
1432, 1502.00
1433, 1502.00
1434, 1502.00
1435, 1503.00
1436, 1503.00
1437, 1503.00
1438, 1504.00
1439, 1503.00
1440, 1503.00
1441, 1504.00
1442, 1505.00
1443, 1504.00
1444, 1505.00
1445, 1506.00
1446, 1506.00
1447, 1506.00
1448, 1508.00
1449, 1507.00
1450, 1508.00
1451, 1508.00
1452, 1509.00
1453, 1510.00
1454, 1510.00
1455, 1511.00
1456, 1511.00
1457, 1512.00
1458, 1512.00
1459, 1513.00
1460, 1512.00
1461, 1514.00
1462, 1515.00
1463, 1515.00
1464, 1516.00
1465, 1516.00
1466, 1517.00
1467, 1517.00
1468, 1518.00
1469, 1519.00
1470, 1519.00
1471, 1520.00
1472, 1521.00
1473, 1522.00
1474, 1523.00
1475, 1522.00
1476, 1524.00
1477, 1525.00
1478, 1526.00
1479, 1527.00
1480, 1527.00
1481, 1528.00
1482, 1529.00
1483, 1530.00
1484, 1532.00
1485, 1533.00
1486, 1533.00
1487, 1534.00
1488, 1535.00
1489, 1535.00
1490, 1536.00
1491, 1538.00
1492, 1538.00
1493, 1539.00
1494, 1541.00
1495, 1542.00
1496, 1543.00
1497, 1544.00
1498, 1543.00
1499, 1545.00
1500, 1547.00
1501, 1547.00
1502, 1548.00
1503, 1550.00
1504, 1550.00
1505, 1551.00
1506, 1552.00
1507, 1553.00
1508, 1554.00
1509, 1554.00
1510, 1557.00
1511, 1558.00
1512, 1557.00
1513, 1559.00
1514, 1560.00
1515, 1561.00
1516, 1563.00
1517, 1562.00
1518, 1564.00
1519, 1566.00
1520, 1566.00
1521, 1568.00
1522, 1569.00
1523, 1570.00
1524, 1571.00
1525, 1572.00
1526, 1573.00
1527, 1575.00
1528, 1575.00
1529, 1576.00
1530, 1578.00
1531, 1579.00
1532, 1579.00
1533, 1580.00
1534, 1582.00
1535, 1583.00
1536, 1584.00
1537, 1586.00
1538, 1585.00
1539, 1588.00
1540, 1589.00
1541, 1590.00
1542, 1591.00
1543, 1592.00
1544, 1593.00
1545, 1594.00
1546, 1595.00
1547, 1597.00
1548, 1598.00
1549, 1599.00
1550, 1600.00
1551, 1601.00
1552, 1602.00
1553, 1603.00
1554, 1605.00
1555, 1605.00
1556, 1607.00
1557, 1609.00
1558, 1610.00
1559, 1612.00
1560, 1612.00
1561, 1613.00
1562, 1615.00
1563, 1616.00
1564, 1618.00
1565, 1618.00
1566, 1620.00
1567, 1622.00
1568, 1623.00
1569, 1623.00
1570, 1624.00
1571, 1626.00
1572, 1627.00
1573, 1628.00
1574, 1631.00
1575, 1631.00
1576, 1632.00
1577, 1633.00
1578, 1635.00
1579, 1635.00
1580, 1636.00
1581, 1639.00
1582, 1639.00
1583, 1640.00
1584, 1641.00
1585, 1643.00
1586, 1644.00
1587, 1646.00
1588, 1646.00
1589, 1647.00
1590, 1648.00
1591, 1649.00
1592, 1651.00
1593, 1651.00
1594, 1653.00
1595, 1653.00
1596, 1655.00
1597, 1657.00
1598, 1659.00
1599, 1658.00
1600, 1658.00
1601, 1661.00
1602, 1661.00
1603, 1663.00
1604, 1664.00
1605, 1665.00
1606, 1666.00
1607, 1668.00
1608, 1669.00
1609, 1670.00
1610, 1670.00
1611, 1674.00
1612, 1676.00
1613, 1675.00
1614, 1677.00
1615, 1679.00
1616, 1680.00
1617, 1682.00
1618, 1683.00
1619, 1685.00
1620, 1687.00
1621, 1687.00
1622, 1689.00
1623, 1690.00
1624, 1692.00
1625, 1694.00
1626, 1694.00
1627, 1696.00
1628, 1697.00
1629, 1699.00
1630, 1700.00
1631, 1701.00
1632, 1703.00
1633, 1705.00
1634, 1705.00
1635, 1707.00
1636, 1708.00
1637, 1710.00
1638, 1710.00
1639, 1711.00
1640, 1712.00
1641, 1713.00
1642, 1715.00
1643, 1716.00
1644, 1717.00
1645, 1718.00
1646, 1718.00
1647, 1721.00
1648, 1721.00
1649, 1724.00
1650, 1725.00

1750, 2178.00
1751, 2178.00
1752, 2176.00
1753, 2178.00
1754, 2177.00
1755, 2178.00
1756, 2178.00
1757, 2177.00
1758, 2177.00
1759, 2179.00
1760, 2177.00
1761, 2178.00
1762, 2177.00
1763, 2177.00
1764, 2177.00
1765, 2176.00
1766, 2176.00
1767, 2178.00
1768, 2177.00
1769, 2175.00
1770, 2174.00
1771, 2176.00
1772, 2176.00
1773, 2173.00
1774, 2174.00
1775, 2174.00
1776, 2175.00
1777, 2173.00
1778, 2173.00
1779, 2173.00
1780, 2171.00
1781, 2171.00
1782, 2169.00
1783, 2171.00
1784, 2171.00
1785, 2170.00
1786, 2168.00
1787, 2171.00
1788, 2168.00
1789, 2166.00
1790, 2169.00
1791, 2166.00
1792, 2167.00
1793, 2166.00
1794, 2165.00
1795, 2167.00
1796, 2164.00
1797, 2164.00
1798, 2166.00
1799, 2163.00
1800, 2165.00
1801, 2163.00
1802, 2162.00
1803, 2162.00
1804, 2160.00
1805, 2161.00
1806, 2162.00
1807, 2159.00
1808, 2160.00
1809, 2159.00
1810, 2158.00
1811, 2158.00
1812, 2157.00
1813, 2157.00
1814, 2157.00
1815, 2156.00
1816, 2157.00
1817, 2154.00
1818, 2152.00
1819, 2156.00
1820, 2154.00
1821, 2152.00
1822, 2151.00
1823, 2150.00
1824, 2151.00
1825, 2149.00
1826, 2147.00
1827, 2146.00
1828, 2145.00
1829, 2142.00
1830, 2143.00
1831, 2140.00
1832, 2140.00
1833, 2137.00
1834, 2136.00
1835, 2137.00
1836, 2133.00
1837, 2132.00
1838, 2131.00
1839, 2127.00
1840, 2126.00
1841, 2124.00
1842, 2121.00
1843, 2119.00
1844, 2117.00
1845, 2116.00
1846, 2113.00
1847, 2111.00
1848, 2108.00
1849, 2108.00
1850, 2105.00
1851, 2103.00
1852, 2102.00
1853, 2098.00
1854, 2095.00
1855, 2093.00
1856, 2093.00
1857, 2089.00
1858, 2086.00
1859, 2085.00
1860, 2084.00
1861, 2083.00
1862, 2080.00
1863, 2078.00
1864, 2076.00
1865, 2076.00
1866, 2073.00
1867, 2071.00
1868, 2069.00
1869, 2068.00
1870, 2069.00
1871, 2066.00
1872, 2063.00
1873, 2066.00
1874, 2063.00
1875, 2061.00
1876, 2060.00
1877, 2060.00
1878, 2059.00
1879, 2059.00
1880, 2056.00
1881, 2056.00
1882, 2055.00
1883, 2055.00
1884, 2053.00
1885, 2054.00
1886, 2051.00
1887, 2052.00
1888, 2052.00
1889, 2050.00
1890, 2049.00
1891, 2049.00
1892, 2049.00
1893, 2050.00
1894, 2047.00
1895, 2050.00
1896, 2049.00
1897, 2048.00
1898, 2048.00
1899, 2046.00
1900, 2046.00
1901, 2045.00
1902, 2046.00
1903, 2043.00
1904, 2045.00
1905, 2044.00
1906, 2043.00
1907, 2043.00
1908, 2043.00
1909, 2043.00
1910, 2043.00
1911, 2043.00
1912, 2043.00
1913, 2042.00
1914, 2043.00
1915, 2043.00
1916, 2040.00
1917, 2041.00
1918, 2042.00
1919, 2042.00
1920, 2043.00
1921, 2043.00
1922, 2044.00
1923, 2041.00
1924, 2039.00
1925, 2041.00
1926, 2042.00
1927, 2039.00
1928, 2042.00
1929, 2040.00
1930, 2042.00
1931, 2042.00
1932, 2042.00
1933, 2042.00
1934, 2043.00
1935, 2043.00
1936, 2043.00
1937, 2043.00
1938, 2043.00
1939, 2041.00
1940, 2043.00
1941, 2042.00
1942, 2043.00
1943, 2044.00
1944, 2043.00
1945, 2043.00
1946, 2046.00
1947, 2044.00
1948, 2046.00
1949, 2044.00
1950, 2045.00
1951, 2045.00
1952, 2047.00
1953, 2045.00
1954, 2046.00
1955, 2048.00
1956, 2049.00
1957, 2046.00
1958, 2050.00
1959, 2048.00
1960, 2050.00
1961, 2048.00
1962, 2049.00
1963, 2050.00
1964, 2051.00
1965, 2050.00
1966, 2052.00
1967, 2053.00
1968, 2053.00
1969, 2052.00
1970, 2053.00
1971, 2056.00
1972, 2054.00
1973, 2054.00
1974, 2054.00
1975, 2054.00
1976, 2056.00
1977, 2053.00
1978, 2057.00
1979, 2057.00
1980, 2057.00
1981, 2059.00
1982, 2060.00
1983, 2059.00
1984, 2058.00
1985, 2060.00
1986, 2063.00
1987, 2062.00
1988, 2061.00
1989, 2063.00
1990, 2065.00
1991, 2064.00
1992, 2064.00
1993, 2065.00
1994, 2064.00
1995, 2065.00
1996, 2067.00
1997, 2065.00
1998, 2067.00
1999, 2069.00
2000, 2069.00
2001, 2068.00
2002, 2068.00
2003, 2071.00
2004, 2072.00
2005, 2071.00
2006, 2070.00
2007, 2072.00
2008, 2073.00
2009, 2073.00
2010, 2074.00
2011, 2073.00
2012, 2075.00
2013, 2073.00
2014, 2076.00
2015, 2074.00
2016, 2075.00
2017, 2078.00
2018, 2078.00
2019, 2078.00
2020, 2079.00
2021, 2080.00
2022, 2078.00
2023, 2080.00
2024, 2079.00
2025, 2079.00
2026, 2082.00
2027, 2082.00
2028, 2084.00
2029, 2084.00
2030, 2085.00
2031, 2084.00
2032, 2088.00
2033, 2086.00
2034, 2088.00
2035, 2090.00
2036, 2088.00
2037, 2089.00
2038, 2086.00
2039, 2088.00
2040, 2091.00
2041, 2092.00
2042, 2093.00
2043, 2091.00
2044, 2093.00
2045, 2094.00
2046, 2095.00
2047, 2096.00
2048, 2095.00
2049, 2096.00
2050, 2099.00
2051, 2096.00
2052, 2100.00
2053, 2100.00
2054, 2102.00
2055, 2101.00
2056, 2103.00
2057, 2104.00
2058, 2104.00
2059, 2104.00
2060, 2106.00
2061, 2107.00
2062, 2105.00
2063, 2108.00
2064, 2109.00
2065, 2109.00
2066, 2112.00
2067, 2112.00
2068, 2112.00
2069, 2113.00
2070, 2113.00
2071, 2115.00
2072, 2116.00
2073, 2115.00
2074, 2115.00
2075, 2118.00
2076, 2117.00
2077, 2120.00
2078, 2120.00
2079, 2120.00
2080, 2123.00
2081, 2122.00
2082, 2123.00
2083, 2123.00
2084, 2123.00
2085, 2125.00
2086, 2124.00
2087, 2126.00
2088, 2127.00
2089, 2127.00
2090, 2129.00
2091, 2128.00
2092, 2128.00
2093, 2129.00
2094, 2129.00
2095, 2130.00
2096, 2132.00
2097, 2131.00
2098, 2132.00
2099, 2133.00
2100, 2133.00
2101, 2133.00
2102, 2133.00
2103, 2135.00
2104, 2136.00
2105, 2133.00
2106, 2137.00
2107, 2136.00
2108, 2137.00
2109, 2138.00
2110, 2136.00
2111, 2138.00
2112, 2138.00
2113, 2138.00
2114, 2139.00
2115, 2139.00
2116, 2141.00
2117, 2139.00
2118, 2141.00
2119, 2141.00
2120, 2139.00
2121, 2140.00
2122, 2141.00
2123, 2143.00
2124, 2140.00
2125, 2141.00
2126, 2141.00
2127, 2144.00
2128, 2141.00
2129, 2145.00
2130, 2144.00
2131, 2145.00
2132, 2144.00
2133, 2144.00
2134, 2144.00
2135, 2145.00
2136, 2145.00
2137, 2145.00
2138, 2146.00
2139, 2147.00
2140, 2147.00
2141, 2147.00
2142, 2149.00
2143, 2148.00
2144, 2149.00
2145, 2149.00
2146, 2148.00
2147, 2148.00
2148, 2150.00
2149, 2149.00
2150, 2149.00
