FW version: 24
Log Version: 3.0.3

General Info:
       Command/Macro Performed,            Timestamp,             Device ID, COM Port, UART/I2C, Test Name, Host Major, Host Minor, Host Revision, Host Git Commit
            Single_measurement,  2023_06_28_11_02_26,       Insight2_F4_xxx,    USB-C,      USB,          ,          0,          1,             1,      4031237645

Show Spectrometer Status:
l0_version, f4_version, battery_perc, battery_mVolt, accelerometer_temp, accelerometer_x, accelerometer_y, accelerometer_z, compass_temp, compass_x, compass_y, compass_z, lamp_0, lamp_1, gain_0, gain_1
        17,         24,           32,          1876,               5952,           65380,             488,           18608,            0,     65517,     65533,     18616,   2457,   2457,      1,      1

Temperature Statistic Info:
NTC AVG [°C], NTC2 AVG [°C]
      36.807,        36.465

Statistic Info:
M1:  num,      min,      max,   median,      AVG,      STD,M2:  num,      min,      max,   median,      AVG,      STD
     301,  1041.00,  1204.00,  1076.00,  1094.95,  50.5754,     401,  1473.00,  1573.00,  1514.00,  1517.28,  32.8227,

Measurements:
Wavelength, Data Amplitude
1350, 1069.00
1351, 1069.00
1352, 1068.00
1353, 1068.00
1354, 1066.00
1355, 1066.00
1356, 1067.00
1357, 1065.00
1358, 1065.00
1359, 1064.00
1360, 1064.00
1361, 1062.00
1362, 1063.00
1363, 1061.00
1364, 1060.00
1365, 1061.00
1366, 1058.00
1367, 1060.00
1368, 1059.00
1369, 1056.00
1370, 1057.00
1371, 1055.00
1372, 1055.00
1373, 1054.00
1374, 1055.00
1375, 1053.00
1376, 1051.00
1377, 1051.00
1378, 1050.00
1379, 1051.00
1380, 1049.00
1381, 1049.00
1382, 1049.00
1383, 1048.00
1384, 1049.00
1385, 1048.00
1386, 1046.00
1387, 1047.00
1388, 1046.00
1389, 1046.00
1390, 1046.00
1391, 1045.00
1392, 1045.00
1393, 1045.00
1394, 1045.00
1395, 1044.00
1396, 1044.00
1397, 1044.00
1398, 1044.00
1399, 1043.00
1400, 1043.00
1401, 1044.00
1402, 1043.00
1403, 1042.00
1404, 1043.00
1405, 1044.00
1406, 1043.00
1407, 1042.00
1408, 1043.00
1409, 1042.00
1410, 1044.00
1411, 1042.00
1412, 1043.00
1413, 1042.00
1414, 1042.00
1415, 1041.00
1416, 1043.00
1417, 1042.00
1418, 1042.00
1419, 1042.00
1420, 1042.00
1421, 1042.00
1422, 1041.00
1423, 1042.00
1424, 1043.00
1425, 1043.00
1426, 1043.00
1427, 1043.00
1428, 1043.00
1429, 1043.00
1430, 1043.00
1431, 1043.00
1432, 1044.00
1433, 1044.00
1434, 1043.00
1435, 1043.00
1436, 1044.00
1437, 1044.00
1438, 1045.00
1439, 1045.00
1440, 1045.00
1441, 1045.00
1442, 1045.00
1443, 1047.00
1444, 1046.00
1445, 1046.00
1446, 1046.00
1447, 1048.00
1448, 1046.00
1449, 1048.00
1450, 1048.00
1451, 1049.00
1452, 1049.00
1453, 1049.00
1454, 1049.00
1455, 1049.00
1456, 1050.00
1457, 1050.00
1458, 1051.00
1459, 1050.00
1460, 1052.00
1461, 1051.00
1462, 1051.00
1463, 1051.00
1464, 1053.00
1465, 1053.00
1466, 1054.00
1467, 1055.00
1468, 1056.00
1469, 1056.00
1470, 1056.00
1471, 1057.00
1472, 1057.00
1473, 1058.00
1474, 1058.00
1475, 1058.00
1476, 1060.00
1477, 1059.00
1478, 1061.00
1479, 1061.00
1480, 1062.00
1481, 1064.00
1482, 1064.00
1483, 1063.00
1484, 1064.00
1485, 1065.00
1486, 1065.00
1487, 1067.00
1488, 1067.00
1489, 1068.00
1490, 1068.00
1491, 1070.00
1492, 1070.00
1493, 1070.00
1494, 1071.00
1495, 1072.00
1496, 1073.00
1497, 1073.00
1498, 1074.00
1499, 1076.00
1500, 1075.00
1501, 1076.00
1502, 1077.00
1503, 1077.00
1504, 1078.00
1505, 1079.00
1506, 1080.00
1507, 1081.00
1508, 1082.00
1509, 1082.00
1510, 1082.00
1511, 1083.00
1512, 1084.00
1513, 1085.00
1514, 1086.00
1515, 1085.00
1516, 1087.00
1517, 1088.00
1518, 1089.00
1519, 1089.00
1520, 1090.00
1521, 1091.00
1522, 1092.00
1523, 1093.00
1524, 1093.00
1525, 1094.00
1526, 1095.00
1527, 1096.00
1528, 1097.00
1529, 1097.00
1530, 1098.00
1531, 1099.00
1532, 1099.00
1533, 1101.00
1534, 1101.00
1535, 1102.00
1536, 1104.00
1537, 1105.00
1538, 1105.00
1539, 1106.00
1540, 1107.00
1541, 1108.00
1542, 1108.00
1543, 1109.00
1544, 1110.00
1545, 1111.00
1546, 1110.00
1547, 1113.00
1548, 1114.00
1549, 1114.00
1550, 1114.00
1551, 1115.00
1552, 1116.00
1553, 1117.00
1554, 1117.00
1555, 1118.00
1556, 1119.00
1557, 1120.00
1558, 1122.00
1559, 1121.00
1560, 1123.00
1561, 1123.00
1562, 1124.00
1563, 1126.00
1564, 1126.00
1565, 1127.00
1566, 1128.00
1567, 1129.00
1568, 1129.00
1569, 1131.00
1570, 1132.00
1571, 1132.00
1572, 1133.00
1573, 1134.00
1574, 1135.00
1575, 1136.00
1576, 1137.00
1577, 1138.00
1578, 1139.00
1579, 1140.00
1580, 1140.00
1581, 1141.00
1582, 1143.00
1583, 1142.00
1584, 1144.00
1585, 1144.00
1586, 1145.00
1587, 1145.00
1588, 1146.00
1589, 1148.00
1590, 1149.00
1591, 1149.00
1592, 1150.00
1593, 1151.00
1594, 1152.00
1595, 1153.00
1596, 1153.00
1597, 1154.00
1598, 1155.00
1599, 1155.00
1600, 1156.00
1601, 1157.00
1602, 1159.00
1603, 1159.00
1604, 1160.00
1605, 1161.00
1606, 1162.00
1607, 1164.00
1608, 1164.00
1609, 1165.00
1610, 1166.00
1611, 1167.00
1612, 1168.00
1613, 1169.00
1614, 1170.00
1615, 1172.00
1616, 1172.00
1617, 1174.00
1618, 1174.00
1619, 1175.00
1620, 1176.00
1621, 1178.00
1622, 1178.00
1623, 1180.00
1624, 1180.00
1625, 1182.00
1626, 1183.00
1627, 1185.00
1628, 1186.00
1629, 1186.00
1630, 1186.00
1631, 1188.00
1632, 1189.00
1633, 1189.00
1634, 1190.00
1635, 1192.00
1636, 1192.00
1637, 1192.00
1638, 1194.00
1639, 1195.00
1640, 1196.00
1641, 1196.00
1642, 1197.00
1643, 1198.00
1644, 1200.00
1645, 1199.00
1646, 1200.00
1647, 1201.00
1648, 1203.00
1649, 1204.00
1650, 1204.00

1750, 1570.00
1751, 1571.00
1752, 1571.00
1753, 1570.00
1754, 1571.00
1755, 1571.00
1756, 1571.00
1757, 1571.00
1758, 1571.00
1759, 1570.00
1760, 1572.00
1761, 1572.00
1762, 1570.00
1763, 1573.00
1764, 1570.00
1765, 1571.00
1766, 1571.00
1767, 1571.00
1768, 1569.00
1769, 1571.00
1770, 1569.00
1771, 1571.00
1772, 1571.00
1773, 1570.00
1774, 1569.00
1775, 1569.00
1776, 1569.00
1777, 1568.00
1778, 1569.00
1779, 1568.00
1780, 1567.00
1781, 1566.00
1782, 1567.00
1783, 1566.00
1784, 1568.00
1785, 1567.00
1786, 1564.00
1787, 1565.00
1788, 1565.00
1789, 1563.00
1790, 1564.00
1791, 1564.00
1792, 1564.00
1793, 1563.00
1794, 1563.00
1795, 1564.00
1796, 1564.00
1797, 1562.00
1798, 1563.00
1799, 1561.00
1800, 1561.00
1801, 1559.00
1802, 1562.00
1803, 1559.00
1804, 1559.00
1805, 1561.00
1806, 1561.00
1807, 1560.00
1808, 1558.00
1809, 1558.00
1810, 1557.00
1811, 1557.00
1812, 1558.00
1813, 1556.00
1814, 1558.00
1815, 1557.00
1816, 1556.00
1817, 1555.00
1818, 1554.00
1819, 1553.00
1820, 1554.00
1821, 1552.00
1822, 1553.00
1823, 1552.00
1824, 1550.00
1825, 1552.00
1826, 1552.00
1827, 1550.00
1828, 1547.00
1829, 1546.00
1830, 1547.00
1831, 1547.00
1832, 1544.00
1833, 1544.00
1834, 1542.00
1835, 1542.00
1836, 1541.00
1837, 1538.00
1838, 1537.00
1839, 1538.00
1840, 1536.00
1841, 1533.00
1842, 1532.00
1843, 1530.00
1844, 1530.00
1845, 1528.00
1846, 1526.00
1847, 1525.00
1848, 1523.00
1849, 1522.00
1850, 1521.00
1851, 1518.00
1852, 1518.00
1853, 1515.00
1854, 1514.00
1855, 1512.00
1856, 1512.00
1857, 1511.00
1858, 1508.00
1859, 1506.00
1860, 1506.00
1861, 1503.00
1862, 1502.00
1863, 1500.00
1864, 1500.00
1865, 1499.00
1866, 1497.00
1867, 1496.00
1868, 1493.00
1869, 1493.00
1870, 1492.00
1871, 1491.00
1872, 1491.00
1873, 1489.00
1874, 1491.00
1875, 1488.00
1876, 1490.00
1877, 1486.00
1878, 1486.00
1879, 1486.00
1880, 1485.00
1881, 1483.00
1882, 1484.00
1883, 1483.00
1884, 1483.00
1885, 1481.00
1886, 1483.00
1887, 1481.00
1888, 1480.00
1889, 1480.00
1890, 1479.00
1891, 1479.00
1892, 1481.00
1893, 1479.00
1894, 1480.00
1895, 1477.00
1896, 1477.00
1897, 1479.00
1898, 1477.00
1899, 1477.00
1900, 1477.00
1901, 1477.00
1902, 1476.00
1903, 1476.00
1904, 1476.00
1905, 1476.00
1906, 1474.00
1907, 1474.00
1908, 1477.00
1909, 1475.00
1910, 1474.00
1911, 1475.00
1912, 1474.00
1913, 1475.00
1914, 1475.00
1915, 1474.00
1916, 1474.00
1917, 1473.00
1918, 1473.00
1919, 1474.00
1920, 1473.00
1921, 1474.00
1922, 1474.00
1923, 1475.00
1924, 1474.00
1925, 1475.00
1926, 1474.00
1927, 1474.00
1928, 1474.00
1929, 1473.00
1930, 1475.00
1931, 1474.00
1932, 1475.00
1933, 1475.00
1934, 1474.00
1935, 1474.00
1936, 1475.00
1937, 1473.00
1938, 1473.00
1939, 1473.00
1940, 1475.00
1941, 1474.00
1942, 1475.00
1943, 1475.00
1944, 1475.00
1945, 1475.00
1946, 1477.00
1947, 1475.00
1948, 1476.00
1949, 1475.00
1950, 1475.00
1951, 1476.00
1952, 1477.00
1953, 1475.00
1954, 1479.00
1955, 1478.00
1956, 1477.00
1957, 1477.00
1958, 1478.00
1959, 1479.00
1960, 1478.00
1961, 1479.00
1962, 1480.00
1963, 1480.00
1964, 1478.00
1965, 1479.00
1966, 1482.00
1967, 1481.00
1968, 1480.00
1969, 1480.00
1970, 1481.00
1971, 1481.00
1972, 1482.00
1973, 1482.00
1974, 1484.00
1975, 1482.00
1976, 1483.00
1977, 1484.00
1978, 1485.00
1979, 1485.00
1980, 1487.00
1981, 1485.00
1982, 1484.00
1983, 1486.00
1984, 1486.00
1985, 1487.00
1986, 1487.00
1987, 1489.00
1988, 1487.00
1989, 1489.00
1990, 1486.00
1991, 1489.00
1992, 1490.00
1993, 1490.00
1994, 1490.00
1995, 1490.00
1996, 1491.00
1997, 1492.00
1998, 1491.00
1999, 1491.00
2000, 1492.00
2001, 1493.00
2002, 1493.00
2003, 1493.00
2004, 1491.00
2005, 1494.00
2006, 1494.00
2007, 1493.00
2008, 1495.00
2009, 1495.00
2010, 1495.00
2011, 1497.00
2012, 1497.00
2013, 1497.00
2014, 1497.00
2015, 1497.00
2016, 1498.00
2017, 1498.00
2018, 1499.00
2019, 1498.00
2020, 1501.00
2021, 1500.00
2022, 1500.00
2023, 1500.00
2024, 1501.00
2025, 1502.00
2026, 1503.00
2027, 1501.00
2028, 1501.00
2029, 1503.00
2030, 1501.00
2031, 1504.00
2032, 1504.00
2033, 1505.00
2034, 1505.00
2035, 1503.00
2036, 1505.00
2037, 1504.00
2038, 1505.00
2039, 1508.00
2040, 1507.00
2041, 1508.00
2042, 1511.00
2043, 1508.00
2044, 1511.00
2045, 1511.00
2046, 1510.00
2047, 1512.00
2048, 1510.00
2049, 1512.00
2050, 1512.00
2051, 1512.00
2052, 1513.00
2053, 1514.00
2054, 1514.00
2055, 1513.00
2056, 1515.00
2057, 1518.00
2058, 1517.00
2059, 1517.00
2060, 1518.00
2061, 1519.00
2062, 1521.00
2063, 1520.00
2064, 1518.00
2065, 1521.00
2066, 1521.00
2067, 1523.00
2068, 1524.00
2069, 1525.00
2070, 1525.00
2071, 1523.00
2072, 1526.00
2073, 1525.00
2074, 1527.00
2075, 1527.00
2076, 1528.00
2077, 1527.00
2078, 1529.00
2079, 1529.00
2080, 1529.00
2081, 1530.00
2082, 1531.00
2083, 1530.00
2084, 1533.00
2085, 1532.00
2086, 1533.00
2087, 1532.00
2088, 1533.00
2089, 1533.00
2090, 1533.00
2091, 1535.00
2092, 1535.00
2093, 1535.00
2094, 1535.00
2095, 1537.00
2096, 1537.00
2097, 1537.00
2098, 1538.00
2099, 1540.00
2100, 1538.00
2101, 1538.00
2102, 1539.00
2103, 1540.00
2104, 1539.00
2105, 1539.00
2106, 1539.00
2107, 1539.00
2108, 1541.00
2109, 1542.00
2110, 1541.00
2111, 1541.00
2112, 1541.00
2113, 1543.00
2114, 1542.00
2115, 1543.00
2116, 1542.00
2117, 1541.00
2118, 1543.00
2119, 1545.00
2120, 1545.00
2121, 1544.00
2122, 1546.00
2123, 1545.00
2124, 1547.00
2125, 1544.00
2126, 1545.00
2127, 1545.00
2128, 1545.00
2129, 1546.00
2130, 1547.00
2131, 1545.00
2132, 1546.00
2133, 1547.00
2134, 1548.00
2135, 1546.00
2136, 1547.00
2137, 1547.00
2138, 1547.00
2139, 1548.00
2140, 1550.00
2141, 1549.00
2142, 1547.00
2143, 1548.00
2144, 1549.00
2145, 1550.00
2146, 1551.00
2147, 1548.00
2148, 1549.00
2149, 1551.00
2150, 1550.00
