FW version: 24
Log Version: 3.0.3

General Info:
       Command/Macro Performed,            Timestamp,             Device ID, COM Port, UART/I2C, Test Name, Host Major, Host Minor, Host Revision, Host Git Commit
            Single_measurement,  2023_06_28_11_01_56,       Insight2_F4_xxx,    USB-C,      USB,          ,          0,          1,             1,      4031237645

Show Spectrometer Status:
l0_version, f4_version, battery_perc, battery_mVolt, accelerometer_temp, accelerometer_x, accelerometer_y, accelerometer_z, compass_temp, compass_x, compass_y, compass_z, lamp_0, lamp_1, gain_0, gain_1
        17,         24,           32,          1876,               5888,           65388,             484,           18592,            0,     65519,     65525,     18613,   3276,   3276,      0,      0

Temperature Statistic Info:
NTC AVG [°C], NTC2 AVG [°C]
      36.551,        36.236

Statistic Info:
M1:  num,      min,      max,   median,      AVG,      STD,M2:  num,      min,      max,   median,      AVG,      STD
     301,   628.00,   719.00,   645.00,   657.38,  28.2766,     401,   822.00,   878.00,   845.00,   846.46,  18.1678,

Measurements:
Wavelength, Data Amplitude
1350, 645.00
1351, 645.00
1352, 644.00
1353, 644.00
1354, 644.00
1355, 643.00
1356, 643.00
1357, 643.00
1358, 643.00
1359, 642.00
1360, 642.00
1361, 641.00
1362, 641.00
1363, 641.00
1364, 640.00
1365, 640.00
1366, 639.00
1367, 639.00
1368, 638.00
1369, 638.00
1370, 638.00
1371, 637.00
1372, 637.00
1373, 636.00
1374, 636.00
1375, 635.00
1376, 635.00
1377, 635.00
1378, 634.00
1379, 634.00
1380, 633.00
1381, 633.00
1382, 633.00
1383, 632.00
1384, 632.00
1385, 632.00
1386, 632.00
1387, 631.00
1388, 631.00
1389, 631.00
1390, 630.00
1391, 630.00
1392, 630.00
1393, 630.00
1394, 630.00
1395, 630.00
1396, 630.00
1397, 629.00
1398, 630.00
1399, 629.00
1400, 629.00
1401, 629.00
1402, 629.00
1403, 628.00
1404, 628.00
1405, 629.00
1406, 628.00
1407, 628.00
1408, 628.00
1409, 628.00
1410, 628.00
1411, 628.00
1412, 628.00
1413, 628.00
1414, 628.00
1415, 628.00
1416, 628.00
1417, 628.00
1418, 628.00
1419, 628.00
1420, 628.00
1421, 628.00
1422, 628.00
1423, 628.00
1424, 628.00
1425, 628.00
1426, 628.00
1427, 628.00
1428, 628.00
1429, 628.00
1430, 628.00
1431, 628.00
1432, 628.00
1433, 628.00
1434, 628.00
1435, 629.00
1436, 629.00
1437, 629.00
1438, 629.00
1439, 629.00
1440, 629.00
1441, 629.00
1442, 629.00
1443, 629.00
1444, 630.00
1445, 630.00
1446, 630.00
1447, 630.00
1448, 631.00
1449, 630.00
1450, 631.00
1451, 631.00
1452, 631.00
1453, 631.00
1454, 632.00
1455, 632.00
1456, 632.00
1457, 632.00
1458, 632.00
1459, 632.00
1460, 633.00
1461, 633.00
1462, 632.00
1463, 633.00
1464, 633.00
1465, 634.00
1466, 634.00
1467, 634.00
1468, 635.00
1469, 635.00
1470, 635.00
1471, 636.00
1472, 636.00
1473, 636.00
1474, 636.00
1475, 636.00
1476, 637.00
1477, 637.00
1478, 637.00
1479, 639.00
1480, 638.00
1481, 639.00
1482, 639.00
1483, 640.00
1484, 640.00
1485, 640.00
1486, 640.00
1487, 641.00
1488, 641.00
1489, 641.00
1490, 642.00
1491, 642.00
1492, 643.00
1493, 643.00
1494, 643.00
1495, 643.00
1496, 644.00
1497, 645.00
1498, 645.00
1499, 645.00
1500, 645.00
1501, 646.00
1502, 646.00
1503, 647.00
1504, 647.00
1505, 647.00
1506, 648.00
1507, 648.00
1508, 649.00
1509, 649.00
1510, 649.00
1511, 650.00
1512, 650.00
1513, 651.00
1514, 651.00
1515, 652.00
1516, 652.00
1517, 652.00
1518, 653.00
1519, 653.00
1520, 653.00
1521, 654.00
1522, 654.00
1523, 655.00
1524, 656.00
1525, 656.00
1526, 657.00
1527, 657.00
1528, 658.00
1529, 657.00
1530, 658.00
1531, 659.00
1532, 659.00
1533, 660.00
1534, 660.00
1535, 661.00
1536, 661.00
1537, 662.00
1538, 662.00
1539, 663.00
1540, 663.00
1541, 664.00
1542, 664.00
1543, 664.00
1544, 664.00
1545, 665.00
1546, 666.00
1547, 666.00
1548, 666.00
1549, 667.00
1550, 668.00
1551, 668.00
1552, 669.00
1553, 669.00
1554, 669.00
1555, 670.00
1556, 670.00
1557, 671.00
1558, 672.00
1559, 672.00
1560, 672.00
1561, 673.00
1562, 674.00
1563, 674.00
1564, 674.00
1565, 675.00
1566, 676.00
1567, 676.00
1568, 677.00
1569, 677.00
1570, 678.00
1571, 678.00
1572, 679.00
1573, 679.00
1574, 680.00
1575, 680.00
1576, 681.00
1577, 681.00
1578, 682.00
1579, 682.00
1580, 683.00
1581, 683.00
1582, 684.00
1583, 684.00
1584, 685.00
1585, 685.00
1586, 686.00
1587, 686.00
1588, 686.00
1589, 687.00
1590, 688.00
1591, 688.00
1592, 688.00
1593, 689.00
1594, 689.00
1595, 690.00
1596, 691.00
1597, 691.00
1598, 691.00
1599, 692.00
1600, 692.00
1601, 693.00
1602, 693.00
1603, 694.00
1604, 694.00
1605, 695.00
1606, 695.00
1607, 696.00
1608, 696.00
1609, 697.00
1610, 697.00
1611, 698.00
1612, 699.00
1613, 699.00
1614, 700.00
1615, 700.00
1616, 701.00
1617, 701.00
1618, 702.00
1619, 703.00
1620, 703.00
1621, 704.00
1622, 704.00
1623, 705.00
1624, 705.00
1625, 706.00
1626, 707.00
1627, 707.00
1628, 708.00
1629, 708.00
1630, 709.00
1631, 710.00
1632, 710.00
1633, 711.00
1634, 711.00
1635, 712.00
1636, 712.00
1637, 713.00
1638, 712.00
1639, 714.00
1640, 714.00
1641, 714.00
1642, 715.00
1643, 715.00
1644, 716.00
1645, 716.00
1646, 717.00
1647, 717.00
1648, 718.00
1649, 718.00
1650, 719.00

1750, 878.00
1751, 877.00
1752, 877.00
1753, 878.00
1754, 877.00
1755, 878.00
1756, 878.00
1757, 877.00
1758, 878.00
1759, 877.00
1760, 877.00
1761, 878.00
1762, 878.00
1763, 877.00
1764, 877.00
1765, 877.00
1766, 877.00
1767, 877.00
1768, 876.00
1769, 877.00
1770, 876.00
1771, 876.00
1772, 877.00
1773, 876.00
1774, 877.00
1775, 876.00
1776, 876.00
1777, 875.00
1778, 876.00
1779, 875.00
1780, 876.00
1781, 875.00
1782, 875.00
1783, 874.00
1784, 875.00
1785, 874.00
1786, 875.00
1787, 874.00
1788, 874.00
1789, 873.00
1790, 874.00
1791, 873.00
1792, 873.00
1793, 873.00
1794, 873.00
1795, 873.00
1796, 873.00
1797, 872.00
1798, 872.00
1799, 872.00
1800, 871.00
1801, 872.00
1802, 871.00
1803, 871.00
1804, 871.00
1805, 870.00
1806, 870.00
1807, 870.00
1808, 870.00
1809, 870.00
1810, 870.00
1811, 870.00
1812, 869.00
1813, 869.00
1814, 869.00
1815, 868.00
1816, 868.00
1817, 868.00
1818, 868.00
1819, 868.00
1820, 868.00
1821, 867.00
1822, 867.00
1823, 866.00
1824, 865.00
1825, 865.00
1826, 865.00
1827, 865.00
1828, 864.00
1829, 864.00
1830, 863.00
1831, 862.00
1832, 862.00
1833, 861.00
1834, 861.00
1835, 860.00
1836, 860.00
1837, 859.00
1838, 858.00
1839, 857.00
1840, 857.00
1841, 855.00
1842, 855.00
1843, 854.00
1844, 853.00
1845, 853.00
1846, 852.00
1847, 851.00
1848, 850.00
1849, 849.00
1850, 848.00
1851, 848.00
1852, 847.00
1853, 846.00
1854, 844.00
1855, 844.00
1856, 844.00
1857, 842.00
1858, 842.00
1859, 841.00
1860, 840.00
1861, 839.00
1862, 838.00
1863, 838.00
1864, 837.00
1865, 836.00
1866, 836.00
1867, 834.00
1868, 835.00
1869, 834.00
1870, 834.00
1871, 833.00
1872, 832.00
1873, 832.00
1874, 832.00
1875, 831.00
1876, 831.00
1877, 830.00
1878, 830.00
1879, 830.00
1880, 829.00
1881, 829.00
1882, 828.00
1883, 828.00
1884, 828.00
1885, 827.00
1886, 828.00
1887, 827.00
1888, 826.00
1889, 827.00
1890, 826.00
1891, 826.00
1892, 826.00
1893, 826.00
1894, 826.00
1895, 825.00
1896, 826.00
1897, 825.00
1898, 826.00
1899, 824.00
1900, 825.00
1901, 824.00
1902, 824.00
1903, 824.00
1904, 824.00
1905, 823.00
1906, 824.00
1907, 824.00
1908, 823.00
1909, 823.00
1910, 824.00
1911, 824.00
1912, 824.00
1913, 824.00
1914, 823.00
1915, 823.00
1916, 823.00
1917, 823.00
1918, 823.00
1919, 823.00
1920, 823.00
1921, 823.00
1922, 823.00
1923, 823.00
1924, 823.00
1925, 823.00
1926, 822.00
1927, 823.00
1928, 822.00
1929, 823.00
1930, 822.00
1931, 823.00
1932, 822.00
1933, 822.00
1934, 823.00
1935, 823.00
1936, 823.00
1937, 823.00
1938, 823.00
1939, 823.00
1940, 823.00
1941, 823.00
1942, 823.00
1943, 823.00
1944, 824.00
1945, 823.00
1946, 823.00
1947, 824.00
1948, 824.00
1949, 824.00
1950, 824.00
1951, 824.00
1952, 824.00
1953, 824.00
1954, 824.00
1955, 824.00
1956, 824.00
1957, 824.00
1958, 825.00
1959, 824.00
1960, 825.00
1961, 825.00
1962, 826.00
1963, 825.00
1964, 825.00
1965, 826.00
1966, 826.00
1967, 826.00
1968, 826.00
1969, 827.00
1970, 827.00
1971, 827.00
1972, 827.00
1973, 827.00
1974, 827.00
1975, 827.00
1976, 828.00
1977, 828.00
1978, 828.00
1979, 828.00
1980, 829.00
1981, 828.00
1982, 829.00
1983, 829.00
1984, 829.00
1985, 829.00
1986, 830.00
1987, 830.00
1988, 830.00
1989, 830.00
1990, 830.00
1991, 831.00
1992, 831.00
1993, 831.00
1994, 831.00
1995, 831.00
1996, 832.00
1997, 831.00
1998, 832.00
1999, 832.00
2000, 833.00
2001, 833.00
2002, 833.00
2003, 833.00
2004, 832.00
2005, 833.00
2006, 834.00
2007, 834.00
2008, 834.00
2009, 834.00
2010, 835.00
2011, 834.00
2012, 835.00
2013, 835.00
2014, 835.00
2015, 836.00
2016, 836.00
2017, 836.00
2018, 836.00
2019, 836.00
2020, 836.00
2021, 837.00
2022, 837.00
2023, 837.00
2024, 837.00
2025, 837.00
2026, 837.00
2027, 838.00
2028, 837.00
2029, 839.00
2030, 838.00
2031, 838.00
2032, 839.00
2033, 839.00
2034, 839.00
2035, 840.00
2036, 840.00
2037, 840.00
2038, 840.00
2039, 841.00
2040, 841.00
2041, 841.00
2042, 842.00
2043, 841.00
2044, 842.00
2045, 843.00
2046, 842.00
2047, 842.00
2048, 843.00
2049, 843.00
2050, 844.00
2051, 844.00
2052, 844.00
2053, 844.00
2054, 845.00
2055, 845.00
2056, 845.00
2057, 845.00
2058, 846.00
2059, 846.00
2060, 847.00
2061, 847.00
2062, 847.00
2063, 847.00
2064, 848.00
2065, 848.00
2066, 848.00
2067, 848.00
2068, 849.00
2069, 849.00
2070, 849.00
2071, 850.00
2072, 849.00
2073, 850.00
2074, 850.00
2075, 851.00
2076, 852.00
2077, 851.00
2078, 852.00
2079, 852.00
2080, 853.00
2081, 853.00
2082, 853.00
2083, 853.00
2084, 853.00
2085, 853.00
2086, 854.00
2087, 854.00
2088, 854.00
2089, 854.00
2090, 855.00
2091, 855.00
2092, 855.00
2093, 856.00
2094, 855.00
2095, 856.00
2096, 856.00
2097, 856.00
2098, 857.00
2099, 857.00
2100, 857.00
2101, 857.00
2102, 857.00
2103, 857.00
2104, 857.00
2105, 859.00
2106, 858.00
2107, 858.00
2108, 858.00
2109, 859.00
2110, 858.00
2111, 859.00
2112, 858.00
2113, 859.00
2114, 859.00
2115, 860.00
2116, 859.00
2117, 860.00
2118, 860.00
2119, 860.00
2120, 860.00
2121, 860.00
2122, 860.00
2123, 861.00
2124, 860.00
2125, 860.00
2126, 861.00
2127, 861.00
2128, 861.00
2129, 861.00
2130, 861.00
2131, 861.00
2132, 861.00
2133, 861.00
2134, 861.00
2135, 862.00
2136, 861.00
2137, 861.00
2138, 862.00
2139, 861.00
2140, 862.00
2141, 862.00
2142, 862.00
2143, 863.00
2144, 863.00
2145, 863.00
2146, 863.00
2147, 863.00
2148, 863.00
2149, 863.00
2150, 863.00
