FW version: 24
Log Version: 3.0.3

General Info:
       Command/Macro Performed,            Timestamp,             Device ID, COM Port, UART/I2C, Test Name, Host Major, Host Minor, Host Revision, Host Git Commit
            Single_measurement,  2023_06_28_11_02_15,       Insight2_F4_xxx,    USB-C,      USB,          ,          0,          1,             1,      4031237645

Show Spectrometer Status:
l0_version, f4_version, battery_perc, battery_mVolt, accelerometer_temp, accelerometer_x, accelerometer_y, accelerometer_z, compass_temp, compass_x, compass_y, compass_z, lamp_0, lamp_1, gain_0, gain_1
        17,         24,           32,          1874,               5904,           65428,             492,           18692,            0,     65438,     65534,     18708,   2047,   2047,      1,      1

Temperature Statistic Info:
NTC AVG [°C], NTC2 AVG [°C]
      36.722,        36.351

Statistic Info:
M1:  num,      min,      max,   median,      AVG,      STD,M2:  num,      min,      max,   median,      AVG,      STD
     301,   721.00,   836.00,   746.00,   759.62,  36.4334,     401,  1071.00,  1145.00,  1104.00,  1105.46,  24.2126,

Measurements:
Wavelength, Data Amplitude
1350, 739.00
1351, 739.00
1352, 738.00
1353, 738.00
1354, 736.00
1355, 737.00
1356, 737.00
1357, 737.00
1358, 736.00
1359, 737.00
1360, 736.00
1361, 735.00
1362, 735.00
1363, 734.00
1364, 733.00
1365, 733.00
1366, 732.00
1367, 733.00
1368, 732.00
1369, 730.00
1370, 731.00
1371, 730.00
1372, 730.00
1373, 729.00
1374, 729.00
1375, 729.00
1376, 727.00
1377, 727.00
1378, 727.00
1379, 726.00
1380, 726.00
1381, 726.00
1382, 726.00
1383, 725.00
1384, 726.00
1385, 724.00
1386, 724.00
1387, 724.00
1388, 724.00
1389, 724.00
1390, 723.00
1391, 723.00
1392, 724.00
1393, 723.00
1394, 722.00
1395, 723.00
1396, 723.00
1397, 722.00
1398, 723.00
1399, 721.00
1400, 722.00
1401, 721.00
1402, 722.00
1403, 721.00
1404, 722.00
1405, 722.00
1406, 721.00
1407, 721.00
1408, 721.00
1409, 722.00
1410, 721.00
1411, 722.00
1412, 721.00
1413, 722.00
1414, 721.00
1415, 721.00
1416, 721.00
1417, 721.00
1418, 722.00
1419, 721.00
1420, 721.00
1421, 721.00
1422, 721.00
1423, 721.00
1424, 722.00
1425, 721.00
1426, 721.00
1427, 722.00
1428, 722.00
1429, 722.00
1430, 721.00
1431, 722.00
1432, 722.00
1433, 723.00
1434, 723.00
1435, 723.00
1436, 723.00
1437, 723.00
1438, 723.00
1439, 724.00
1440, 724.00
1441, 723.00
1442, 724.00
1443, 725.00
1444, 724.00
1445, 724.00
1446, 725.00
1447, 725.00
1448, 725.00
1449, 725.00
1450, 726.00
1451, 726.00
1452, 726.00
1453, 726.00
1454, 726.00
1455, 728.00
1456, 727.00
1457, 728.00
1458, 728.00
1459, 729.00
1460, 729.00
1461, 729.00
1462, 729.00
1463, 729.00
1464, 730.00
1465, 730.00
1466, 731.00
1467, 730.00
1468, 730.00
1469, 732.00
1470, 732.00
1471, 732.00
1472, 733.00
1473, 733.00
1474, 733.00
1475, 734.00
1476, 735.00
1477, 735.00
1478, 735.00
1479, 735.00
1480, 736.00
1481, 737.00
1482, 737.00
1483, 737.00
1484, 739.00
1485, 738.00
1486, 739.00
1487, 740.00
1488, 740.00
1489, 740.00
1490, 742.00
1491, 743.00
1492, 742.00
1493, 743.00
1494, 744.00
1495, 744.00
1496, 744.00
1497, 745.00
1498, 746.00
1499, 746.00
1500, 747.00
1501, 746.00
1502, 748.00
1503, 749.00
1504, 748.00
1505, 749.00
1506, 749.00
1507, 750.00
1508, 752.00
1509, 751.00
1510, 751.00
1511, 753.00
1512, 753.00
1513, 754.00
1514, 754.00
1515, 755.00
1516, 755.00
1517, 755.00
1518, 756.00
1519, 756.00
1520, 758.00
1521, 758.00
1522, 758.00
1523, 758.00
1524, 760.00
1525, 760.00
1526, 761.00
1527, 761.00
1528, 762.00
1529, 763.00
1530, 763.00
1531, 763.00
1532, 765.00
1533, 765.00
1534, 766.00
1535, 766.00
1536, 767.00
1537, 768.00
1538, 769.00
1539, 769.00
1540, 769.00
1541, 770.00
1542, 769.00
1543, 771.00
1544, 771.00
1545, 772.00
1546, 772.00
1547, 773.00
1548, 774.00
1549, 774.00
1550, 775.00
1551, 775.00
1552, 776.00
1553, 776.00
1554, 776.00
1555, 777.00
1556, 778.00
1557, 780.00
1558, 779.00
1559, 780.00
1560, 780.00
1561, 782.00
1562, 782.00
1563, 782.00
1564, 783.00
1565, 784.00
1566, 784.00
1567, 785.00
1568, 785.00
1569, 786.00
1570, 787.00
1571, 788.00
1572, 789.00
1573, 788.00
1574, 789.00
1575, 790.00
1576, 791.00
1577, 790.00
1578, 792.00
1579, 792.00
1580, 793.00
1581, 793.00
1582, 793.00
1583, 794.00
1584, 795.00
1585, 795.00
1586, 796.00
1587, 797.00
1588, 797.00
1589, 797.00
1590, 798.00
1591, 799.00
1592, 800.00
1593, 800.00
1594, 800.00
1595, 801.00
1596, 802.00
1597, 802.00
1598, 803.00
1599, 803.00
1600, 804.00
1601, 805.00
1602, 806.00
1603, 807.00
1604, 808.00
1605, 808.00
1606, 809.00
1607, 809.00
1608, 809.00
1609, 810.00
1610, 810.00
1611, 812.00
1612, 812.00
1613, 813.00
1614, 814.00
1615, 815.00
1616, 815.00
1617, 817.00
1618, 816.00
1619, 817.00
1620, 818.00
1621, 818.00
1622, 819.00
1623, 820.00
1624, 820.00
1625, 822.00
1626, 823.00
1627, 823.00
1628, 824.00
1629, 824.00
1630, 826.00
1631, 826.00
1632, 826.00
1633, 828.00
1634, 828.00
1635, 829.00
1636, 828.00
1637, 829.00
1638, 830.00
1639, 830.00
1640, 831.00
1641, 831.00
1642, 832.00
1643, 833.00
1644, 833.00
1645, 834.00
1646, 833.00
1647, 834.00
1648, 834.00
1649, 835.00
1650, 836.00

1750, 1145.00
1751, 1145.00
1752, 1144.00
1753, 1144.00
1754, 1145.00
1755, 1142.00
1756, 1145.00
1757, 1145.00
1758, 1144.00
1759, 1144.00
1760, 1143.00
1761, 1145.00
1762, 1145.00
1763, 1144.00
1764, 1143.00
1765, 1143.00
1766, 1143.00
1767, 1143.00
1768, 1144.00
1769, 1143.00
1770, 1143.00
1771, 1143.00
1772, 1143.00
1773, 1144.00
1774, 1143.00
1775, 1142.00
1776, 1143.00
1777, 1141.00
1778, 1142.00
1779, 1144.00
1780, 1142.00
1781, 1141.00
1782, 1142.00
1783, 1141.00
1784, 1140.00
1785, 1139.00
1786, 1141.00
1787, 1141.00
1788, 1140.00
1789, 1139.00
1790, 1138.00
1791, 1140.00
1792, 1139.00
1793, 1139.00
1794, 1139.00
1795, 1137.00
1796, 1137.00
1797, 1137.00
1798, 1136.00
1799, 1137.00
1800, 1137.00
1801, 1134.00
1802, 1136.00
1803, 1135.00
1804, 1137.00
1805, 1136.00
1806, 1136.00
1807, 1136.00
1808, 1135.00
1809, 1136.00
1810, 1134.00
1811, 1134.00
1812, 1134.00
1813, 1136.00
1814, 1133.00
1815, 1133.00
1816, 1134.00
1817, 1132.00
1818, 1132.00
1819, 1132.00
1820, 1131.00
1821, 1131.00
1822, 1131.00
1823, 1130.00
1824, 1130.00
1825, 1128.00
1826, 1129.00
1827, 1127.00
1828, 1128.00
1829, 1127.00
1830, 1127.00
1831, 1127.00
1832, 1125.00
1833, 1123.00
1834, 1123.00
1835, 1122.00
1836, 1122.00
1837, 1118.00
1838, 1120.00
1839, 1119.00
1840, 1118.00
1841, 1117.00
1842, 1116.00
1843, 1115.00
1844, 1115.00
1845, 1112.00
1846, 1111.00
1847, 1109.00
1848, 1108.00
1849, 1108.00
1850, 1106.00
1851, 1106.00
1852, 1107.00
1853, 1103.00
1854, 1103.00
1855, 1100.00
1856, 1100.00
1857, 1098.00
1858, 1096.00
1859, 1096.00
1860, 1097.00
1861, 1095.00
1862, 1092.00
1863, 1094.00
1864, 1091.00
1865, 1089.00
1866, 1090.00
1867, 1091.00
1868, 1088.00
1869, 1088.00
1870, 1086.00
1871, 1086.00
1872, 1087.00
1873, 1084.00
1874, 1085.00
1875, 1082.00
1876, 1083.00
1877, 1083.00
1878, 1081.00
1879, 1082.00
1880, 1081.00
1881, 1080.00
1882, 1080.00
1883, 1079.00
1884, 1081.00
1885, 1078.00
1886, 1079.00
1887, 1079.00
1888, 1078.00
1889, 1079.00
1890, 1077.00
1891, 1078.00
1892, 1077.00
1893, 1077.00
1894, 1076.00
1895, 1075.00
1896, 1077.00
1897, 1077.00
1898, 1075.00
1899, 1076.00
1900, 1075.00
1901, 1075.00
1902, 1074.00
1903, 1075.00
1904, 1074.00
1905, 1075.00
1906, 1074.00
1907, 1073.00
1908, 1074.00
1909, 1074.00
1910, 1075.00
1911, 1074.00
1912, 1073.00
1913, 1074.00
1914, 1075.00
1915, 1074.00
1916, 1073.00
1917, 1072.00
1918, 1074.00
1919, 1072.00
1920, 1073.00
1921, 1073.00
1922, 1071.00
1923, 1073.00
1924, 1074.00
1925, 1073.00
1926, 1074.00
1927, 1074.00
1928, 1074.00
1929, 1075.00
1930, 1075.00
1931, 1076.00
1932, 1073.00
1933, 1073.00
1934, 1074.00
1935, 1073.00
1936, 1073.00
1937, 1073.00
1938, 1074.00
1939, 1074.00
1940, 1073.00
1941, 1074.00
1942, 1073.00
1943, 1073.00
1944, 1075.00
1945, 1074.00
1946, 1077.00
1947, 1075.00
1948, 1075.00
1949, 1075.00
1950, 1074.00
1951, 1075.00
1952, 1074.00
1953, 1076.00
1954, 1075.00
1955, 1075.00
1956, 1076.00
1957, 1076.00
1958, 1075.00
1959, 1076.00
1960, 1077.00
1961, 1078.00
1962, 1077.00
1963, 1077.00
1964, 1077.00
1965, 1079.00
1966, 1077.00
1967, 1078.00
1968, 1079.00
1969, 1078.00
1970, 1079.00
1971, 1080.00
1972, 1079.00
1973, 1080.00
1974, 1081.00
1975, 1080.00
1976, 1078.00
1977, 1081.00
1978, 1080.00
1979, 1081.00
1980, 1083.00
1981, 1081.00
1982, 1082.00
1983, 1082.00
1984, 1083.00
1985, 1083.00
1986, 1083.00
1987, 1084.00
1988, 1084.00
1989, 1084.00
1990, 1083.00
1991, 1084.00
1992, 1084.00
1993, 1084.00
1994, 1086.00
1995, 1083.00
1996, 1084.00
1997, 1085.00
1998, 1088.00
1999, 1086.00
2000, 1088.00
2001, 1088.00
2002, 1085.00
2003, 1087.00
2004, 1087.00
2005, 1088.00
2006, 1088.00
2007, 1089.00
2008, 1090.00
2009, 1089.00
2010, 1089.00
2011, 1091.00
2012, 1091.00
2013, 1091.00
2014, 1089.00
2015, 1092.00
2016, 1092.00
2017, 1092.00
2018, 1091.00
2019, 1091.00
2020, 1092.00
2021, 1092.00
2022, 1091.00
2023, 1093.00
2024, 1094.00
2025, 1095.00
2026, 1095.00
2027, 1095.00
2028, 1095.00
2029, 1095.00
2030, 1096.00
2031, 1096.00
2032, 1096.00
2033, 1096.00
2034, 1097.00
2035, 1098.00
2036, 1097.00
2037, 1099.00
2038, 1099.00
2039, 1097.00
2040, 1099.00
2041, 1100.00
2042, 1100.00
2043, 1099.00
2044, 1100.00
2045, 1101.00
2046, 1100.00
2047, 1101.00
2048, 1102.00
2049, 1102.00
2050, 1104.00
2051, 1101.00
2052, 1104.00
2053, 1103.00
2054, 1105.00
2055, 1104.00
2056, 1104.00
2057, 1106.00
2058, 1104.00
2059, 1107.00
2060, 1107.00
2061, 1107.00
2062, 1107.00
2063, 1109.00
2064, 1110.00
2065, 1109.00
2066, 1110.00
2067, 1110.00
2068, 1111.00
2069, 1110.00
2070, 1111.00
2071, 1112.00
2072, 1113.00
2073, 1112.00
2074, 1112.00
2075, 1112.00
2076, 1111.00
2077, 1116.00
2078, 1115.00
2079, 1116.00
2080, 1115.00
2081, 1116.00
2082, 1118.00
2083, 1118.00
2084, 1117.00
2085, 1117.00
2086, 1116.00
2087, 1118.00
2088, 1119.00
2089, 1119.00
2090, 1118.00
2091, 1119.00
2092, 1120.00
2093, 1121.00
2094, 1121.00
2095, 1121.00
2096, 1122.00
2097, 1121.00
2098, 1122.00
2099, 1121.00
2100, 1123.00
2101, 1122.00
2102, 1122.00
2103, 1123.00
2104, 1124.00
2105, 1123.00
2106, 1124.00
2107, 1124.00
2108, 1124.00
2109, 1126.00
2110, 1124.00
2111, 1124.00
2112, 1125.00
2113, 1126.00
2114, 1127.00
2115, 1125.00
2116, 1126.00
2117, 1126.00
2118, 1126.00
2119, 1126.00
2120, 1128.00
2121, 1127.00
2122, 1127.00
2123, 1125.00
2124, 1128.00
2125, 1128.00
2126, 1128.00
2127, 1128.00
2128, 1128.00
2129, 1128.00
2130, 1129.00
2131, 1128.00
2132, 1127.00
2133, 1129.00
2134, 1128.00
2135, 1129.00
2136, 1129.00
2137, 1129.00
2138, 1130.00
2139, 1130.00
2140, 1129.00
2141, 1129.00
2142, 1129.00
2143, 1133.00
2144, 1130.00
2145, 1131.00
2146, 1131.00
2147, 1131.00
2148, 1132.00
2149, 1130.00
2150, 1131.00
