FW version: 24
Log Version: 3.0.3

General Info:
       Command/Macro Performed,            Timestamp,             Device ID, COM Port, UART/I2C, Test Name, Host Major, Host Minor, Host Revision, Host Git Commit
            Single_measurement,  2023_06_28_11_02_07,       Insight2_F4_xxx,    USB-C,      USB,          ,          0,          1,             1,      4031237645

Show Spectrometer Status:
l0_version, f4_version, battery_perc, battery_mVolt, accelerometer_temp, accelerometer_x, accelerometer_y, accelerometer_z, compass_temp, compass_x, compass_y, compass_z, lamp_0, lamp_1, gain_0, gain_1
        17,         24,           32,          1876,               5872,           65376,             468,           18644,            0,     65515,     65493,     18644,   2047,   2047,      1,      1

Temperature Statistic Info:
NTC AVG [°C], NTC2 AVG [°C]
      36.608,        36.293

Statistic Info:
M1:  num,      min,      max,   median,      AVG,      STD,M2:  num,      min,      max,   median,      AVG,      STD
     301,   722.00,   837.00,   748.00,   760.87,  36.4668,     401,  1074.00,  1147.00,  1105.00,  1107.22,  24.2732,

Measurements:
Wavelength, Data Amplitude
1350, 739.00
1351, 740.00
1352, 739.00
1353, 739.00
1354, 738.00
1355, 739.00
1356, 739.00
1357, 737.00
1358, 737.00
1359, 737.00
1360, 738.00
1361, 735.00
1362, 735.00
1363, 735.00
1364, 735.00
1365, 734.00
1366, 734.00
1367, 734.00
1368, 733.00
1369, 733.00
1370, 732.00
1371, 732.00
1372, 731.00
1373, 730.00
1374, 731.00
1375, 729.00
1376, 729.00
1377, 728.00
1378, 728.00
1379, 728.00
1380, 727.00
1381, 727.00
1382, 727.00
1383, 727.00
1384, 726.00
1385, 725.00
1386, 725.00
1387, 725.00
1388, 725.00
1389, 725.00
1390, 724.00
1391, 724.00
1392, 725.00
1393, 725.00
1394, 724.00
1395, 724.00
1396, 724.00
1397, 724.00
1398, 723.00
1399, 723.00
1400, 724.00
1401, 723.00
1402, 723.00
1403, 723.00
1404, 723.00
1405, 723.00
1406, 722.00
1407, 723.00
1408, 722.00
1409, 722.00
1410, 723.00
1411, 722.00
1412, 723.00
1413, 723.00
1414, 723.00
1415, 722.00
1416, 722.00
1417, 722.00
1418, 723.00
1419, 722.00
1420, 723.00
1421, 723.00
1422, 723.00
1423, 723.00
1424, 723.00
1425, 723.00
1426, 723.00
1427, 723.00
1428, 723.00
1429, 724.00
1430, 723.00
1431, 723.00
1432, 724.00
1433, 723.00
1434, 724.00
1435, 723.00
1436, 724.00
1437, 724.00
1438, 724.00
1439, 724.00
1440, 725.00
1441, 725.00
1442, 725.00
1443, 725.00
1444, 726.00
1445, 726.00
1446, 726.00
1447, 726.00
1448, 726.00
1449, 726.00
1450, 727.00
1451, 727.00
1452, 728.00
1453, 728.00
1454, 728.00
1455, 729.00
1456, 728.00
1457, 729.00
1458, 729.00
1459, 729.00
1460, 729.00
1461, 731.00
1462, 730.00
1463, 731.00
1464, 731.00
1465, 731.00
1466, 732.00
1467, 732.00
1468, 733.00
1469, 733.00
1470, 734.00
1471, 733.00
1472, 734.00
1473, 735.00
1474, 735.00
1475, 734.00
1476, 735.00
1477, 736.00
1478, 737.00
1479, 738.00
1480, 738.00
1481, 738.00
1482, 738.00
1483, 739.00
1484, 739.00
1485, 740.00
1486, 740.00
1487, 741.00
1488, 741.00
1489, 742.00
1490, 743.00
1491, 743.00
1492, 743.00
1493, 744.00
1494, 743.00
1495, 745.00
1496, 745.00
1497, 746.00
1498, 746.00
1499, 747.00
1500, 748.00
1501, 749.00
1502, 748.00
1503, 749.00
1504, 750.00
1505, 750.00
1506, 750.00
1507, 751.00
1508, 752.00
1509, 753.00
1510, 753.00
1511, 753.00
1512, 753.00
1513, 754.00
1514, 755.00
1515, 756.00
1516, 756.00
1517, 758.00
1518, 757.00
1519, 758.00
1520, 758.00
1521, 759.00
1522, 760.00
1523, 761.00
1524, 761.00
1525, 762.00
1526, 762.00
1527, 763.00
1528, 763.00
1529, 764.00
1530, 765.00
1531, 765.00
1532, 766.00
1533, 766.00
1534, 767.00
1535, 768.00
1536, 768.00
1537, 769.00
1538, 770.00
1539, 770.00
1540, 771.00
1541, 771.00
1542, 772.00
1543, 772.00
1544, 773.00
1545, 773.00
1546, 774.00
1547, 774.00
1548, 776.00
1549, 776.00
1550, 776.00
1551, 776.00
1552, 777.00
1553, 778.00
1554, 778.00
1555, 778.00
1556, 780.00
1557, 780.00
1558, 781.00
1559, 781.00
1560, 782.00
1561, 783.00
1562, 783.00
1563, 784.00
1564, 784.00
1565, 785.00
1566, 785.00
1567, 786.00
1568, 787.00
1569, 788.00
1570, 788.00
1571, 788.00
1572, 789.00
1573, 790.00
1574, 791.00
1575, 792.00
1576, 791.00
1577, 793.00
1578, 793.00
1579, 793.00
1580, 794.00
1581, 794.00
1582, 795.00
1583, 795.00
1584, 796.00
1585, 797.00
1586, 796.00
1587, 797.00
1588, 797.00
1589, 799.00
1590, 799.00
1591, 800.00
1592, 801.00
1593, 801.00
1594, 802.00
1595, 802.00
1596, 803.00
1597, 804.00
1598, 804.00
1599, 805.00
1600, 805.00
1601, 806.00
1602, 807.00
1603, 808.00
1604, 808.00
1605, 809.00
1606, 809.00
1607, 810.00
1608, 810.00
1609, 811.00
1610, 812.00
1611, 813.00
1612, 813.00
1613, 814.00
1614, 815.00
1615, 816.00
1616, 817.00
1617, 817.00
1618, 818.00
1619, 819.00
1620, 819.00
1621, 821.00
1622, 821.00
1623, 822.00
1624, 822.00
1625, 823.00
1626, 824.00
1627, 825.00
1628, 825.00
1629, 826.00
1630, 827.00
1631, 827.00
1632, 827.00
1633, 828.00
1634, 829.00
1635, 830.00
1636, 830.00
1637, 831.00
1638, 831.00
1639, 832.00
1640, 832.00
1641, 834.00
1642, 834.00
1643, 834.00
1644, 834.00
1645, 834.00
1646, 835.00
1647, 836.00
1648, 836.00
1649, 836.00
1650, 837.00

1750, 1146.00
1751, 1146.00
1752, 1144.00
1753, 1147.00
1754, 1146.00
1755, 1145.00
1756, 1147.00
1757, 1146.00
1758, 1147.00
1759, 1146.00
1760, 1146.00
1761, 1145.00
1762, 1145.00
1763, 1146.00
1764, 1147.00
1765, 1146.00
1766, 1145.00
1767, 1147.00
1768, 1145.00
1769, 1146.00
1770, 1146.00
1771, 1146.00
1772, 1144.00
1773, 1146.00
1774, 1145.00
1775, 1144.00
1776, 1144.00
1777, 1143.00
1778, 1144.00
1779, 1146.00
1780, 1143.00
1781, 1143.00
1782, 1143.00
1783, 1143.00
1784, 1143.00
1785, 1142.00
1786, 1141.00
1787, 1142.00
1788, 1143.00
1789, 1141.00
1790, 1141.00
1791, 1140.00
1792, 1141.00
1793, 1141.00
1794, 1139.00
1795, 1139.00
1796, 1140.00
1797, 1139.00
1798, 1140.00
1799, 1139.00
1800, 1139.00
1801, 1137.00
1802, 1139.00
1803, 1139.00
1804, 1138.00
1805, 1139.00
1806, 1139.00
1807, 1137.00
1808, 1136.00
1809, 1136.00
1810, 1137.00
1811, 1136.00
1812, 1135.00
1813, 1136.00
1814, 1135.00
1815, 1136.00
1816, 1136.00
1817, 1135.00
1818, 1134.00
1819, 1135.00
1820, 1133.00
1821, 1134.00
1822, 1133.00
1823, 1130.00
1824, 1133.00
1825, 1131.00
1826, 1130.00
1827, 1130.00
1828, 1129.00
1829, 1130.00
1830, 1127.00
1831, 1127.00
1832, 1127.00
1833, 1127.00
1834, 1124.00
1835, 1124.00
1836, 1124.00
1837, 1124.00
1838, 1121.00
1839, 1121.00
1840, 1119.00
1841, 1121.00
1842, 1117.00
1843, 1118.00
1844, 1118.00
1845, 1113.00
1846, 1112.00
1847, 1112.00
1848, 1111.00
1849, 1109.00
1850, 1108.00
1851, 1108.00
1852, 1107.00
1853, 1105.00
1854, 1104.00
1855, 1102.00
1856, 1101.00
1857, 1100.00
1858, 1100.00
1859, 1098.00
1860, 1098.00
1861, 1096.00
1862, 1097.00
1863, 1095.00
1864, 1094.00
1865, 1092.00
1866, 1092.00
1867, 1091.00
1868, 1091.00
1869, 1089.00
1870, 1088.00
1871, 1088.00
1872, 1088.00
1873, 1088.00
1874, 1086.00
1875, 1087.00
1876, 1083.00
1877, 1085.00
1878, 1083.00
1879, 1083.00
1880, 1082.00
1881, 1084.00
1882, 1081.00
1883, 1082.00
1884, 1079.00
1885, 1082.00
1886, 1079.00
1887, 1080.00
1888, 1081.00
1889, 1079.00
1890, 1078.00
1891, 1080.00
1892, 1079.00
1893, 1079.00
1894, 1079.00
1895, 1078.00
1896, 1078.00
1897, 1077.00
1898, 1077.00
1899, 1078.00
1900, 1079.00
1901, 1079.00
1902, 1077.00
1903, 1075.00
1904, 1077.00
1905, 1077.00
1906, 1077.00
1907, 1075.00
1908, 1076.00
1909, 1075.00
1910, 1075.00
1911, 1075.00
1912, 1076.00
1913, 1076.00
1914, 1075.00
1915, 1075.00
1916, 1076.00
1917, 1074.00
1918, 1076.00
1919, 1075.00
1920, 1075.00
1921, 1075.00
1922, 1075.00
1923, 1076.00
1924, 1074.00
1925, 1074.00
1926, 1074.00
1927, 1074.00
1928, 1074.00
1929, 1074.00
1930, 1076.00
1931, 1074.00
1932, 1074.00
1933, 1077.00
1934, 1074.00
1935, 1075.00
1936, 1075.00
1937, 1075.00
1938, 1075.00
1939, 1076.00
1940, 1075.00
1941, 1076.00
1942, 1076.00
1943, 1076.00
1944, 1076.00
1945, 1075.00
1946, 1076.00
1947, 1075.00
1948, 1076.00
1949, 1078.00
1950, 1077.00
1951, 1075.00
1952, 1077.00
1953, 1076.00
1954, 1078.00
1955, 1077.00
1956, 1079.00
1957, 1078.00
1958, 1078.00
1959, 1078.00
1960, 1077.00
1961, 1078.00
1962, 1078.00
1963, 1080.00
1964, 1079.00
1965, 1081.00
1966, 1080.00
1967, 1080.00
1968, 1080.00
1969, 1079.00
1970, 1080.00
1971, 1080.00
1972, 1080.00
1973, 1080.00
1974, 1082.00
1975, 1082.00
1976, 1081.00
1977, 1083.00
1978, 1083.00
1979, 1083.00
1980, 1082.00
1981, 1084.00
1982, 1085.00
1983, 1084.00
1984, 1085.00
1985, 1084.00
1986, 1085.00
1987, 1084.00
1988, 1084.00
1989, 1087.00
1990, 1086.00
1991, 1086.00
1992, 1086.00
1993, 1087.00
1994, 1088.00
1995, 1088.00
1996, 1088.00
1997, 1088.00
1998, 1091.00
1999, 1087.00
2000, 1087.00
2001, 1090.00
2002, 1088.00
2003, 1089.00
2004, 1090.00
2005, 1090.00
2006, 1089.00
2007, 1090.00
2008, 1091.00
2009, 1090.00
2010, 1091.00
2011, 1092.00
2012, 1091.00
2013, 1091.00
2014, 1093.00
2015, 1093.00
2016, 1093.00
2017, 1092.00
2018, 1093.00
2019, 1094.00
2020, 1094.00
2021, 1095.00
2022, 1094.00
2023, 1095.00
2024, 1096.00
2025, 1095.00
2026, 1096.00
2027, 1097.00
2028, 1097.00
2029, 1099.00
2030, 1098.00
2031, 1096.00
2032, 1097.00
2033, 1098.00
2034, 1097.00
2035, 1100.00
2036, 1100.00
2037, 1098.00
2038, 1098.00
2039, 1099.00
2040, 1101.00
2041, 1101.00
2042, 1102.00
2043, 1101.00
2044, 1101.00
2045, 1103.00
2046, 1102.00
2047, 1103.00
2048, 1103.00
2049, 1105.00
2050, 1105.00
2051, 1103.00
2052, 1104.00
2053, 1107.00
2054, 1105.00
2055, 1104.00
2056, 1106.00
2057, 1107.00
2058, 1107.00
2059, 1110.00
2060, 1108.00
2061, 1109.00
2062, 1111.00
2063, 1109.00
2064, 1111.00
2065, 1110.00
2066, 1113.00
2067, 1114.00
2068, 1112.00
2069, 1112.00
2070, 1113.00
2071, 1113.00
2072, 1115.00
2073, 1114.00
2074, 1114.00
2075, 1114.00
2076, 1114.00
2077, 1116.00
2078, 1118.00
2079, 1118.00
2080, 1118.00
2081, 1118.00
2082, 1119.00
2083, 1119.00
2084, 1119.00
2085, 1119.00
2086, 1118.00
2087, 1121.00
2088, 1119.00
2089, 1121.00
2090, 1121.00
2091, 1121.00
2092, 1121.00
2093, 1122.00
2094, 1122.00
2095, 1122.00
2096, 1122.00
2097, 1123.00
2098, 1123.00
2099, 1123.00
2100, 1124.00
2101, 1125.00
2102, 1124.00
2103, 1124.00
2104, 1124.00
2105, 1125.00
2106, 1125.00
2107, 1125.00
2108, 1127.00
2109, 1126.00
2110, 1127.00
2111, 1127.00
2112, 1127.00
2113, 1127.00
2114, 1127.00
2115, 1128.00
2116, 1127.00
2117, 1126.00
2118, 1128.00
2119, 1128.00
2120, 1130.00
2121, 1129.00
2122, 1128.00
2123, 1128.00
2124, 1129.00
2125, 1127.00
2126, 1130.00
2127, 1131.00
2128, 1130.00
2129, 1129.00
2130, 1129.00
2131, 1130.00
2132, 1128.00
2133, 1128.00
2134, 1131.00
2135, 1131.00
2136, 1129.00
2137, 1130.00
2138, 1130.00
2139, 1132.00
2140, 1131.00
2141, 1132.00
2142, 1132.00
2143, 1132.00
2144, 1133.00
2145, 1132.00
2146, 1132.00
2147, 1133.00
2148, 1133.00
2149, 1134.00
2150, 1131.00
