FW version: 24
Log Version: 3.0.3

General Info:
       Command/Macro Performed,            Timestamp,             Device ID, COM Port, UART/I2C, Test Name, Host Major, Host Minor, Host Revision, Host Git Commit
            Single_measurement,  2023_06_27_12_36_47,       Insight2_F4_xxx,    USB-C,      USB,          ,          0,          1,             1,      4031237645

Show Spectrometer Status:
l0_version, f4_version, battery_perc, battery_mVolt, accelerometer_temp, accelerometer_x, accelerometer_y, accelerometer_z, compass_temp, compass_x, compass_y, compass_z, lamp_0, lamp_1, gain_0, gain_1
        17,         24,           95,          2079,               5632,             760,           65212,           18480,            0,     65530,     65532,     65392,   2047,   2047,    1,    1

Temperature Statistic Info:
NTC AVG [°C], NTC2 AVG [°C]
      37.237,        36.948

Statistic Info:
M1:  num,      min,      max,   median,      AVG,      STD,M2:  num,      min,      max,   median,      AVG,      STD
     301,   691.00,   790.00,   716.00,   724.32,  30.6368,     401,  1071.00,  1133.00,  1106.00,  1103.77,  21.3051,

Measurements:
Wavelength, Data Amplitude
1350, 699.00
1351, 700.00
1352, 699.00
1353, 700.00
1354, 699.00
1355, 700.00
1356, 699.00
1357, 699.00
1358, 699.00
1359, 698.00
1360, 699.00
1361, 699.00
1362, 699.00
1363, 698.00
1364, 698.00
1365, 698.00
1366, 698.00
1367, 697.00
1368, 697.00
1369, 696.00
1370, 697.00
1371, 696.00
1372, 696.00
1373, 695.00
1374, 696.00
1375, 695.00
1376, 695.00
1377, 694.00
1378, 695.00
1379, 695.00
1380, 693.00
1381, 694.00
1382, 693.00
1383, 694.00
1384, 694.00
1385, 693.00
1386, 693.00
1387, 692.00
1388, 692.00
1389, 692.00
1390, 693.00
1391, 693.00
1392, 692.00
1393, 692.00
1394, 692.00
1395, 692.00
1396, 691.00
1397, 692.00
1398, 692.00
1399, 692.00
1400, 692.00
1401, 692.00
1402, 692.00
1403, 692.00
1404, 691.00
1405, 693.00
1406, 692.00
1407, 692.00
1408, 692.00
1409, 691.00
1410, 692.00
1411, 692.00
1412, 693.00
1413, 693.00
1414, 692.00
1415, 692.00
1416, 691.00
1417, 692.00
1418, 692.00
1419, 692.00
1420, 692.00
1421, 693.00
1422, 692.00
1423, 693.00
1424, 693.00
1425, 693.00
1426, 692.00
1427, 693.00
1428, 693.00
1429, 693.00
1430, 693.00
1431, 693.00
1432, 694.00
1433, 694.00
1434, 693.00
1435, 695.00
1436, 694.00
1437, 695.00
1438, 694.00
1439, 695.00
1440, 694.00
1441, 695.00
1442, 695.00
1443, 695.00
1444, 695.00
1445, 695.00
1446, 696.00
1447, 697.00
1448, 697.00
1449, 697.00
1450, 696.00
1451, 698.00
1452, 698.00
1453, 698.00
1454, 698.00
1455, 698.00
1456, 698.00
1457, 699.00
1458, 699.00
1459, 701.00
1460, 699.00
1461, 700.00
1462, 701.00
1463, 701.00
1464, 700.00
1465, 702.00
1466, 702.00
1467, 702.00
1468, 702.00
1469, 703.00
1470, 703.00
1471, 703.00
1472, 704.00
1473, 704.00
1474, 704.00
1475, 705.00
1476, 705.00
1477, 706.00
1478, 707.00
1479, 706.00
1480, 707.00
1481, 708.00
1482, 708.00
1483, 707.00
1484, 709.00
1485, 709.00
1486, 709.00
1487, 710.00
1488, 710.00
1489, 711.00
1490, 712.00
1491, 712.00
1492, 712.00
1493, 713.00
1494, 713.00
1495, 714.00
1496, 713.00
1497, 715.00
1498, 715.00
1499, 715.00
1500, 716.00
1501, 716.00
1502, 717.00
1503, 717.00
1504, 717.00
1505, 718.00
1506, 719.00
1507, 719.00
1508, 719.00
1509, 720.00
1510, 720.00
1511, 721.00
1512, 720.00
1513, 722.00
1514, 722.00
1515, 722.00
1516, 723.00
1517, 723.00
1518, 724.00
1519, 724.00
1520, 725.00
1521, 725.00
1522, 725.00
1523, 726.00
1524, 726.00
1525, 727.00
1526, 727.00
1527, 727.00
1528, 727.00
1529, 728.00
1530, 729.00
1531, 730.00
1532, 730.00
1533, 731.00
1534, 731.00
1535, 731.00
1536, 731.00
1537, 732.00
1538, 733.00
1539, 733.00
1540, 733.00
1541, 734.00
1542, 734.00
1543, 734.00
1544, 735.00
1545, 735.00
1546, 736.00
1547, 736.00
1548, 736.00
1549, 737.00
1550, 738.00
1551, 738.00
1552, 738.00
1553, 738.00
1554, 739.00
1555, 740.00
1556, 741.00
1557, 740.00
1558, 742.00
1559, 742.00
1560, 742.00
1561, 742.00
1562, 744.00
1563, 743.00
1564, 745.00
1565, 744.00
1566, 745.00
1567, 745.00
1568, 745.00
1569, 746.00
1570, 747.00
1571, 748.00
1572, 748.00
1573, 748.00
1574, 749.00
1575, 749.00
1576, 750.00
1577, 750.00
1578, 751.00
1579, 751.00
1580, 752.00
1581, 753.00
1582, 753.00
1583, 753.00
1584, 753.00
1585, 754.00
1586, 755.00
1587, 755.00
1588, 755.00
1589, 755.00
1590, 757.00
1591, 757.00
1592, 757.00
1593, 757.00
1594, 758.00
1595, 759.00
1596, 759.00
1597, 759.00
1598, 761.00
1599, 760.00
1600, 761.00
1601, 762.00
1602, 762.00
1603, 763.00
1604, 763.00
1605, 763.00
1606, 764.00
1607, 765.00
1608, 766.00
1609, 766.00
1610, 766.00
1611, 766.00
1612, 767.00
1613, 768.00
1614, 769.00
1615, 770.00
1616, 771.00
1617, 770.00
1618, 771.00
1619, 772.00
1620, 772.00
1621, 774.00
1622, 774.00
1623, 774.00
1624, 775.00
1625, 776.00
1626, 777.00
1627, 777.00
1628, 777.00
1629, 779.00
1630, 779.00
1631, 779.00
1632, 780.00
1633, 781.00
1634, 781.00
1635, 782.00
1636, 781.00
1637, 782.00
1638, 783.00
1639, 785.00
1640, 784.00
1641, 784.00
1642, 785.00
1643, 785.00
1644, 786.00
1645, 786.00
1646, 787.00
1647, 788.00
1648, 788.00
1649, 789.00
1650, 790.00

1750, 1130.00
1751, 1129.00
1752, 1129.00
1753, 1131.00
1754, 1130.00
1755, 1132.00
1756, 1130.00
1757, 1130.00
1758, 1129.00
1759, 1131.00
1760, 1129.00
1761, 1131.00
1762, 1129.00
1763, 1129.00
1764, 1129.00
1765, 1131.00
1766, 1130.00
1767, 1130.00
1768, 1131.00
1769, 1129.00
1770, 1130.00
1771, 1130.00
1772, 1129.00
1773, 1129.00
1774, 1130.00
1775, 1128.00
1776, 1129.00
1777, 1128.00
1778, 1128.00
1779, 1128.00
1780, 1127.00
1781, 1129.00
1782, 1127.00
1783, 1127.00
1784, 1128.00
1785, 1127.00
1786, 1127.00
1787, 1127.00
1788, 1127.00
1789, 1127.00
1790, 1126.00
1791, 1126.00
1792, 1126.00
1793, 1126.00
1794, 1125.00
1795, 1126.00
1796, 1125.00
1797, 1125.00
1798, 1126.00
1799, 1125.00
1800, 1124.00
1801, 1124.00
1802, 1122.00
1803, 1124.00
1804, 1125.00
1805, 1124.00
1806, 1123.00
1807, 1125.00
1808, 1124.00
1809, 1123.00
1810, 1124.00
1811, 1123.00
1812, 1123.00
1813, 1125.00
1814, 1123.00
1815, 1121.00
1816, 1121.00
1817, 1124.00
1818, 1124.00
1819, 1122.00
1820, 1123.00
1821, 1123.00
1822, 1121.00
1823, 1121.00
1824, 1121.00
1825, 1122.00
1826, 1119.00
1827, 1120.00
1828, 1119.00
1829, 1120.00
1830, 1118.00
1831, 1117.00
1832, 1119.00
1833, 1117.00
1834, 1116.00
1835, 1115.00
1836, 1116.00
1837, 1115.00
1838, 1112.00
1839, 1113.00
1840, 1112.00
1841, 1111.00
1842, 1113.00
1843, 1110.00
1844, 1109.00
1845, 1108.00
1846, 1107.00
1847, 1108.00
1848, 1106.00
1849, 1104.00
1850, 1104.00
1851, 1102.00
1852, 1103.00
1853, 1099.00
1854, 1101.00
1855, 1099.00
1856, 1098.00
1857, 1097.00
1858, 1095.00
1859, 1094.00
1860, 1095.00
1861, 1092.00
1862, 1091.00
1863, 1092.00
1864, 1091.00
1865, 1088.00
1866, 1088.00
1867, 1089.00
1868, 1087.00
1869, 1086.00
1870, 1084.00
1871, 1084.00
1872, 1083.00
1873, 1082.00
1874, 1083.00
1875, 1081.00
1876, 1080.00
1877, 1082.00
1878, 1080.00
1879, 1080.00
1880, 1079.00
1881, 1079.00
1882, 1080.00
1883, 1079.00
1884, 1079.00
1885, 1077.00
1886, 1078.00
1887, 1077.00
1888, 1076.00
1889, 1077.00
1890, 1075.00
1891, 1076.00
1892, 1075.00
1893, 1074.00
1894, 1076.00
1895, 1073.00
1896, 1076.00
1897, 1075.00
1898, 1075.00
1899, 1076.00
1900, 1075.00
1901, 1073.00
1902, 1075.00
1903, 1073.00
1904, 1074.00
1905, 1073.00
1906, 1073.00
1907, 1073.00
1908, 1073.00
1909, 1074.00
1910, 1071.00
1911, 1074.00
1912, 1073.00
1913, 1074.00
1914, 1071.00
1915, 1072.00
1916, 1071.00
1917, 1071.00
1918, 1072.00
1919, 1074.00
1920, 1073.00
1921, 1072.00
1922, 1072.00
1923, 1072.00
1924, 1073.00
1925, 1072.00
1926, 1073.00
1927, 1071.00
1928, 1074.00
1929, 1071.00
1930, 1073.00
1931, 1073.00
1932, 1071.00
1933, 1073.00
1934, 1072.00
1935, 1073.00
1936, 1073.00
1937, 1074.00
1938, 1074.00
1939, 1074.00
1940, 1075.00
1941, 1075.00
1942, 1074.00
1943, 1073.00
1944, 1075.00
1945, 1074.00
1946, 1073.00
1947, 1075.00
1948, 1076.00
1949, 1077.00
1950, 1075.00
1951, 1077.00
1952, 1076.00
1953, 1076.00
1954, 1077.00
1955, 1078.00
1956, 1078.00
1957, 1076.00
1958, 1078.00
1959, 1079.00
1960, 1077.00
1961, 1079.00
1962, 1078.00
1963, 1079.00
1964, 1079.00
1965, 1080.00
1966, 1080.00
1967, 1079.00
1968, 1080.00
1969, 1080.00
1970, 1082.00
1971, 1079.00
1972, 1081.00
1973, 1080.00
1974, 1083.00
1975, 1081.00
1976, 1082.00
1977, 1083.00
1978, 1083.00
1979, 1082.00
1980, 1082.00
1981, 1084.00
1982, 1084.00
1983, 1085.00
1984, 1085.00
1985, 1086.00
1986, 1085.00
1987, 1086.00
1988, 1085.00
1989, 1088.00
1990, 1088.00
1991, 1088.00
1992, 1088.00
1993, 1088.00
1994, 1089.00
1995, 1087.00
1996, 1088.00
1997, 1089.00
1998, 1088.00
1999, 1090.00
2000, 1089.00
2001, 1091.00
2002, 1088.00
2003, 1091.00
2004, 1091.00
2005, 1091.00
2006, 1091.00
2007, 1092.00
2008, 1093.00
2009, 1093.00
2010, 1091.00
2011, 1093.00
2012, 1094.00
2013, 1094.00
2014, 1094.00
2015, 1094.00
2016, 1094.00
2017, 1094.00
2018, 1094.00
2019, 1095.00
2020, 1095.00
2021, 1097.00
2022, 1097.00
2023, 1097.00
2024, 1098.00
2025, 1095.00
2026, 1097.00
2027, 1098.00
2028, 1098.00
2029, 1101.00
2030, 1100.00
2031, 1099.00
2032, 1099.00
2033, 1100.00
2034, 1099.00
2035, 1101.00
2036, 1101.00
2037, 1100.00
2038, 1100.00
2039, 1101.00
2040, 1103.00
2041, 1103.00
2042, 1102.00
2043, 1104.00
2044, 1103.00
2045, 1105.00
2046, 1104.00
2047, 1105.00
2048, 1105.00
2049, 1107.00
2050, 1106.00
2051, 1106.00
2052, 1107.00
2053, 1109.00
2054, 1107.00
2055, 1109.00
2056, 1109.00
2057, 1109.00
2058, 1108.00
2059, 1110.00
2060, 1111.00
2061, 1112.00
2062, 1113.00
2063, 1112.00
2064, 1111.00
2065, 1114.00
2066, 1114.00
2067, 1114.00
2068, 1114.00
2069, 1113.00
2070, 1113.00
2071, 1115.00
2072, 1115.00
2073, 1117.00
2074, 1117.00
2075, 1116.00
2076, 1117.00
2077, 1120.00
2078, 1119.00
2079, 1119.00
2080, 1120.00
2081, 1119.00
2082, 1120.00
2083, 1119.00
2084, 1122.00
2085, 1121.00
2086, 1121.00
2087, 1122.00
2088, 1122.00
2089, 1121.00
2090, 1123.00
2091, 1122.00
2092, 1123.00
2093, 1123.00
2094, 1124.00
2095, 1123.00
2096, 1125.00
2097, 1125.00
2098, 1125.00
2099, 1125.00
2100, 1125.00
2101, 1126.00
2102, 1125.00
2103, 1124.00
2104, 1126.00
2105, 1126.00
2106, 1126.00
2107, 1127.00
2108, 1129.00
2109, 1128.00
2110, 1126.00
2111, 1126.00
2112, 1127.00
2113, 1127.00
2114, 1128.00
2115, 1127.00
2116, 1129.00
2117, 1127.00
2118, 1129.00
2119, 1128.00
2120, 1128.00
2121, 1129.00
2122, 1129.00
2123, 1129.00
2124, 1129.00
2125, 1130.00
2126, 1129.00
2127, 1129.00
2128, 1128.00
2129, 1131.00
2130, 1129.00
2131, 1131.00
2132, 1129.00
2133, 1130.00
2134, 1131.00
2135, 1132.00
2136, 1132.00
2137, 1129.00
2138, 1130.00
2139, 1130.00
2140, 1131.00
2141, 1131.00
2142, 1133.00
2143, 1131.00
2144, 1132.00
2145, 1131.00
2146, 1131.00
2147, 1133.00
2148, 1133.00
2149, 1132.00
2150, 1132.00
