FW version: 24
Log Version: 3.0.3

General Info:
       Command/Macro Performed,            Timestamp,             Device ID, COM Port, UART/I2C, Test Name, Host Major, Host Minor, Host Revision, Host Git Commit
            Single_measurement,  2023_06_27_12_36_59,       Insight2_F4_xxx,    USB-C,      USB,          ,          0,          1,             1,      4031237645

Show Spectrometer Status:
l0_version, f4_version, battery_perc, battery_mVolt, accelerometer_temp, accelerometer_x, accelerometer_y, accelerometer_z, compass_temp, compass_x, compass_y, compass_z, lamp_0, lamp_1, gain_0, gain_1
        17,         24,           95,          2078,               5664,             768,           65200,           18488,            0,     65360,     65532,     65407,   2457,   2457,    1,    1

Temperature Statistic Info:
NTC AVG [°C], NTC2 AVG [°C]
      37.324,        37.033

Statistic Info:
M1:  num,      min,      max,   median,      AVG,      STD,M2:  num,      min,      max,   median,      AVG,      STD
     301,   998.00,  1135.00,  1030.00,  1043.56,  42.1400,     401,  1471.00,  1555.00,  1517.00,  1514.66,  28.7354,

Measurements:
Wavelength, Data Amplitude
1350, 1013.00
1351, 1014.00
1352, 1012.00
1353, 1013.00
1354, 1012.00
1355, 1011.00
1356, 1012.00
1357, 1011.00
1358, 1011.00
1359, 1011.00
1360, 1011.00
1361, 1010.00
1362, 1010.00
1363, 1009.00
1364, 1009.00
1365, 1010.00
1366, 1007.00
1367, 1009.00
1368, 1007.00
1369, 1007.00
1370, 1006.00
1371, 1007.00
1372, 1006.00
1373, 1006.00
1374, 1006.00
1375, 1005.00
1376, 1004.00
1377, 1003.00
1378, 1003.00
1379, 1003.00
1380, 1003.00
1381, 1003.00
1382, 1003.00
1383, 1001.00
1384, 1002.00
1385, 1002.00
1386, 1002.00
1387, 1000.00
1388, 1001.00
1389, 1001.00
1390, 1001.00
1391, 1000.00
1392, 1000.00
1393, 1000.00
1394, 1000.00
1395, 1000.00
1396, 1000.00
1397, 999.00
1398, 999.00
1399, 1000.00
1400, 1000.00
1401, 999.00
1402, 1000.00
1403, 999.00
1404, 999.00
1405, 999.00
1406, 998.00
1407, 1000.00
1408, 999.00
1409, 999.00
1410, 1000.00
1411, 999.00
1412, 999.00
1413, 999.00
1414, 999.00
1415, 999.00
1416, 999.00
1417, 999.00
1418, 998.00
1419, 998.00
1420, 1000.00
1421, 999.00
1422, 999.00
1423, 1000.00
1424, 1000.00
1425, 1000.00
1426, 1000.00
1427, 1000.00
1428, 1001.00
1429, 1000.00
1430, 1000.00
1431, 1001.00
1432, 1001.00
1433, 1002.00
1434, 1002.00
1435, 1001.00
1436, 1002.00
1437, 1003.00
1438, 1003.00
1439, 1003.00
1440, 1002.00
1441, 1002.00
1442, 1003.00
1443, 1004.00
1444, 1003.00
1445, 1004.00
1446, 1005.00
1447, 1005.00
1448, 1005.00
1449, 1006.00
1450, 1006.00
1451, 1006.00
1452, 1006.00
1453, 1006.00
1454, 1006.00
1455, 1007.00
1456, 1008.00
1457, 1008.00
1458, 1009.00
1459, 1009.00
1460, 1009.00
1461, 1009.00
1462, 1011.00
1463, 1011.00
1464, 1011.00
1465, 1012.00
1466, 1012.00
1467, 1012.00
1468, 1013.00
1469, 1014.00
1470, 1014.00
1471, 1015.00
1472, 1015.00
1473, 1015.00
1474, 1015.00
1475, 1017.00
1476, 1017.00
1477, 1017.00
1478, 1018.00
1479, 1018.00
1480, 1018.00
1481, 1020.00
1482, 1020.00
1483, 1021.00
1484, 1021.00
1485, 1022.00
1486, 1023.00
1487, 1022.00
1488, 1023.00
1489, 1024.00
1490, 1024.00
1491, 1025.00
1492, 1026.00
1493, 1026.00
1494, 1027.00
1495, 1028.00
1496, 1029.00
1497, 1029.00
1498, 1029.00
1499, 1029.00
1500, 1030.00
1501, 1031.00
1502, 1031.00
1503, 1033.00
1504, 1033.00
1505, 1034.00
1506, 1034.00
1507, 1035.00
1508, 1035.00
1509, 1036.00
1510, 1036.00
1511, 1037.00
1512, 1038.00
1513, 1038.00
1514, 1039.00
1515, 1040.00
1516, 1040.00
1517, 1041.00
1518, 1041.00
1519, 1042.00
1520, 1043.00
1521, 1044.00
1522, 1045.00
1523, 1044.00
1524, 1045.00
1525, 1046.00
1526, 1047.00
1527, 1046.00
1528, 1048.00
1529, 1048.00
1530, 1049.00
1531, 1050.00
1532, 1050.00
1533, 1050.00
1534, 1051.00
1535, 1052.00
1536, 1054.00
1537, 1053.00
1538, 1054.00
1539, 1054.00
1540, 1055.00
1541, 1055.00
1542, 1056.00
1543, 1058.00
1544, 1056.00
1545, 1057.00
1546, 1058.00
1547, 1060.00
1548, 1059.00
1549, 1060.00
1550, 1060.00
1551, 1061.00
1552, 1062.00
1553, 1063.00
1554, 1063.00
1555, 1065.00
1556, 1065.00
1557, 1065.00
1558, 1066.00
1559, 1067.00
1560, 1067.00
1561, 1068.00
1562, 1068.00
1563, 1068.00
1564, 1070.00
1565, 1071.00
1566, 1072.00
1567, 1073.00
1568, 1074.00
1569, 1074.00
1570, 1074.00
1571, 1075.00
1572, 1076.00
1573, 1077.00
1574, 1077.00
1575, 1077.00
1576, 1080.00
1577, 1079.00
1578, 1080.00
1579, 1081.00
1580, 1081.00
1581, 1082.00
1582, 1083.00
1583, 1083.00
1584, 1084.00
1585, 1084.00
1586, 1085.00
1587, 1086.00
1588, 1087.00
1589, 1088.00
1590, 1088.00
1591, 1087.00
1592, 1089.00
1593, 1089.00
1594, 1091.00
1595, 1091.00
1596, 1091.00
1597, 1092.00
1598, 1093.00
1599, 1094.00
1600, 1094.00
1601, 1095.00
1602, 1094.00
1603, 1095.00
1604, 1096.00
1605, 1098.00
1606, 1099.00
1607, 1100.00
1608, 1099.00
1609, 1101.00
1610, 1102.00
1611, 1103.00
1612, 1104.00
1613, 1105.00
1614, 1106.00
1615, 1105.00
1616, 1107.00
1617, 1108.00
1618, 1108.00
1619, 1110.00
1620, 1110.00
1621, 1111.00
1622, 1112.00
1623, 1113.00
1624, 1113.00
1625, 1114.00
1626, 1116.00
1627, 1117.00
1628, 1117.00
1629, 1119.00
1630, 1118.00
1631, 1120.00
1632, 1120.00
1633, 1121.00
1634, 1122.00
1635, 1123.00
1636, 1124.00
1637, 1125.00
1638, 1125.00
1639, 1126.00
1640, 1127.00
1641, 1128.00
1642, 1128.00
1643, 1129.00
1644, 1130.00
1645, 1130.00
1646, 1131.00
1647, 1132.00
1648, 1131.00
1649, 1133.00
1650, 1135.00

1750, 1550.00
1751, 1552.00
1752, 1551.00
1753, 1551.00
1754, 1551.00
1755, 1555.00
1756, 1553.00
1757, 1552.00
1758, 1553.00
1759, 1552.00
1760, 1553.00
1761, 1553.00
1762, 1552.00
1763, 1553.00
1764, 1551.00
1765, 1552.00
1766, 1553.00
1767, 1550.00
1768, 1551.00
1769, 1553.00
1770, 1553.00
1771, 1552.00
1772, 1551.00
1773, 1551.00
1774, 1551.00
1775, 1549.00
1776, 1549.00
1777, 1551.00
1778, 1549.00
1779, 1549.00
1780, 1550.00
1781, 1549.00
1782, 1549.00
1783, 1547.00
1784, 1549.00
1785, 1548.00
1786, 1548.00
1787, 1547.00
1788, 1547.00
1789, 1548.00
1790, 1546.00
1791, 1545.00
1792, 1546.00
1793, 1546.00
1794, 1546.00
1795, 1547.00
1796, 1543.00
1797, 1545.00
1798, 1546.00
1799, 1544.00
1800, 1542.00
1801, 1543.00
1802, 1543.00
1803, 1544.00
1804, 1544.00
1805, 1542.00
1806, 1544.00
1807, 1544.00
1808, 1544.00
1809, 1542.00
1810, 1543.00
1811, 1541.00
1812, 1541.00
1813, 1543.00
1814, 1541.00
1815, 1542.00
1816, 1543.00
1817, 1540.00
1818, 1541.00
1819, 1541.00
1820, 1540.00
1821, 1539.00
1822, 1539.00
1823, 1538.00
1824, 1537.00
1825, 1538.00
1826, 1539.00
1827, 1536.00
1828, 1536.00
1829, 1535.00
1830, 1536.00
1831, 1535.00
1832, 1533.00
1833, 1532.00
1834, 1533.00
1835, 1531.00
1836, 1529.00
1837, 1530.00
1838, 1530.00
1839, 1529.00
1840, 1526.00
1841, 1527.00
1842, 1525.00
1843, 1524.00
1844, 1523.00
1845, 1522.00
1846, 1521.00
1847, 1520.00
1848, 1518.00
1849, 1515.00
1850, 1517.00
1851, 1515.00
1852, 1512.00
1853, 1512.00
1854, 1510.00
1855, 1508.00
1856, 1506.00
1857, 1507.00
1858, 1505.00
1859, 1503.00
1860, 1502.00
1861, 1501.00
1862, 1499.00
1863, 1497.00
1864, 1496.00
1865, 1495.00
1866, 1495.00
1867, 1492.00
1868, 1492.00
1869, 1492.00
1870, 1490.00
1871, 1488.00
1872, 1489.00
1873, 1487.00
1874, 1487.00
1875, 1485.00
1876, 1484.00
1877, 1484.00
1878, 1482.00
1879, 1483.00
1880, 1482.00
1881, 1481.00
1882, 1481.00
1883, 1482.00
1884, 1480.00
1885, 1480.00
1886, 1479.00
1887, 1478.00
1888, 1478.00
1889, 1479.00
1890, 1477.00
1891, 1478.00
1892, 1477.00
1893, 1477.00
1894, 1475.00
1895, 1475.00
1896, 1475.00
1897, 1474.00
1898, 1476.00
1899, 1475.00
1900, 1476.00
1901, 1473.00
1902, 1475.00
1903, 1474.00
1904, 1473.00
1905, 1473.00
1906, 1471.00
1907, 1473.00
1908, 1472.00
1909, 1473.00
1910, 1474.00
1911, 1474.00
1912, 1472.00
1913, 1474.00
1914, 1472.00
1915, 1473.00
1916, 1472.00
1917, 1473.00
1918, 1474.00
1919, 1473.00
1920, 1471.00
1921, 1473.00
1922, 1472.00
1923, 1471.00
1924, 1471.00
1925, 1473.00
1926, 1472.00
1927, 1473.00
1928, 1473.00
1929, 1472.00
1930, 1473.00
1931, 1472.00
1932, 1471.00
1933, 1476.00
1934, 1475.00
1935, 1474.00
1936, 1474.00
1937, 1473.00
1938, 1475.00
1939, 1477.00
1940, 1474.00
1941, 1475.00
1942, 1475.00
1943, 1475.00
1944, 1475.00
1945, 1475.00
1946, 1474.00
1947, 1477.00
1948, 1476.00
1949, 1476.00
1950, 1478.00
1951, 1477.00
1952, 1477.00
1953, 1477.00
1954, 1477.00
1955, 1477.00
1956, 1479.00
1957, 1478.00
1958, 1479.00
1959, 1480.00
1960, 1479.00
1961, 1480.00
1962, 1480.00
1963, 1482.00
1964, 1482.00
1965, 1480.00
1966, 1482.00
1967, 1482.00
1968, 1483.00
1969, 1481.00
1970, 1481.00
1971, 1485.00
1972, 1484.00
1973, 1485.00
1974, 1484.00
1975, 1485.00
1976, 1486.00
1977, 1485.00
1978, 1488.00
1979, 1488.00
1980, 1489.00
1981, 1488.00
1982, 1489.00
1983, 1488.00
1984, 1487.00
1985, 1488.00
1986, 1491.00
1987, 1491.00
1988, 1490.00
1989, 1493.00
1990, 1492.00
1991, 1492.00
1992, 1492.00
1993, 1492.00
1994, 1493.00
1995, 1494.00
1996, 1493.00
1997, 1495.00
1998, 1497.00
1999, 1497.00
2000, 1496.00
2001, 1495.00
2002, 1497.00
2003, 1497.00
2004, 1497.00
2005, 1498.00
2006, 1497.00
2007, 1499.00
2008, 1497.00
2009, 1500.00
2010, 1500.00
2011, 1499.00
2012, 1500.00
2013, 1499.00
2014, 1501.00
2015, 1502.00
2016, 1502.00
2017, 1502.00
2018, 1502.00
2019, 1503.00
2020, 1502.00
2021, 1503.00
2022, 1504.00
2023, 1504.00
2024, 1504.00
2025, 1506.00
2026, 1507.00
2027, 1507.00
2028, 1505.00
2029, 1507.00
2030, 1508.00
2031, 1508.00
2032, 1511.00
2033, 1509.00
2034, 1508.00
2035, 1510.00
2036, 1510.00
2037, 1510.00
2038, 1510.00
2039, 1513.00
2040, 1512.00
2041, 1513.00
2042, 1513.00
2043, 1514.00
2044, 1513.00
2045, 1514.00
2046, 1516.00
2047, 1515.00
2048, 1519.00
2049, 1517.00
2050, 1517.00
2051, 1517.00
2052, 1518.00
2053, 1520.00
2054, 1520.00
2055, 1521.00
2056, 1521.00
2057, 1522.00
2058, 1522.00
2059, 1523.00
2060, 1522.00
2061, 1523.00
2062, 1523.00
2063, 1524.00
2064, 1525.00
2065, 1527.00
2066, 1527.00
2067, 1526.00
2068, 1528.00
2069, 1530.00
2070, 1529.00
2071, 1530.00
2072, 1530.00
2073, 1532.00
2074, 1531.00
2075, 1531.00
2076, 1533.00
2077, 1532.00
2078, 1533.00
2079, 1532.00
2080, 1535.00
2081, 1535.00
2082, 1535.00
2083, 1535.00
2084, 1537.00
2085, 1539.00
2086, 1539.00
2087, 1537.00
2088, 1539.00
2089, 1537.00
2090, 1538.00
2091, 1538.00
2092, 1539.00
2093, 1537.00
2094, 1540.00
2095, 1538.00
2096, 1542.00
2097, 1540.00
2098, 1542.00
2099, 1541.00
2100, 1543.00
2101, 1543.00
2102, 1541.00
2103, 1544.00
2104, 1542.00
2105, 1545.00
2106, 1542.00
2107, 1543.00
2108, 1544.00
2109, 1545.00
2110, 1546.00
2111, 1544.00
2112, 1545.00
2113, 1546.00
2114, 1545.00
2115, 1545.00
2116, 1547.00
2117, 1546.00
2118, 1545.00
2119, 1547.00
2120, 1547.00
2121, 1547.00
2122, 1548.00
2123, 1548.00
2124, 1546.00
2125, 1546.00
2126, 1547.00
2127, 1547.00
2128, 1548.00
2129, 1547.00
2130, 1549.00
2131, 1549.00
2132, 1548.00
2133, 1549.00
2134, 1548.00
2135, 1550.00
2136, 1548.00
2137, 1550.00
2138, 1549.00
2139, 1549.00
2140, 1550.00
2141, 1551.00
2142, 1550.00
2143, 1552.00
2144, 1550.00
2145, 1550.00
2146, 1551.00
2147, 1550.00
2148, 1550.00
2149, 1550.00
2150, 1551.00
