FW version: 24
Log Version: 3.0.3

General Info:
       Command/Macro Performed,            Timestamp,             Device ID, COM Port, UART/I2C, Test Name, Host Major, Host Minor, Host Revision, Host Git Commit
            Single_measurement,  2023_06_27_11_58_24,       Insight2_F4_xxx,    USB-C,      USB,          ,          0,          1,             1,      4031237645

Show Spectrometer Status:
l0_version, f4_version, battery_perc, battery_mVolt, accelerometer_temp, accelerometer_x, accelerometer_y, accelerometer_z, compass_temp, compass_x, compass_y, compass_z, lamp_0, lamp_1, gain_0, gain_1
        17,         24,           95,          2078,               5552,           65476,             112,           18440,            0,     65516,     65406,     65404,   2866,   2866,    1,    1

Temperature Statistic Info:
NTC AVG [°C], NTC2 AVG [°C]
      37.033,        36.693

Statistic Info:
M1:  num,      min,      max,   median,      AVG,      STD,M2:  num,      min,      max,   median,      AVG,      STD
     301,  1474.00,  1692.00,  1520.00,  1545.67,  67.5318,     401,  2024.00,  2159.00,  2084.00,  2085.45,  44.5762,

Measurements:
Wavelength, Data Amplitude
1350, 1510.00
1351, 1510.00
1352, 1510.00
1353, 1509.00
1354, 1508.00
1355, 1507.00
1356, 1508.00
1357, 1505.00
1358, 1505.00
1359, 1504.00
1360, 1504.00
1361, 1503.00
1362, 1503.00
1363, 1499.00
1364, 1501.00
1365, 1499.00
1366, 1498.00
1367, 1499.00
1368, 1496.00
1369, 1495.00
1370, 1495.00
1371, 1495.00
1372, 1494.00
1373, 1491.00
1374, 1492.00
1375, 1490.00
1376, 1490.00
1377, 1489.00
1378, 1487.00
1379, 1487.00
1380, 1486.00
1381, 1485.00
1382, 1485.00
1383, 1485.00
1384, 1484.00
1385, 1482.00
1386, 1482.00
1387, 1483.00
1388, 1481.00
1389, 1481.00
1390, 1480.00
1391, 1480.00
1392, 1481.00
1393, 1479.00
1394, 1478.00
1395, 1478.00
1396, 1477.00
1397, 1478.00
1398, 1477.00
1399, 1477.00
1400, 1476.00
1401, 1476.00
1402, 1477.00
1403, 1476.00
1404, 1475.00
1405, 1475.00
1406, 1475.00
1407, 1475.00
1408, 1475.00
1409, 1476.00
1410, 1476.00
1411, 1475.00
1412, 1475.00
1413, 1475.00
1414, 1475.00
1415, 1475.00
1416, 1474.00
1417, 1475.00
1418, 1474.00
1419, 1474.00
1420, 1475.00
1421, 1474.00
1422, 1475.00
1423, 1475.00
1424, 1474.00
1425, 1475.00
1426, 1476.00
1427, 1475.00
1428, 1475.00
1429, 1476.00
1430, 1475.00
1431, 1476.00
1432, 1476.00
1433, 1477.00
1434, 1477.00
1435, 1477.00
1436, 1479.00
1437, 1477.00
1438, 1477.00
1439, 1479.00
1440, 1479.00
1441, 1478.00
1442, 1479.00
1443, 1479.00
1444, 1480.00
1445, 1480.00
1446, 1481.00
1447, 1481.00
1448, 1481.00
1449, 1481.00
1450, 1482.00
1451, 1483.00
1452, 1484.00
1453, 1483.00
1454, 1485.00
1455, 1486.00
1456, 1486.00
1457, 1486.00
1458, 1486.00
1459, 1486.00
1460, 1488.00
1461, 1489.00
1462, 1489.00
1463, 1490.00
1464, 1490.00
1465, 1491.00
1466, 1491.00
1467, 1493.00
1468, 1493.00
1469, 1493.00
1470, 1494.00
1471, 1495.00
1472, 1495.00
1473, 1497.00
1474, 1497.00
1475, 1498.00
1476, 1499.00
1477, 1500.00
1478, 1501.00
1479, 1502.00
1480, 1502.00
1481, 1503.00
1482, 1503.00
1483, 1505.00
1484, 1506.00
1485, 1506.00
1486, 1508.00
1487, 1508.00
1488, 1509.00
1489, 1511.00
1490, 1511.00
1491, 1512.00
1492, 1513.00
1493, 1514.00
1494, 1514.00
1495, 1515.00
1496, 1516.00
1497, 1517.00
1498, 1518.00
1499, 1520.00
1500, 1519.00
1501, 1521.00
1502, 1522.00
1503, 1523.00
1504, 1522.00
1505, 1525.00
1506, 1524.00
1507, 1527.00
1508, 1527.00
1509, 1529.00
1510, 1529.00
1511, 1531.00
1512, 1531.00
1513, 1531.00
1514, 1532.00
1515, 1535.00
1516, 1535.00
1517, 1535.00
1518, 1537.00
1519, 1537.00
1520, 1540.00
1521, 1540.00
1522, 1541.00
1523, 1542.00
1524, 1544.00
1525, 1544.00
1526, 1546.00
1527, 1546.00
1528, 1549.00
1529, 1549.00
1530, 1550.00
1531, 1550.00
1532, 1552.00
1533, 1553.00
1534, 1554.00
1535, 1555.00
1536, 1556.00
1537, 1558.00
1538, 1559.00
1539, 1558.00
1540, 1561.00
1541, 1561.00
1542, 1563.00
1543, 1563.00
1544, 1565.00
1545, 1565.00
1546, 1566.00
1547, 1568.00
1548, 1569.00
1549, 1569.00
1550, 1571.00
1551, 1572.00
1552, 1573.00
1553, 1574.00
1554, 1575.00
1555, 1577.00
1556, 1578.00
1557, 1579.00
1558, 1579.00
1559, 1581.00
1560, 1582.00
1561, 1584.00
1562, 1585.00
1563, 1585.00
1564, 1587.00
1565, 1589.00
1566, 1590.00
1567, 1592.00
1568, 1592.00
1569, 1594.00
1570, 1595.00
1571, 1597.00
1572, 1597.00
1573, 1599.00
1574, 1600.00
1575, 1601.00
1576, 1602.00
1577, 1603.00
1578, 1604.00
1579, 1606.00
1580, 1607.00
1581, 1608.00
1582, 1608.00
1583, 1609.00
1584, 1612.00
1585, 1612.00
1586, 1613.00
1587, 1614.00
1588, 1616.00
1589, 1616.00
1590, 1617.00
1591, 1618.00
1592, 1620.00
1593, 1620.00
1594, 1622.00
1595, 1623.00
1596, 1624.00
1597, 1624.00
1598, 1625.00
1599, 1627.00
1600, 1629.00
1601, 1629.00
1602, 1631.00
1603, 1632.00
1604, 1633.00
1605, 1634.00
1606, 1636.00
1607, 1637.00
1608, 1639.00
1609, 1639.00
1610, 1641.00
1611, 1643.00
1612, 1644.00
1613, 1645.00
1614, 1646.00
1615, 1648.00
1616, 1649.00
1617, 1651.00
1618, 1652.00
1619, 1653.00
1620, 1654.00
1621, 1656.00
1622, 1657.00
1623, 1659.00
1624, 1659.00
1625, 1662.00
1626, 1663.00
1627, 1663.00
1628, 1665.00
1629, 1666.00
1630, 1668.00
1631, 1669.00
1632, 1670.00
1633, 1672.00
1634, 1673.00
1635, 1674.00
1636, 1675.00
1637, 1677.00
1638, 1677.00
1639, 1680.00
1640, 1680.00
1641, 1681.00
1642, 1682.00
1643, 1684.00
1644, 1684.00
1645, 1685.00
1646, 1687.00
1647, 1689.00
1648, 1689.00
1649, 1691.00
1650, 1692.00

1750, 2157.00
1751, 2157.00
1752, 2157.00
1753, 2158.00
1754, 2156.00
1755, 2158.00
1756, 2158.00
1757, 2157.00
1758, 2157.00
1759, 2158.00
1760, 2156.00
1761, 2158.00
1762, 2157.00
1763, 2157.00
1764, 2156.00
1765, 2156.00
1766, 2159.00
1767, 2157.00
1768, 2156.00
1769, 2156.00
1770, 2155.00
1771, 2157.00
1772, 2154.00
1773, 2156.00
1774, 2156.00
1775, 2155.00
1776, 2155.00
1777, 2153.00
1778, 2152.00
1779, 2152.00
1780, 2151.00
1781, 2152.00
1782, 2151.00
1783, 2151.00
1784, 2152.00
1785, 2150.00
1786, 2149.00
1787, 2150.00
1788, 2150.00
1789, 2149.00
1790, 2147.00
1791, 2147.00
1792, 2146.00
1793, 2147.00
1794, 2147.00
1795, 2147.00
1796, 2145.00
1797, 2146.00
1798, 2143.00
1799, 2145.00
1800, 2143.00
1801, 2144.00
1802, 2143.00
1803, 2144.00
1804, 2141.00
1805, 2142.00
1806, 2141.00
1807, 2141.00
1808, 2140.00
1809, 2141.00
1810, 2138.00
1811, 2140.00
1812, 2137.00
1813, 2138.00
1814, 2137.00
1815, 2137.00
1816, 2136.00
1817, 2136.00
1818, 2134.00
1819, 2135.00
1820, 2135.00
1821, 2135.00
1822, 2132.00
1823, 2132.00
1824, 2131.00
1825, 2130.00
1826, 2131.00
1827, 2127.00
1828, 2128.00
1829, 2124.00
1830, 2123.00
1831, 2122.00
1832, 2122.00
1833, 2119.00
1834, 2120.00
1835, 2118.00
1836, 2116.00
1837, 2114.00
1838, 2111.00
1839, 2109.00
1840, 2109.00
1841, 2106.00
1842, 2105.00
1843, 2104.00
1844, 2102.00
1845, 2098.00
1846, 2097.00
1847, 2096.00
1848, 2095.00
1849, 2090.00
1850, 2089.00
1851, 2085.00
1852, 2084.00
1853, 2084.00
1854, 2079.00
1855, 2078.00
1856, 2077.00
1857, 2075.00
1858, 2072.00
1859, 2069.00
1860, 2069.00
1861, 2065.00
1862, 2064.00
1863, 2063.00
1864, 2060.00
1865, 2059.00
1866, 2059.00
1867, 2056.00
1868, 2055.00
1869, 2052.00
1870, 2050.00
1871, 2051.00
1872, 2049.00
1873, 2046.00
1874, 2049.00
1875, 2044.00
1876, 2044.00
1877, 2042.00
1878, 2041.00
1879, 2039.00
1880, 2039.00
1881, 2041.00
1882, 2041.00
1883, 2039.00
1884, 2038.00
1885, 2037.00
1886, 2037.00
1887, 2036.00
1888, 2036.00
1889, 2035.00
1890, 2033.00
1891, 2033.00
1892, 2033.00
1893, 2033.00
1894, 2030.00
1895, 2032.00
1896, 2031.00
1897, 2030.00
1898, 2030.00
1899, 2030.00
1900, 2029.00
1901, 2030.00
1902, 2028.00
1903, 2027.00
1904, 2029.00
1905, 2029.00
1906, 2027.00
1907, 2029.00
1908, 2027.00
1909, 2028.00
1910, 2029.00
1911, 2027.00
1912, 2026.00
1913, 2026.00
1914, 2027.00
1915, 2027.00
1916, 2026.00
1917, 2026.00
1918, 2025.00
1919, 2027.00
1920, 2025.00
1921, 2025.00
1922, 2025.00
1923, 2025.00
1924, 2026.00
1925, 2024.00
1926, 2026.00
1927, 2026.00
1928, 2025.00
1929, 2025.00
1930, 2026.00
1931, 2027.00
1932, 2027.00
1933, 2026.00
1934, 2026.00
1935, 2028.00
1936, 2024.00
1937, 2026.00
1938, 2025.00
1939, 2026.00
1940, 2027.00
1941, 2027.00
1942, 2027.00
1943, 2028.00
1944, 2027.00
1945, 2028.00
1946, 2029.00
1947, 2028.00
1948, 2029.00
1949, 2028.00
1950, 2029.00
1951, 2030.00
1952, 2029.00
1953, 2028.00
1954, 2029.00
1955, 2031.00
1956, 2030.00
1957, 2030.00
1958, 2032.00
1959, 2032.00
1960, 2032.00
1961, 2034.00
1962, 2034.00
1963, 2034.00
1964, 2035.00
1965, 2033.00
1966, 2035.00
1967, 2035.00
1968, 2037.00
1969, 2035.00
1970, 2037.00
1971, 2037.00
1972, 2038.00
1973, 2038.00
1974, 2039.00
1975, 2037.00
1976, 2039.00
1977, 2041.00
1978, 2039.00
1979, 2042.00
1980, 2040.00
1981, 2041.00
1982, 2041.00
1983, 2043.00
1984, 2043.00
1985, 2043.00
1986, 2044.00
1987, 2045.00
1988, 2045.00
1989, 2047.00
1990, 2044.00
1991, 2047.00
1992, 2047.00
1993, 2050.00
1994, 2047.00
1995, 2049.00
1996, 2049.00
1997, 2051.00
1998, 2052.00
1999, 2050.00
2000, 2051.00
2001, 2051.00
2002, 2052.00
2003, 2054.00
2004, 2055.00
2005, 2052.00
2006, 2054.00
2007, 2056.00
2008, 2056.00
2009, 2056.00
2010, 2056.00
2011, 2058.00
2012, 2058.00
2013, 2059.00
2014, 2060.00
2015, 2059.00
2016, 2061.00
2017, 2060.00
2018, 2060.00
2019, 2061.00
2020, 2061.00
2021, 2063.00
2022, 2062.00
2023, 2063.00
2024, 2064.00
2025, 2066.00
2026, 2065.00
2027, 2067.00
2028, 2065.00
2029, 2067.00
2030, 2069.00
2031, 2069.00
2032, 2068.00
2033, 2070.00
2034, 2070.00
2035, 2070.00
2036, 2070.00
2037, 2071.00
2038, 2072.00
2039, 2073.00
2040, 2073.00
2041, 2075.00
2042, 2075.00
2043, 2075.00
2044, 2076.00
2045, 2077.00
2046, 2077.00
2047, 2079.00
2048, 2078.00
2049, 2080.00
2050, 2080.00
2051, 2081.00
2052, 2082.00
2053, 2084.00
2054, 2085.00
2055, 2082.00
2056, 2086.00
2057, 2086.00
2058, 2087.00
2059, 2089.00
2060, 2089.00
2061, 2089.00
2062, 2091.00
2063, 2090.00
2064, 2089.00
2065, 2093.00
2066, 2093.00
2067, 2095.00
2068, 2096.00
2069, 2097.00
2070, 2095.00
2071, 2098.00
2072, 2097.00
2073, 2099.00
2074, 2101.00
2075, 2101.00
2076, 2101.00
2077, 2101.00
2078, 2103.00
2079, 2102.00
2080, 2103.00
2081, 2104.00
2082, 2104.00
2083, 2106.00
2084, 2107.00
2085, 2106.00
2086, 2106.00
2087, 2107.00
2088, 2108.00
2089, 2108.00
2090, 2110.00
2091, 2109.00
2092, 2111.00
2093, 2112.00
2094, 2112.00
2095, 2112.00
2096, 2113.00
2097, 2113.00
2098, 2115.00
2099, 2114.00
2100, 2116.00
2101, 2117.00
2102, 2116.00
2103, 2117.00
2104, 2119.00
2105, 2117.00
2106, 2119.00
2107, 2119.00
2108, 2119.00
2109, 2121.00
2110, 2118.00
2111, 2119.00
2112, 2122.00
2113, 2121.00
2114, 2121.00
2115, 2120.00
2116, 2121.00
2117, 2123.00
2118, 2123.00
2119, 2121.00
2120, 2123.00
2121, 2122.00
2122, 2123.00
2123, 2124.00
2124, 2126.00
2125, 2124.00
2126, 2125.00
2127, 2125.00
2128, 2124.00
2129, 2126.00
2130, 2124.00
2131, 2126.00
2132, 2125.00
2133, 2128.00
2134, 2129.00
2135, 2129.00
2136, 2128.00
2137, 2127.00
2138, 2128.00
2139, 2129.00
2140, 2128.00
2141, 2129.00
2142, 2128.00
2143, 2129.00
2144, 2128.00
2145, 2131.00
2146, 2131.00
2147, 2131.00
2148, 2132.00
2149, 2130.00
2150, 2131.00
