FW version: 24
Log Version: 3.0.3

General Info:
       Command/Macro Performed,            Timestamp,             Device ID, COM Port, UART/I2C, Test Name, Host Major, Host Minor, Host Revision, Host Git Commit
            Single_measurement,  2023_06_27_11_58_06,       Insight2_F4_xxx,    USB-C,      USB,          ,          0,          1,             1,      4031237645

Show Spectrometer Status:
l0_version, f4_version, battery_perc, battery_mVolt, accelerometer_temp, accelerometer_x, accelerometer_y, accelerometer_z, compass_temp, compass_x, compass_y, compass_z, lamp_0, lamp_1, gain_0, gain_1
        17,         24,           95,          2078,               5520,           65492,              76,           18268,            0,     65532,     65406,     65407,   2047,   2047,    1,    1

Temperature Statistic Info:
NTC AVG [°C], NTC2 AVG [°C]
      36.835,        36.580

Statistic Info:
M1:  num,      min,      max,   median,      AVG,      STD,M2:  num,      min,      max,   median,      AVG,      STD
     301,   758.00,   880.00,   784.00,   798.11,  38.1120,     401,  1141.00,  1219.00,  1177.00,  1177.82,  25.6728,

Measurements:
Wavelength, Data Amplitude
1350, 774.00
1351, 774.00
1352, 774.00
1353, 774.00
1354, 774.00
1355, 774.00
1356, 773.00
1357, 772.00
1358, 773.00
1359, 772.00
1360, 771.00
1361, 771.00
1362, 770.00
1363, 770.00
1364, 770.00
1365, 770.00
1366, 769.00
1367, 769.00
1368, 767.00
1369, 767.00
1370, 767.00
1371, 766.00
1372, 766.00
1373, 765.00
1374, 766.00
1375, 766.00
1376, 766.00
1377, 764.00
1378, 763.00
1379, 762.00
1380, 762.00
1381, 763.00
1382, 763.00
1383, 762.00
1384, 761.00
1385, 760.00
1386, 761.00
1387, 760.00
1388, 761.00
1389, 760.00
1390, 760.00
1391, 759.00
1392, 759.00
1393, 760.00
1394, 759.00
1395, 759.00
1396, 759.00
1397, 759.00
1398, 759.00
1399, 759.00
1400, 758.00
1401, 758.00
1402, 759.00
1403, 759.00
1404, 758.00
1405, 759.00
1406, 758.00
1407, 758.00
1408, 758.00
1409, 758.00
1410, 759.00
1411, 758.00
1412, 759.00
1413, 758.00
1414, 758.00
1415, 759.00
1416, 758.00
1417, 758.00
1418, 758.00
1419, 758.00
1420, 758.00
1421, 759.00
1422, 758.00
1423, 758.00
1424, 759.00
1425, 758.00
1426, 759.00
1427, 759.00
1428, 758.00
1429, 759.00
1430, 760.00
1431, 759.00
1432, 759.00
1433, 759.00
1434, 759.00
1435, 760.00
1436, 760.00
1437, 760.00
1438, 761.00
1439, 761.00
1440, 760.00
1441, 761.00
1442, 762.00
1443, 762.00
1444, 761.00
1445, 762.00
1446, 762.00
1447, 763.00
1448, 763.00
1449, 762.00
1450, 763.00
1451, 763.00
1452, 764.00
1453, 763.00
1454, 764.00
1455, 764.00
1456, 764.00
1457, 766.00
1458, 766.00
1459, 765.00
1460, 766.00
1461, 767.00
1462, 766.00
1463, 768.00
1464, 769.00
1465, 768.00
1466, 769.00
1467, 768.00
1468, 770.00
1469, 770.00
1470, 770.00
1471, 770.00
1472, 771.00
1473, 771.00
1474, 772.00
1475, 772.00
1476, 772.00
1477, 773.00
1478, 772.00
1479, 774.00
1480, 775.00
1481, 775.00
1482, 775.00
1483, 776.00
1484, 777.00
1485, 777.00
1486, 777.00
1487, 777.00
1488, 778.00
1489, 779.00
1490, 780.00
1491, 780.00
1492, 782.00
1493, 781.00
1494, 781.00
1495, 782.00
1496, 784.00
1497, 783.00
1498, 783.00
1499, 784.00
1500, 785.00
1501, 784.00
1502, 785.00
1503, 786.00
1504, 788.00
1505, 787.00
1506, 788.00
1507, 789.00
1508, 790.00
1509, 790.00
1510, 790.00
1511, 791.00
1512, 791.00
1513, 792.00
1514, 792.00
1515, 793.00
1516, 794.00
1517, 794.00
1518, 795.00
1519, 796.00
1520, 797.00
1521, 797.00
1522, 798.00
1523, 798.00
1524, 799.00
1525, 798.00
1526, 800.00
1527, 800.00
1528, 801.00
1529, 801.00
1530, 802.00
1531, 803.00
1532, 803.00
1533, 804.00
1534, 805.00
1535, 805.00
1536, 806.00
1537, 806.00
1538, 807.00
1539, 807.00
1540, 808.00
1541, 808.00
1542, 809.00
1543, 809.00
1544, 810.00
1545, 810.00
1546, 811.00
1547, 811.00
1548, 813.00
1549, 813.00
1550, 813.00
1551, 814.00
1552, 813.00
1553, 815.00
1554, 815.00
1555, 816.00
1556, 817.00
1557, 817.00
1558, 818.00
1559, 819.00
1560, 819.00
1561, 820.00
1562, 820.00
1563, 821.00
1564, 822.00
1565, 822.00
1566, 823.00
1567, 824.00
1568, 824.00
1569, 826.00
1570, 827.00
1571, 826.00
1572, 827.00
1573, 827.00
1574, 828.00
1575, 829.00
1576, 829.00
1577, 830.00
1578, 831.00
1579, 832.00
1580, 832.00
1581, 834.00
1582, 833.00
1583, 834.00
1584, 835.00
1585, 835.00
1586, 836.00
1587, 836.00
1588, 837.00
1589, 837.00
1590, 839.00
1591, 839.00
1592, 840.00
1593, 839.00
1594, 841.00
1595, 841.00
1596, 842.00
1597, 842.00
1598, 843.00
1599, 844.00
1600, 845.00
1601, 845.00
1602, 845.00
1603, 847.00
1604, 848.00
1605, 847.00
1606, 849.00
1607, 849.00
1608, 850.00
1609, 851.00
1610, 851.00
1611, 852.00
1612, 853.00
1613, 853.00
1614, 855.00
1615, 855.00
1616, 856.00
1617, 857.00
1618, 857.00
1619, 859.00
1620, 859.00
1621, 861.00
1622, 861.00
1623, 862.00
1624, 862.00
1625, 864.00
1626, 863.00
1627, 864.00
1628, 865.00
1629, 866.00
1630, 867.00
1631, 868.00
1632, 868.00
1633, 869.00
1634, 870.00
1635, 870.00
1636, 871.00
1637, 872.00
1638, 872.00
1639, 873.00
1640, 874.00
1641, 874.00
1642, 875.00
1643, 875.00
1644, 875.00
1645, 876.00
1646, 877.00
1647, 878.00
1648, 879.00
1649, 879.00
1650, 880.00

1750, 1217.00
1751, 1217.00
1752, 1217.00
1753, 1215.00
1754, 1219.00
1755, 1217.00
1756, 1217.00
1757, 1218.00
1758, 1217.00
1759, 1216.00
1760, 1218.00
1761, 1217.00
1762, 1216.00
1763, 1218.00
1764, 1217.00
1765, 1217.00
1766, 1216.00
1767, 1217.00
1768, 1214.00
1769, 1216.00
1770, 1216.00
1771, 1216.00
1772, 1215.00
1773, 1215.00
1774, 1217.00
1775, 1215.00
1776, 1216.00
1777, 1214.00
1778, 1215.00
1779, 1215.00
1780, 1214.00
1781, 1213.00
1782, 1213.00
1783, 1215.00
1784, 1214.00
1785, 1212.00
1786, 1215.00
1787, 1213.00
1788, 1213.00
1789, 1213.00
1790, 1212.00
1791, 1211.00
1792, 1212.00
1793, 1211.00
1794, 1211.00
1795, 1210.00
1796, 1211.00
1797, 1211.00
1798, 1210.00
1799, 1209.00
1800, 1210.00
1801, 1209.00
1802, 1210.00
1803, 1209.00
1804, 1208.00
1805, 1209.00
1806, 1208.00
1807, 1210.00
1808, 1208.00
1809, 1209.00
1810, 1209.00
1811, 1208.00
1812, 1206.00
1813, 1207.00
1814, 1206.00
1815, 1207.00
1816, 1206.00
1817, 1205.00
1818, 1204.00
1819, 1206.00
1820, 1204.00
1821, 1203.00
1822, 1205.00
1823, 1205.00
1824, 1202.00
1825, 1202.00
1826, 1200.00
1827, 1201.00
1828, 1200.00
1829, 1200.00
1830, 1197.00
1831, 1199.00
1832, 1197.00
1833, 1198.00
1834, 1197.00
1835, 1195.00
1836, 1195.00
1837, 1193.00
1838, 1193.00
1839, 1192.00
1840, 1191.00
1841, 1190.00
1842, 1189.00
1843, 1187.00
1844, 1185.00
1845, 1184.00
1846, 1183.00
1847, 1182.00
1848, 1181.00
1849, 1179.00
1850, 1179.00
1851, 1178.00
1852, 1177.00
1853, 1176.00
1854, 1174.00
1855, 1173.00
1856, 1172.00
1857, 1170.00
1858, 1170.00
1859, 1168.00
1860, 1168.00
1861, 1166.00
1862, 1165.00
1863, 1164.00
1864, 1163.00
1865, 1161.00
1866, 1161.00
1867, 1160.00
1868, 1160.00
1869, 1159.00
1870, 1157.00
1871, 1157.00
1872, 1157.00
1873, 1154.00
1874, 1154.00
1875, 1154.00
1876, 1154.00
1877, 1155.00
1878, 1153.00
1879, 1152.00
1880, 1152.00
1881, 1151.00
1882, 1150.00
1883, 1149.00
1884, 1149.00
1885, 1149.00
1886, 1149.00
1887, 1148.00
1888, 1149.00
1889, 1147.00
1890, 1147.00
1891, 1149.00
1892, 1147.00
1893, 1147.00
1894, 1146.00
1895, 1146.00
1896, 1148.00
1897, 1148.00
1898, 1145.00
1899, 1144.00
1900, 1145.00
1901, 1144.00
1902, 1144.00
1903, 1146.00
1904, 1145.00
1905, 1145.00
1906, 1143.00
1907, 1144.00
1908, 1143.00
1909, 1144.00
1910, 1145.00
1911, 1142.00
1912, 1144.00
1913, 1145.00
1914, 1143.00
1915, 1143.00
1916, 1143.00
1917, 1142.00
1918, 1143.00
1919, 1143.00
1920, 1141.00
1921, 1143.00
1922, 1144.00
1923, 1144.00
1924, 1142.00
1925, 1142.00
1926, 1142.00
1927, 1143.00
1928, 1143.00
1929, 1143.00
1930, 1145.00
1931, 1143.00
1932, 1145.00
1933, 1144.00
1934, 1141.00
1935, 1142.00
1936, 1145.00
1937, 1143.00
1938, 1144.00
1939, 1143.00
1940, 1144.00
1941, 1144.00
1942, 1142.00
1943, 1145.00
1944, 1143.00
1945, 1144.00
1946, 1145.00
1947, 1145.00
1948, 1144.00
1949, 1143.00
1950, 1144.00
1951, 1144.00
1952, 1146.00
1953, 1145.00
1954, 1146.00
1955, 1144.00
1956, 1147.00
1957, 1147.00
1958, 1146.00
1959, 1148.00
1960, 1145.00
1961, 1148.00
1962, 1147.00
1963, 1148.00
1964, 1149.00
1965, 1148.00
1966, 1148.00
1967, 1149.00
1968, 1149.00
1969, 1150.00
1970, 1150.00
1971, 1149.00
1972, 1151.00
1973, 1149.00
1974, 1150.00
1975, 1151.00
1976, 1152.00
1977, 1151.00
1978, 1153.00
1979, 1152.00
1980, 1153.00
1981, 1152.00
1982, 1153.00
1983, 1152.00
1984, 1154.00
1985, 1153.00
1986, 1153.00
1987, 1154.00
1988, 1155.00
1989, 1154.00
1990, 1157.00
1991, 1156.00
1992, 1156.00
1993, 1157.00
1994, 1157.00
1995, 1157.00
1996, 1158.00
1997, 1158.00
1998, 1158.00
1999, 1158.00
2000, 1161.00
2001, 1157.00
2002, 1157.00
2003, 1158.00
2004, 1161.00
2005, 1159.00
2006, 1160.00
2007, 1160.00
2008, 1162.00
2009, 1161.00
2010, 1160.00
2011, 1162.00
2012, 1161.00
2013, 1162.00
2014, 1162.00
2015, 1163.00
2016, 1164.00
2017, 1164.00
2018, 1163.00
2019, 1163.00
2020, 1164.00
2021, 1165.00
2022, 1165.00
2023, 1165.00
2024, 1164.00
2025, 1165.00
2026, 1167.00
2027, 1166.00
2028, 1167.00
2029, 1169.00
2030, 1169.00
2031, 1168.00
2032, 1169.00
2033, 1170.00
2034, 1168.00
2035, 1169.00
2036, 1170.00
2037, 1169.00
2038, 1172.00
2039, 1173.00
2040, 1172.00
2041, 1173.00
2042, 1173.00
2043, 1173.00
2044, 1173.00
2045, 1173.00
2046, 1174.00
2047, 1175.00
2048, 1174.00
2049, 1176.00
2050, 1176.00
2051, 1177.00
2052, 1178.00
2053, 1177.00
2054, 1177.00
2055, 1177.00
2056, 1178.00
2057, 1179.00
2058, 1179.00
2059, 1180.00
2060, 1182.00
2061, 1180.00
2062, 1183.00
2063, 1183.00
2064, 1182.00
2065, 1183.00
2066, 1184.00
2067, 1183.00
2068, 1185.00
2069, 1184.00
2070, 1184.00
2071, 1185.00
2072, 1186.00
2073, 1188.00
2074, 1188.00
2075, 1187.00
2076, 1188.00
2077, 1188.00
2078, 1188.00
2079, 1186.00
2080, 1190.00
2081, 1190.00
2082, 1191.00
2083, 1191.00
2084, 1191.00
2085, 1192.00
2086, 1192.00
2087, 1192.00
2088, 1193.00
2089, 1192.00
2090, 1194.00
2091, 1194.00
2092, 1194.00
2093, 1196.00
2094, 1197.00
2095, 1197.00
2096, 1196.00
2097, 1196.00
2098, 1196.00
2099, 1197.00
2100, 1197.00
2101, 1199.00
2102, 1197.00
2103, 1198.00
2104, 1198.00
2105, 1198.00
2106, 1197.00
2107, 1198.00
2108, 1200.00
2109, 1199.00
2110, 1201.00
2111, 1202.00
2112, 1199.00
2113, 1200.00
2114, 1201.00
2115, 1202.00
2116, 1202.00
2117, 1199.00
2118, 1202.00
2119, 1201.00
2120, 1202.00
2121, 1202.00
2122, 1202.00
2123, 1203.00
2124, 1203.00
2125, 1203.00
2126, 1202.00
2127, 1203.00
2128, 1203.00
2129, 1204.00
2130, 1204.00
2131, 1204.00
2132, 1205.00
2133, 1204.00
2134, 1205.00
2135, 1204.00
2136, 1205.00
2137, 1205.00
2138, 1205.00
2139, 1206.00
2140, 1207.00
2141, 1206.00
2142, 1205.00
2143, 1205.00
2144, 1208.00
2145, 1206.00
2146, 1207.00
2147, 1207.00
2148, 1207.00
2149, 1207.00
2150, 1206.00
