FW version: 24
Log Version: 3.0.3

General Info:
       Command/Macro Performed,            Timestamp,             Device ID, COM Port, UART/I2C, Test Name, Host Major, Host Minor, Host Revision, Host Git Commit
            Single_measurement,  2023_06_29_11_14_55,       Insight2_F4_xxx,    USB-C,      USB,          ,          0,          1,             1,      4031237645

Show Spectrometer Status:
l0_version, f4_version, battery_perc, battery_mVolt, accelerometer_temp, accelerometer_x, accelerometer_y, accelerometer_z, compass_temp, compass_x, compass_y, compass_z, lamp_0, lamp_1, gain_0, gain_1
        17,         24,           94,          2073,               5408,           65328,           65272,           18360,            0,     65333,     65530,     65534,   2866,   2866,      1,      1

Temperature Statistic Info:
NTC AVG [°C], NTC2 AVG [°C]
      36.580,        36.236

Statistic Info:
M1:  num,      min,      max,   median,      AVG,      STD,M2:  num,      min,      max,   median,      AVG,      STD
     301,  1308.00,  1502.00,  1348.00,  1371.40,  59.7950,     401,  1779.00,  1899.00,  1829.00,  1832.19,  38.6595,

Measurements:
Wavelength, Data Amplitude
1350, 1341.00
1351, 1340.00
1352, 1339.00
1353, 1341.00
1354, 1339.00
1355, 1338.00
1356, 1339.00
1357, 1337.00
1358, 1336.00
1359, 1336.00
1360, 1335.00
1361, 1335.00
1362, 1334.00
1363, 1334.00
1364, 1331.00
1365, 1331.00
1366, 1330.00
1367, 1330.00
1368, 1328.00
1369, 1327.00
1370, 1327.00
1371, 1325.00
1372, 1325.00
1373, 1324.00
1374, 1324.00
1375, 1323.00
1376, 1321.00
1377, 1320.00
1378, 1321.00
1379, 1319.00
1380, 1319.00
1381, 1318.00
1382, 1317.00
1383, 1317.00
1384, 1317.00
1385, 1316.00
1386, 1316.00
1387, 1315.00
1388, 1314.00
1389, 1314.00
1390, 1313.00
1391, 1313.00
1392, 1313.00
1393, 1313.00
1394, 1312.00
1395, 1312.00
1396, 1311.00
1397, 1312.00
1398, 1310.00
1399, 1311.00
1400, 1311.00
1401, 1312.00
1402, 1310.00
1403, 1310.00
1404, 1310.00
1405, 1309.00
1406, 1310.00
1407, 1310.00
1408, 1309.00
1409, 1308.00
1410, 1310.00
1411, 1308.00
1412, 1309.00
1413, 1309.00
1414, 1309.00
1415, 1308.00
1416, 1308.00
1417, 1308.00
1418, 1309.00
1419, 1308.00
1420, 1309.00
1421, 1309.00
1422, 1308.00
1423, 1309.00
1424, 1310.00
1425, 1309.00
1426, 1309.00
1427, 1308.00
1428, 1309.00
1429, 1309.00
1430, 1309.00
1431, 1309.00
1432, 1310.00
1433, 1310.00
1434, 1310.00
1435, 1311.00
1436, 1312.00
1437, 1311.00
1438, 1312.00
1439, 1312.00
1440, 1312.00
1441, 1312.00
1442, 1312.00
1443, 1313.00
1444, 1313.00
1445, 1313.00
1446, 1313.00
1447, 1314.00
1448, 1315.00
1449, 1315.00
1450, 1315.00
1451, 1315.00
1452, 1316.00
1453, 1317.00
1454, 1318.00
1455, 1317.00
1456, 1318.00
1457, 1319.00
1458, 1318.00
1459, 1320.00
1460, 1319.00
1461, 1320.00
1462, 1321.00
1463, 1321.00
1464, 1322.00
1465, 1322.00
1466, 1323.00
1467, 1323.00
1468, 1324.00
1469, 1326.00
1470, 1325.00
1471, 1326.00
1472, 1326.00
1473, 1328.00
1474, 1328.00
1475, 1329.00
1476, 1330.00
1477, 1331.00
1478, 1332.00
1479, 1331.00
1480, 1333.00
1481, 1334.00
1482, 1333.00
1483, 1335.00
1484, 1335.00
1485, 1337.00
1486, 1337.00
1487, 1338.00
1488, 1338.00
1489, 1340.00
1490, 1340.00
1491, 1341.00
1492, 1341.00
1493, 1342.00
1494, 1344.00
1495, 1345.00
1496, 1345.00
1497, 1346.00
1498, 1346.00
1499, 1348.00
1500, 1348.00
1501, 1349.00
1502, 1349.00
1503, 1351.00
1504, 1351.00
1505, 1353.00
1506, 1352.00
1507, 1354.00
1508, 1355.00
1509, 1355.00
1510, 1356.00
1511, 1357.00
1512, 1359.00
1513, 1360.00
1514, 1360.00
1515, 1361.00
1516, 1362.00
1517, 1363.00
1518, 1363.00
1519, 1365.00
1520, 1366.00
1521, 1366.00
1522, 1368.00
1523, 1368.00
1524, 1370.00
1525, 1371.00
1526, 1371.00
1527, 1373.00
1528, 1373.00
1529, 1375.00
1530, 1375.00
1531, 1375.00
1532, 1377.00
1533, 1378.00
1534, 1379.00
1535, 1380.00
1536, 1381.00
1537, 1382.00
1538, 1383.00
1539, 1383.00
1540, 1384.00
1541, 1386.00
1542, 1386.00
1543, 1387.00
1544, 1388.00
1545, 1389.00
1546, 1390.00
1547, 1391.00
1548, 1392.00
1549, 1393.00
1550, 1394.00
1551, 1395.00
1552, 1397.00
1553, 1398.00
1554, 1398.00
1555, 1399.00
1556, 1399.00
1557, 1401.00
1558, 1403.00
1559, 1403.00
1560, 1403.00
1561, 1405.00
1562, 1407.00
1563, 1408.00
1564, 1407.00
1565, 1409.00
1566, 1411.00
1567, 1412.00
1568, 1413.00
1569, 1413.00
1570, 1414.00
1571, 1416.00
1572, 1417.00
1573, 1417.00
1574, 1419.00
1575, 1420.00
1576, 1421.00
1577, 1422.00
1578, 1423.00
1579, 1424.00
1580, 1425.00
1581, 1426.00
1582, 1427.00
1583, 1427.00
1584, 1429.00
1585, 1430.00
1586, 1431.00
1587, 1432.00
1588, 1433.00
1589, 1433.00
1590, 1434.00
1591, 1434.00
1592, 1436.00
1593, 1436.00
1594, 1438.00
1595, 1439.00
1596, 1440.00
1597, 1441.00
1598, 1443.00
1599, 1444.00
1600, 1444.00
1601, 1445.00
1602, 1447.00
1603, 1447.00
1604, 1449.00
1605, 1450.00
1606, 1451.00
1607, 1451.00
1608, 1453.00
1609, 1454.00
1610, 1455.00
1611, 1457.00
1612, 1459.00
1613, 1458.00
1614, 1460.00
1615, 1461.00
1616, 1463.00
1617, 1464.00
1618, 1466.00
1619, 1467.00
1620, 1468.00
1621, 1469.00
1622, 1470.00
1623, 1471.00
1624, 1473.00
1625, 1473.00
1626, 1475.00
1627, 1476.00
1628, 1478.00
1629, 1479.00
1630, 1481.00
1631, 1481.00
1632, 1482.00
1633, 1484.00
1634, 1484.00
1635, 1487.00
1636, 1486.00
1637, 1487.00
1638, 1489.00
1639, 1489.00
1640, 1491.00
1641, 1492.00
1642, 1492.00
1643, 1494.00
1644, 1495.00
1645, 1496.00
1646, 1497.00
1647, 1498.00
1648, 1499.00
1649, 1500.00
1650, 1502.00

1750, 1896.00
1751, 1897.00
1752, 1896.00
1753, 1898.00
1754, 1897.00
1755, 1897.00
1756, 1899.00
1757, 1896.00
1758, 1897.00
1759, 1897.00
1760, 1897.00
1761, 1897.00
1762, 1898.00
1763, 1896.00
1764, 1897.00
1765, 1896.00
1766, 1896.00
1767, 1896.00
1768, 1896.00
1769, 1896.00
1770, 1895.00
1771, 1896.00
1772, 1895.00
1773, 1894.00
1774, 1896.00
1775, 1893.00
1776, 1892.00
1777, 1893.00
1778, 1893.00
1779, 1892.00
1780, 1892.00
1781, 1892.00
1782, 1891.00
1783, 1891.00
1784, 1890.00
1785, 1890.00
1786, 1889.00
1787, 1889.00
1788, 1889.00
1789, 1889.00
1790, 1889.00
1791, 1887.00
1792, 1887.00
1793, 1887.00
1794, 1885.00
1795, 1887.00
1796, 1887.00
1797, 1885.00
1798, 1887.00
1799, 1885.00
1800, 1884.00
1801, 1884.00
1802, 1884.00
1803, 1885.00
1804, 1882.00
1805, 1882.00
1806, 1881.00
1807, 1882.00
1808, 1881.00
1809, 1881.00
1810, 1881.00
1811, 1881.00
1812, 1881.00
1813, 1879.00
1814, 1880.00
1815, 1878.00
1816, 1878.00
1817, 1878.00
1818, 1877.00
1819, 1876.00
1820, 1874.00
1821, 1875.00
1822, 1873.00
1823, 1873.00
1824, 1873.00
1825, 1873.00
1826, 1871.00
1827, 1870.00
1828, 1869.00
1829, 1867.00
1830, 1867.00
1831, 1867.00
1832, 1865.00
1833, 1863.00
1834, 1861.00
1835, 1860.00
1836, 1860.00
1837, 1857.00
1838, 1855.00
1839, 1855.00
1840, 1855.00
1841, 1851.00
1842, 1851.00
1843, 1847.00
1844, 1846.00
1845, 1844.00
1846, 1842.00
1847, 1841.00
1848, 1839.00
1849, 1837.00
1850, 1837.00
1851, 1833.00
1852, 1832.00
1853, 1829.00
1854, 1827.00
1855, 1825.00
1856, 1825.00
1857, 1823.00
1858, 1821.00
1859, 1819.00
1860, 1818.00
1861, 1813.00
1862, 1813.00
1863, 1813.00
1864, 1812.00
1865, 1809.00
1866, 1809.00
1867, 1808.00
1868, 1805.00
1869, 1805.00
1870, 1803.00
1871, 1802.00
1872, 1802.00
1873, 1801.00
1874, 1799.00
1875, 1797.00
1876, 1797.00
1877, 1796.00
1878, 1795.00
1879, 1796.00
1880, 1795.00
1881, 1794.00
1882, 1792.00
1883, 1791.00
1884, 1793.00
1885, 1793.00
1886, 1791.00
1887, 1791.00
1888, 1790.00
1889, 1789.00
1890, 1789.00
1891, 1787.00
1892, 1789.00
1893, 1786.00
1894, 1786.00
1895, 1787.00
1896, 1786.00
1897, 1787.00
1898, 1785.00
1899, 1786.00
1900, 1787.00
1901, 1785.00
1902, 1785.00
1903, 1783.00
1904, 1783.00
1905, 1785.00
1906, 1782.00
1907, 1782.00
1908, 1784.00
1909, 1784.00
1910, 1785.00
1911, 1784.00
1912, 1782.00
1913, 1783.00
1914, 1782.00
1915, 1784.00
1916, 1782.00
1917, 1781.00
1918, 1781.00
1919, 1783.00
1920, 1782.00
1921, 1782.00
1922, 1782.00
1923, 1779.00
1924, 1781.00
1925, 1780.00
1926, 1782.00
1927, 1781.00
1928, 1780.00
1929, 1781.00
1930, 1781.00
1931, 1780.00
1932, 1781.00
1933, 1782.00
1934, 1781.00
1935, 1781.00
1936, 1782.00
1937, 1782.00
1938, 1782.00
1939, 1781.00
1940, 1782.00
1941, 1783.00
1942, 1783.00
1943, 1782.00
1944, 1783.00
1945, 1781.00
1946, 1782.00
1947, 1782.00
1948, 1783.00
1949, 1781.00
1950, 1783.00
1951, 1783.00
1952, 1786.00
1953, 1784.00
1954, 1785.00
1955, 1785.00
1956, 1786.00
1957, 1786.00
1958, 1785.00
1959, 1787.00
1960, 1785.00
1961, 1787.00
1962, 1788.00
1963, 1786.00
1964, 1788.00
1965, 1789.00
1966, 1788.00
1967, 1790.00
1968, 1790.00
1969, 1790.00
1970, 1788.00
1971, 1791.00
1972, 1793.00
1973, 1790.00
1974, 1793.00
1975, 1793.00
1976, 1794.00
1977, 1793.00
1978, 1793.00
1979, 1795.00
1980, 1795.00
1981, 1795.00
1982, 1797.00
1983, 1795.00
1984, 1798.00
1985, 1796.00
1986, 1796.00
1987, 1799.00
1988, 1796.00
1989, 1797.00
1990, 1799.00
1991, 1798.00
1992, 1799.00
1993, 1800.00
1994, 1800.00
1995, 1801.00
1996, 1800.00
1997, 1801.00
1998, 1800.00
1999, 1801.00
2000, 1802.00
2001, 1803.00
2002, 1802.00
2003, 1803.00
2004, 1806.00
2005, 1805.00
2006, 1804.00
2007, 1805.00
2008, 1804.00
2009, 1805.00
2010, 1806.00
2011, 1807.00
2012, 1808.00
2013, 1808.00
2014, 1807.00
2015, 1810.00
2016, 1810.00
2017, 1810.00
2018, 1810.00
2019, 1808.00
2020, 1811.00
2021, 1812.00
2022, 1811.00
2023, 1813.00
2024, 1814.00
2025, 1813.00
2026, 1813.00
2027, 1814.00
2028, 1812.00
2029, 1815.00
2030, 1814.00
2031, 1815.00
2032, 1817.00
2033, 1815.00
2034, 1817.00
2035, 1817.00
2036, 1818.00
2037, 1819.00
2038, 1821.00
2039, 1819.00
2040, 1820.00
2041, 1821.00
2042, 1823.00
2043, 1822.00
2044, 1822.00
2045, 1824.00
2046, 1825.00
2047, 1824.00
2048, 1827.00
2049, 1825.00
2050, 1826.00
2051, 1829.00
2052, 1828.00
2053, 1827.00
2054, 1829.00
2055, 1829.00
2056, 1829.00
2057, 1830.00
2058, 1831.00
2059, 1832.00
2060, 1834.00
2061, 1833.00
2062, 1834.00
2063, 1835.00
2064, 1836.00
2065, 1834.00
2066, 1838.00
2067, 1838.00
2068, 1839.00
2069, 1839.00
2070, 1841.00
2071, 1842.00
2072, 1841.00
2073, 1841.00
2074, 1842.00
2075, 1844.00
2076, 1844.00
2077, 1844.00
2078, 1845.00
2079, 1846.00
2080, 1846.00
2081, 1846.00
2082, 1846.00
2083, 1847.00
2084, 1847.00
2085, 1848.00
2086, 1849.00
2087, 1850.00
2088, 1849.00
2089, 1851.00
2090, 1852.00
2091, 1852.00
2092, 1853.00
2093, 1852.00
2094, 1854.00
2095, 1854.00
2096, 1854.00
2097, 1855.00
2098, 1856.00
2099, 1856.00
2100, 1855.00
2101, 1857.00
2102, 1856.00
2103, 1855.00
2104, 1858.00
2105, 1858.00
2106, 1857.00
2107, 1858.00
2108, 1858.00
2109, 1858.00
2110, 1859.00
2111, 1860.00
2112, 1858.00
2113, 1861.00
2114, 1861.00
2115, 1860.00
2116, 1861.00
2117, 1861.00
2118, 1862.00
2119, 1861.00
2120, 1861.00
2121, 1863.00
2122, 1863.00
2123, 1862.00
2124, 1862.00
2125, 1864.00
2126, 1863.00
2127, 1865.00
2128, 1867.00
2129, 1866.00
2130, 1865.00
2131, 1866.00
2132, 1867.00
2133, 1865.00
2134, 1866.00
2135, 1867.00
2136, 1866.00
2137, 1868.00
2138, 1867.00
2139, 1869.00
2140, 1869.00
2141, 1868.00
2142, 1867.00
2143, 1867.00
2144, 1869.00
2145, 1869.00
2146, 1869.00
2147, 1871.00
2148, 1869.00
2149, 1871.00
2150, 1871.00
