FW version: 24
Log Version: 3.0.3

General Info:
       Command/Macro Performed,            Timestamp,             Device ID, COM Port, UART/I2C, Test Name, Host Major, Host Minor, Host Revision, Host Git Commit
            Single_measurement,  2023_06_29_11_14_32,       Insight2_F4_xxx,    USB-C,      USB,          ,          0,          1,             1,      4031237645

Show Spectrometer Status:
l0_version, f4_version, battery_perc, battery_mVolt, accelerometer_temp, accelerometer_x, accelerometer_y, accelerometer_z, compass_temp, compass_x, compass_y, compass_z, lamp_0, lamp_1, gain_0, gain_1
        17,         24,           94,          2070,               5376,           65316,           65024,           18440,            0,     65326,     65360,     65530,   2457,   2457,      1,      1

Temperature Statistic Info:
NTC AVG [°C], NTC2 AVG [°C]
      36.408,        36.062

Statistic Info:
M1:  num,      min,      max,   median,      AVG,      STD,M2:  num,      min,      max,   median,      AVG,      STD
     301,   971.00,  1120.00,  1002.00,  1020.12,  46.3445,     401,  1378.00,  1469.00,  1416.00,  1418.95,  30.0689,

Measurements:
Wavelength, Data Amplitude
1350, 995.00
1351, 995.00
1352, 993.00
1353, 995.00
1354, 992.00
1355, 992.00
1356, 993.00
1357, 991.00
1358, 991.00
1359, 991.00
1360, 991.00
1361, 989.00
1362, 990.00
1363, 988.00
1364, 988.00
1365, 987.00
1366, 986.00
1367, 987.00
1368, 986.00
1369, 985.00
1370, 985.00
1371, 984.00
1372, 982.00
1373, 983.00
1374, 983.00
1375, 981.00
1376, 981.00
1377, 981.00
1378, 979.00
1379, 979.00
1380, 979.00
1381, 978.00
1382, 978.00
1383, 977.00
1384, 976.00
1385, 977.00
1386, 975.00
1387, 976.00
1388, 975.00
1389, 975.00
1390, 975.00
1391, 975.00
1392, 974.00
1393, 974.00
1394, 973.00
1395, 973.00
1396, 973.00
1397, 973.00
1398, 973.00
1399, 972.00
1400, 973.00
1401, 973.00
1402, 972.00
1403, 972.00
1404, 973.00
1405, 972.00
1406, 971.00
1407, 973.00
1408, 972.00
1409, 971.00
1410, 972.00
1411, 972.00
1412, 971.00
1413, 972.00
1414, 972.00
1415, 971.00
1416, 971.00
1417, 972.00
1418, 971.00
1419, 971.00
1420, 972.00
1421, 971.00
1422, 972.00
1423, 972.00
1424, 971.00
1425, 972.00
1426, 971.00
1427, 971.00
1428, 972.00
1429, 973.00
1430, 972.00
1431, 972.00
1432, 973.00
1433, 973.00
1434, 973.00
1435, 974.00
1436, 973.00
1437, 973.00
1438, 974.00
1439, 975.00
1440, 974.00
1441, 974.00
1442, 975.00
1443, 975.00
1444, 975.00
1445, 975.00
1446, 976.00
1447, 977.00
1448, 976.00
1449, 977.00
1450, 977.00
1451, 977.00
1452, 978.00
1453, 979.00
1454, 978.00
1455, 977.00
1456, 978.00
1457, 980.00
1458, 979.00
1459, 981.00
1460, 981.00
1461, 981.00
1462, 982.00
1463, 981.00
1464, 983.00
1465, 983.00
1466, 983.00
1467, 983.00
1468, 984.00
1469, 985.00
1470, 985.00
1471, 985.00
1472, 986.00
1473, 987.00
1474, 987.00
1475, 988.00
1476, 988.00
1477, 988.00
1478, 989.00
1479, 989.00
1480, 990.00
1481, 991.00
1482, 992.00
1483, 992.00
1484, 994.00
1485, 993.00
1486, 993.00
1487, 994.00
1488, 996.00
1489, 996.00
1490, 997.00
1491, 997.00
1492, 997.00
1493, 998.00
1494, 999.00
1495, 1000.00
1496, 1000.00
1497, 1000.00
1498, 1001.00
1499, 1002.00
1500, 1002.00
1501, 1003.00
1502, 1004.00
1503, 1005.00
1504, 1005.00
1505, 1006.00
1506, 1006.00
1507, 1008.00
1508, 1008.00
1509, 1009.00
1510, 1009.00
1511, 1009.00
1512, 1011.00
1513, 1011.00
1514, 1011.00
1515, 1013.00
1516, 1014.00
1517, 1014.00
1518, 1015.00
1519, 1016.00
1520, 1016.00
1521, 1016.00
1522, 1018.00
1523, 1018.00
1524, 1019.00
1525, 1019.00
1526, 1020.00
1527, 1022.00
1528, 1022.00
1529, 1022.00
1530, 1024.00
1531, 1024.00
1532, 1026.00
1533, 1027.00
1534, 1027.00
1535, 1028.00
1536, 1029.00
1537, 1028.00
1538, 1031.00
1539, 1030.00
1540, 1032.00
1541, 1032.00
1542, 1033.00
1543, 1033.00
1544, 1034.00
1545, 1035.00
1546, 1036.00
1547, 1036.00
1548, 1037.00
1549, 1038.00
1550, 1038.00
1551, 1039.00
1552, 1040.00
1553, 1040.00
1554, 1042.00
1555, 1042.00
1556, 1042.00
1557, 1044.00
1558, 1044.00
1559, 1046.00
1560, 1046.00
1561, 1047.00
1562, 1048.00
1563, 1047.00
1564, 1049.00
1565, 1049.00
1566, 1051.00
1567, 1052.00
1568, 1052.00
1569, 1053.00
1570, 1054.00
1571, 1055.00
1572, 1055.00
1573, 1057.00
1574, 1057.00
1575, 1058.00
1576, 1058.00
1577, 1059.00
1578, 1060.00
1579, 1061.00
1580, 1062.00
1581, 1062.00
1582, 1063.00
1583, 1064.00
1584, 1064.00
1585, 1065.00
1586, 1067.00
1587, 1067.00
1588, 1067.00
1589, 1069.00
1590, 1069.00
1591, 1070.00
1592, 1070.00
1593, 1071.00
1594, 1072.00
1595, 1072.00
1596, 1073.00
1597, 1075.00
1598, 1075.00
1599, 1076.00
1600, 1076.00
1601, 1077.00
1602, 1078.00
1603, 1079.00
1604, 1080.00
1605, 1081.00
1606, 1082.00
1607, 1083.00
1608, 1082.00
1609, 1085.00
1610, 1085.00
1611, 1086.00
1612, 1087.00
1613, 1088.00
1614, 1089.00
1615, 1090.00
1616, 1091.00
1617, 1092.00
1618, 1093.00
1619, 1093.00
1620, 1094.00
1621, 1096.00
1622, 1096.00
1623, 1098.00
1624, 1099.00
1625, 1098.00
1626, 1101.00
1627, 1101.00
1628, 1102.00
1629, 1103.00
1630, 1104.00
1631, 1105.00
1632, 1106.00
1633, 1106.00
1634, 1107.00
1635, 1108.00
1636, 1109.00
1637, 1111.00
1638, 1111.00
1639, 1112.00
1640, 1111.00
1641, 1113.00
1642, 1113.00
1643, 1113.00
1644, 1115.00
1645, 1117.00
1646, 1117.00
1647, 1118.00
1648, 1118.00
1649, 1119.00
1650, 1120.00

1750, 1467.00
1751, 1467.00
1752, 1468.00
1753, 1469.00
1754, 1467.00
1755, 1469.00
1756, 1468.00
1757, 1467.00
1758, 1468.00
1759, 1469.00
1760, 1468.00
1761, 1468.00
1762, 1468.00
1763, 1467.00
1764, 1468.00
1765, 1467.00
1766, 1469.00
1767, 1467.00
1768, 1467.00
1769, 1468.00
1770, 1466.00
1771, 1468.00
1772, 1466.00
1773, 1466.00
1774, 1467.00
1775, 1468.00
1776, 1465.00
1777, 1465.00
1778, 1466.00
1779, 1465.00
1780, 1465.00
1781, 1465.00
1782, 1463.00
1783, 1463.00
1784, 1464.00
1785, 1461.00
1786, 1463.00
1787, 1463.00
1788, 1463.00
1789, 1463.00
1790, 1460.00
1791, 1462.00
1792, 1462.00
1793, 1460.00
1794, 1460.00
1795, 1459.00
1796, 1459.00
1797, 1460.00
1798, 1458.00
1799, 1459.00
1800, 1460.00
1801, 1457.00
1802, 1458.00
1803, 1458.00
1804, 1457.00
1805, 1457.00
1806, 1458.00
1807, 1457.00
1808, 1457.00
1809, 1456.00
1810, 1456.00
1811, 1455.00
1812, 1455.00
1813, 1455.00
1814, 1455.00
1815, 1455.00
1816, 1453.00
1817, 1452.00
1818, 1453.00
1819, 1453.00
1820, 1453.00
1821, 1451.00
1822, 1452.00
1823, 1451.00
1824, 1450.00
1825, 1450.00
1826, 1449.00
1827, 1448.00
1828, 1446.00
1829, 1448.00
1830, 1444.00
1831, 1446.00
1832, 1443.00
1833, 1443.00
1834, 1442.00
1835, 1440.00
1836, 1441.00
1837, 1437.00
1838, 1436.00
1839, 1435.00
1840, 1436.00
1841, 1435.00
1842, 1433.00
1843, 1431.00
1844, 1430.00
1845, 1427.00
1846, 1425.00
1847, 1427.00
1848, 1426.00
1849, 1422.00
1850, 1422.00
1851, 1420.00
1852, 1417.00
1853, 1416.00
1854, 1416.00
1855, 1414.00
1856, 1413.00
1857, 1411.00
1858, 1410.00
1859, 1409.00
1860, 1407.00
1861, 1406.00
1862, 1407.00
1863, 1403.00
1864, 1404.00
1865, 1402.00
1866, 1400.00
1867, 1399.00
1868, 1400.00
1869, 1396.00
1870, 1394.00
1871, 1396.00
1872, 1392.00
1873, 1394.00
1874, 1393.00
1875, 1392.00
1876, 1390.00
1877, 1391.00
1878, 1390.00
1879, 1388.00
1880, 1389.00
1881, 1388.00
1882, 1388.00
1883, 1387.00
1884, 1386.00
1885, 1387.00
1886, 1387.00
1887, 1386.00
1888, 1386.00
1889, 1384.00
1890, 1385.00
1891, 1385.00
1892, 1384.00
1893, 1383.00
1894, 1383.00
1895, 1384.00
1896, 1382.00
1897, 1382.00
1898, 1383.00
1899, 1382.00
1900, 1384.00
1901, 1382.00
1902, 1381.00
1903, 1381.00
1904, 1381.00
1905, 1381.00
1906, 1380.00
1907, 1380.00
1908, 1380.00
1909, 1379.00
1910, 1379.00
1911, 1381.00
1912, 1380.00
1913, 1379.00
1914, 1380.00
1915, 1380.00
1916, 1379.00
1917, 1379.00
1918, 1380.00
1919, 1379.00
1920, 1379.00
1921, 1380.00
1922, 1379.00
1923, 1379.00
1924, 1379.00
1925, 1380.00
1926, 1380.00
1927, 1380.00
1928, 1379.00
1929, 1379.00
1930, 1379.00
1931, 1381.00
1932, 1379.00
1933, 1379.00
1934, 1381.00
1935, 1380.00
1936, 1379.00
1937, 1378.00
1938, 1380.00
1939, 1380.00
1940, 1379.00
1941, 1380.00
1942, 1380.00
1943, 1382.00
1944, 1382.00
1945, 1381.00
1946, 1379.00
1947, 1380.00
1948, 1381.00
1949, 1380.00
1950, 1380.00
1951, 1382.00
1952, 1382.00
1953, 1383.00
1954, 1383.00
1955, 1383.00
1956, 1381.00
1957, 1384.00
1958, 1383.00
1959, 1383.00
1960, 1383.00
1961, 1383.00
1962, 1383.00
1963, 1383.00
1964, 1384.00
1965, 1384.00
1966, 1385.00
1967, 1385.00
1968, 1385.00
1969, 1384.00
1970, 1386.00
1971, 1386.00
1972, 1386.00
1973, 1386.00
1974, 1389.00
1975, 1387.00
1976, 1387.00
1977, 1388.00
1978, 1389.00
1979, 1389.00
1980, 1391.00
1981, 1390.00
1982, 1389.00
1983, 1390.00
1984, 1391.00
1985, 1392.00
1986, 1391.00
1987, 1391.00
1988, 1393.00
1989, 1392.00
1990, 1393.00
1991, 1393.00
1992, 1392.00
1993, 1393.00
1994, 1394.00
1995, 1394.00
1996, 1394.00
1997, 1394.00
1998, 1394.00
1999, 1397.00
2000, 1395.00
2001, 1396.00
2002, 1396.00
2003, 1397.00
2004, 1396.00
2005, 1397.00
2006, 1398.00
2007, 1398.00
2008, 1399.00
2009, 1400.00
2010, 1398.00
2011, 1399.00
2012, 1399.00
2013, 1399.00
2014, 1401.00
2015, 1399.00
2016, 1403.00
2017, 1401.00
2018, 1403.00
2019, 1401.00
2020, 1403.00
2021, 1402.00
2022, 1403.00
2023, 1404.00
2024, 1404.00
2025, 1405.00
2026, 1406.00
2027, 1404.00
2028, 1405.00
2029, 1405.00
2030, 1406.00
2031, 1407.00
2032, 1407.00
2033, 1407.00
2034, 1408.00
2035, 1407.00
2036, 1409.00
2037, 1409.00
2038, 1410.00
2039, 1408.00
2040, 1410.00
2041, 1410.00
2042, 1412.00
2043, 1411.00
2044, 1410.00
2045, 1412.00
2046, 1412.00
2047, 1413.00
2048, 1414.00
2049, 1415.00
2050, 1414.00
2051, 1416.00
2052, 1414.00
2053, 1416.00
2054, 1417.00
2055, 1417.00
2056, 1419.00
2057, 1419.00
2058, 1420.00
2059, 1419.00
2060, 1420.00
2061, 1422.00
2062, 1421.00
2063, 1421.00
2064, 1421.00
2065, 1423.00
2066, 1423.00
2067, 1425.00
2068, 1425.00
2069, 1424.00
2070, 1426.00
2071, 1426.00
2072, 1426.00
2073, 1427.00
2074, 1429.00
2075, 1428.00
2076, 1428.00
2077, 1429.00
2078, 1429.00
2079, 1431.00
2080, 1429.00
2081, 1431.00
2082, 1433.00
2083, 1432.00
2084, 1432.00
2085, 1433.00
2086, 1433.00
2087, 1434.00
2088, 1434.00
2089, 1435.00
2090, 1435.00
2091, 1434.00
2092, 1437.00
2093, 1436.00
2094, 1435.00
2095, 1438.00
2096, 1437.00
2097, 1439.00
2098, 1437.00
2099, 1438.00
2100, 1438.00
2101, 1438.00
2102, 1439.00
2103, 1439.00
2104, 1441.00
2105, 1440.00
2106, 1440.00
2107, 1441.00
2108, 1442.00
2109, 1442.00
2110, 1441.00
2111, 1442.00
2112, 1442.00
2113, 1443.00
2114, 1441.00
2115, 1442.00
2116, 1442.00
2117, 1442.00
2118, 1444.00
2119, 1443.00
2120, 1445.00
2121, 1444.00
2122, 1444.00
2123, 1443.00
2124, 1446.00
2125, 1445.00
2126, 1445.00
2127, 1446.00
2128, 1445.00
2129, 1445.00
2130, 1447.00
2131, 1446.00
2132, 1446.00
2133, 1448.00
2134, 1447.00
2135, 1446.00
2136, 1447.00
2137, 1447.00
2138, 1449.00
2139, 1446.00
2140, 1449.00
2141, 1448.00
2142, 1448.00
2143, 1450.00
2144, 1448.00
2145, 1448.00
2146, 1450.00
2147, 1449.00
2148, 1451.00
2149, 1450.00
2150, 1449.00
