FW version: 24
Log Version: 3.0.3

General Info:
       Command/Macro Performed,            Timestamp,             Device ID, COM Port, UART/I2C, Test Name, Host Major, Host Minor, Host Revision, Host Git Commit
            Single_measurement,  2023_06_29_11_15_19,       Insight2_F4_xxx,    USB-C,      USB,          ,          0,          1,             1,      4031237645

Show Spectrometer Status:
l0_version, f4_version, battery_perc, battery_mVolt, accelerometer_temp, accelerometer_x, accelerometer_y, accelerometer_z, compass_temp, compass_x, compass_y, compass_z, lamp_0, lamp_1, gain_0, gain_1
        17,         24,           94,          2075,               5424,           65272,           65364,           18468,            0,     65534,     65374,     18484,   3276,   3276,      1,      1

Temperature Statistic Info:
NTC AVG [°C], NTC2 AVG [°C]
      36.750,        36.408

Statistic Info:
M1:  num,      min,      max,   median,      AVG,      STD,M2:  num,      min,      max,   median,      AVG,      STD
     301,  1679.00,  1918.00,  1729.00,  1758.03,  74.2757,     401,  2208.00,  2354.00,  2266.00,  2271.41,  47.5315,

Measurements:
Wavelength, Data Amplitude
1350, 1723.00
1351, 1722.00
1352, 1722.00
1353, 1720.00
1354, 1720.00
1355, 1721.00
1356, 1719.00
1357, 1717.00
1358, 1717.00
1359, 1716.00
1360, 1715.00
1361, 1714.00
1362, 1714.00
1363, 1713.00
1364, 1710.00
1365, 1711.00
1366, 1708.00
1367, 1709.00
1368, 1706.00
1369, 1705.00
1370, 1705.00
1371, 1704.00
1372, 1702.00
1373, 1701.00
1374, 1699.00
1375, 1698.00
1376, 1699.00
1377, 1695.00
1378, 1695.00
1379, 1694.00
1380, 1694.00
1381, 1693.00
1382, 1691.00
1383, 1690.00
1384, 1689.00
1385, 1690.00
1386, 1689.00
1387, 1688.00
1388, 1688.00
1389, 1687.00
1390, 1688.00
1391, 1686.00
1392, 1685.00
1393, 1685.00
1394, 1685.00
1395, 1685.00
1396, 1684.00
1397, 1684.00
1398, 1683.00
1399, 1684.00
1400, 1682.00
1401, 1684.00
1402, 1682.00
1403, 1682.00
1404, 1682.00
1405, 1682.00
1406, 1682.00
1407, 1681.00
1408, 1681.00
1409, 1681.00
1410, 1681.00
1411, 1681.00
1412, 1680.00
1413, 1680.00
1414, 1680.00
1415, 1680.00
1416, 1679.00
1417, 1679.00
1418, 1679.00
1419, 1680.00
1420, 1680.00
1421, 1680.00
1422, 1680.00
1423, 1679.00
1424, 1681.00
1425, 1680.00
1426, 1681.00
1427, 1680.00
1428, 1680.00
1429, 1680.00
1430, 1681.00
1431, 1681.00
1432, 1681.00
1433, 1681.00
1434, 1682.00
1435, 1682.00
1436, 1682.00
1437, 1683.00
1438, 1684.00
1439, 1683.00
1440, 1683.00
1441, 1684.00
1442, 1684.00
1443, 1684.00
1444, 1685.00
1445, 1686.00
1446, 1687.00
1447, 1687.00
1448, 1687.00
1449, 1688.00
1450, 1687.00
1451, 1687.00
1452, 1688.00
1453, 1691.00
1454, 1689.00
1455, 1690.00
1456, 1690.00
1457, 1691.00
1458, 1692.00
1459, 1692.00
1460, 1693.00
1461, 1694.00
1462, 1695.00
1463, 1695.00
1464, 1696.00
1465, 1696.00
1466, 1698.00
1467, 1697.00
1468, 1700.00
1469, 1699.00
1470, 1699.00
1471, 1701.00
1472, 1701.00
1473, 1702.00
1474, 1703.00
1475, 1705.00
1476, 1705.00
1477, 1706.00
1478, 1707.00
1479, 1709.00
1480, 1709.00
1481, 1711.00
1482, 1711.00
1483, 1712.00
1484, 1712.00
1485, 1713.00
1486, 1714.00
1487, 1717.00
1488, 1716.00
1489, 1718.00
1490, 1719.00
1491, 1720.00
1492, 1721.00
1493, 1721.00
1494, 1723.00
1495, 1724.00
1496, 1723.00
1497, 1726.00
1498, 1727.00
1499, 1728.00
1500, 1729.00
1501, 1730.00
1502, 1731.00
1503, 1731.00
1504, 1732.00
1505, 1734.00
1506, 1734.00
1507, 1736.00
1508, 1737.00
1509, 1737.00
1510, 1739.00
1511, 1740.00
1512, 1742.00
1513, 1743.00
1514, 1743.00
1515, 1744.00
1516, 1745.00
1517, 1747.00
1518, 1748.00
1519, 1749.00
1520, 1751.00
1521, 1751.00
1522, 1752.00
1523, 1754.00
1524, 1755.00
1525, 1757.00
1526, 1757.00
1527, 1758.00
1528, 1759.00
1529, 1760.00
1530, 1762.00
1531, 1763.00
1532, 1764.00
1533, 1765.00
1534, 1767.00
1535, 1767.00
1536, 1769.00
1537, 1770.00
1538, 1771.00
1539, 1773.00
1540, 1774.00
1541, 1773.00
1542, 1775.00
1543, 1777.00
1544, 1779.00
1545, 1780.00
1546, 1780.00
1547, 1782.00
1548, 1783.00
1549, 1785.00
1550, 1786.00
1551, 1787.00
1552, 1788.00
1553, 1790.00
1554, 1790.00
1555, 1791.00
1556, 1792.00
1557, 1794.00
1558, 1795.00
1559, 1797.00
1560, 1799.00
1561, 1800.00
1562, 1802.00
1563, 1802.00
1564, 1804.00
1565, 1806.00
1566, 1806.00
1567, 1809.00
1568, 1809.00
1569, 1811.00
1570, 1812.00
1571, 1814.00
1572, 1815.00
1573, 1816.00
1574, 1818.00
1575, 1818.00
1576, 1819.00
1577, 1822.00
1578, 1822.00
1579, 1824.00
1580, 1825.00
1581, 1827.00
1582, 1827.00
1583, 1829.00
1584, 1831.00
1585, 1831.00
1586, 1833.00
1587, 1833.00
1588, 1835.00
1589, 1836.00
1590, 1837.00
1591, 1839.00
1592, 1839.00
1593, 1841.00
1594, 1842.00
1595, 1844.00
1596, 1844.00
1597, 1846.00
1598, 1846.00
1599, 1847.00
1600, 1850.00
1601, 1850.00
1602, 1851.00
1603, 1853.00
1604, 1855.00
1605, 1856.00
1606, 1858.00
1607, 1858.00
1608, 1860.00
1609, 1862.00
1610, 1863.00
1611, 1865.00
1612, 1865.00
1613, 1867.00
1614, 1868.00
1615, 1870.00
1616, 1871.00
1617, 1874.00
1618, 1875.00
1619, 1876.00
1620, 1879.00
1621, 1878.00
1622, 1881.00
1623, 1882.00
1624, 1884.00
1625, 1885.00
1626, 1887.00
1627, 1888.00
1628, 1889.00
1629, 1891.00
1630, 1893.00
1631, 1895.00
1632, 1896.00
1633, 1897.00
1634, 1898.00
1635, 1900.00
1636, 1902.00
1637, 1902.00
1638, 1904.00
1639, 1904.00
1640, 1906.00
1641, 1907.00
1642, 1908.00
1643, 1909.00
1644, 1911.00
1645, 1912.00
1646, 1914.00
1647, 1914.00
1648, 1915.00
1649, 1917.00
1650, 1918.00

1750, 2354.00
1751, 2353.00
1752, 2351.00
1753, 2354.00
1754, 2353.00
1755, 2352.00
1756, 2353.00
1757, 2352.00
1758, 2352.00
1759, 2353.00
1760, 2353.00
1761, 2351.00
1762, 2353.00
1763, 2353.00
1764, 2352.00
1765, 2352.00
1766, 2350.00
1767, 2351.00
1768, 2351.00
1769, 2351.00
1770, 2351.00
1771, 2351.00
1772, 2350.00
1773, 2350.00
1774, 2349.00
1775, 2348.00
1776, 2349.00
1777, 2347.00
1778, 2346.00
1779, 2347.00
1780, 2346.00
1781, 2346.00
1782, 2346.00
1783, 2345.00
1784, 2344.00
1785, 2343.00
1786, 2344.00
1787, 2341.00
1788, 2342.00
1789, 2344.00
1790, 2340.00
1791, 2341.00
1792, 2339.00
1793, 2340.00
1794, 2340.00
1795, 2340.00
1796, 2339.00
1797, 2338.00
1798, 2339.00
1799, 2338.00
1800, 2336.00
1801, 2333.00
1802, 2335.00
1803, 2337.00
1804, 2334.00
1805, 2333.00
1806, 2333.00
1807, 2334.00
1808, 2333.00
1809, 2333.00
1810, 2332.00
1811, 2331.00
1812, 2331.00
1813, 2331.00
1814, 2328.00
1815, 2329.00
1816, 2329.00
1817, 2327.00
1818, 2327.00
1819, 2325.00
1820, 2325.00
1821, 2325.00
1822, 2324.00
1823, 2323.00
1824, 2323.00
1825, 2321.00
1826, 2320.00
1827, 2321.00
1828, 2319.00
1829, 2316.00
1830, 2314.00
1831, 2314.00
1832, 2310.00
1833, 2309.00
1834, 2308.00
1835, 2305.00
1836, 2307.00
1837, 2305.00
1838, 2301.00
1839, 2300.00
1840, 2298.00
1841, 2296.00
1842, 2294.00
1843, 2291.00
1844, 2290.00
1845, 2286.00
1846, 2285.00
1847, 2284.00
1848, 2281.00
1849, 2276.00
1850, 2275.00
1851, 2273.00
1852, 2271.00
1853, 2269.00
1854, 2265.00
1855, 2264.00
1856, 2263.00
1857, 2260.00
1858, 2257.00
1859, 2255.00
1860, 2253.00
1861, 2250.00
1862, 2249.00
1863, 2246.00
1864, 2246.00
1865, 2244.00
1866, 2241.00
1867, 2241.00
1868, 2239.00
1869, 2236.00
1870, 2235.00
1871, 2235.00
1872, 2232.00
1873, 2231.00
1874, 2232.00
1875, 2230.00
1876, 2229.00
1877, 2227.00
1878, 2226.00
1879, 2223.00
1880, 2224.00
1881, 2224.00
1882, 2223.00
1883, 2222.00
1884, 2222.00
1885, 2223.00
1886, 2220.00
1887, 2222.00
1888, 2220.00
1889, 2220.00
1890, 2219.00
1891, 2219.00
1892, 2218.00
1893, 2219.00
1894, 2217.00
1895, 2215.00
1896, 2215.00
1897, 2215.00
1898, 2214.00
1899, 2215.00
1900, 2214.00
1901, 2215.00
1902, 2212.00
1903, 2214.00
1904, 2212.00
1905, 2212.00
1906, 2214.00
1907, 2212.00
1908, 2211.00
1909, 2212.00
1910, 2211.00
1911, 2209.00
1912, 2211.00
1913, 2209.00
1914, 2211.00
1915, 2210.00
1916, 2210.00
1917, 2209.00
1918, 2209.00
1919, 2209.00
1920, 2210.00
1921, 2209.00
1922, 2209.00
1923, 2209.00
1924, 2210.00
1925, 2209.00
1926, 2209.00
1927, 2209.00
1928, 2210.00
1929, 2209.00
1930, 2210.00
1931, 2209.00
1932, 2210.00
1933, 2210.00
1934, 2209.00
1935, 2208.00
1936, 2210.00
1937, 2210.00
1938, 2208.00
1939, 2209.00
1940, 2212.00
1941, 2210.00
1942, 2210.00
1943, 2209.00
1944, 2212.00
1945, 2211.00
1946, 2211.00
1947, 2212.00
1948, 2213.00
1949, 2211.00
1950, 2213.00
1951, 2212.00
1952, 2211.00
1953, 2213.00
1954, 2215.00
1955, 2214.00
1956, 2214.00
1957, 2215.00
1958, 2216.00
1959, 2214.00
1960, 2215.00
1961, 2216.00
1962, 2219.00
1963, 2217.00
1964, 2219.00
1965, 2218.00
1966, 2218.00
1967, 2220.00
1968, 2220.00
1969, 2221.00
1970, 2219.00
1971, 2221.00
1972, 2222.00
1973, 2221.00
1974, 2223.00
1975, 2221.00
1976, 2222.00
1977, 2224.00
1978, 2225.00
1979, 2226.00
1980, 2227.00
1981, 2225.00
1982, 2224.00
1983, 2227.00
1984, 2227.00
1985, 2226.00
1986, 2228.00
1987, 2230.00
1988, 2228.00
1989, 2228.00
1990, 2229.00
1991, 2231.00
1992, 2231.00
1993, 2231.00
1994, 2232.00
1995, 2231.00
1996, 2232.00
1997, 2234.00
1998, 2232.00
1999, 2235.00
2000, 2235.00
2001, 2237.00
2002, 2235.00
2003, 2237.00
2004, 2237.00
2005, 2239.00
2006, 2239.00
2007, 2238.00
2008, 2239.00
2009, 2240.00
2010, 2243.00
2011, 2240.00
2012, 2240.00
2013, 2241.00
2014, 2243.00
2015, 2242.00
2016, 2243.00
2017, 2245.00
2018, 2242.00
2019, 2245.00
2020, 2244.00
2021, 2245.00
2022, 2247.00
2023, 2247.00
2024, 2248.00
2025, 2247.00
2026, 2247.00
2027, 2248.00
2028, 2248.00
2029, 2250.00
2030, 2250.00
2031, 2251.00
2032, 2252.00
2033, 2252.00
2034, 2251.00
2035, 2253.00
2036, 2254.00
2037, 2254.00
2038, 2255.00
2039, 2255.00
2040, 2257.00
2041, 2257.00
2042, 2258.00
2043, 2259.00
2044, 2259.00
2045, 2259.00
2046, 2261.00
2047, 2261.00
2048, 2261.00
2049, 2263.00
2050, 2264.00
2051, 2265.00
2052, 2265.00
2053, 2266.00
2054, 2266.00
2055, 2267.00
2056, 2268.00
2057, 2269.00
2058, 2270.00
2059, 2271.00
2060, 2272.00
2061, 2273.00
2062, 2273.00
2063, 2273.00
2064, 2274.00
2065, 2277.00
2066, 2277.00
2067, 2278.00
2068, 2279.00
2069, 2280.00
2070, 2278.00
2071, 2280.00
2072, 2281.00
2073, 2283.00
2074, 2282.00
2075, 2281.00
2076, 2285.00
2077, 2287.00
2078, 2288.00
2079, 2286.00
2080, 2287.00
2081, 2286.00
2082, 2289.00
2083, 2288.00
2084, 2289.00
2085, 2288.00
2086, 2291.00
2087, 2292.00
2088, 2292.00
2089, 2292.00
2090, 2293.00
2091, 2295.00
2092, 2294.00
2093, 2294.00
2094, 2295.00
2095, 2297.00
2096, 2295.00
2097, 2297.00
2098, 2299.00
2099, 2298.00
2100, 2298.00
2101, 2301.00
2102, 2299.00
2103, 2300.00
2104, 2302.00
2105, 2302.00
2106, 2302.00
2107, 2302.00
2108, 2304.00
2109, 2303.00
2110, 2304.00
2111, 2303.00
2112, 2305.00
2113, 2306.00
2114, 2303.00
2115, 2305.00
2116, 2306.00
2117, 2307.00
2118, 2306.00
2119, 2307.00
2120, 2308.00
2121, 2306.00
2122, 2307.00
2123, 2308.00
2124, 2309.00
2125, 2309.00
2126, 2309.00
2127, 2310.00
2128, 2310.00
2129, 2310.00
2130, 2311.00
2131, 2309.00
2132, 2312.00
2133, 2312.00
2134, 2312.00
2135, 2312.00
2136, 2311.00
2137, 2312.00
2138, 2314.00
2139, 2314.00
2140, 2314.00
2141, 2313.00
2142, 2315.00
2143, 2313.00
2144, 2314.00
2145, 2314.00
2146, 2315.00
2147, 2314.00
2148, 2315.00
2149, 2315.00
2150, 2315.00
