FW version: 24
Log Version: 3.0.3

General Info:
       Command/Macro Performed,            Timestamp,             Device ID, COM Port, UART/I2C, Test Name, Host Major, Host Minor, Host Revision, Host Git Commit
            Single_measurement,  2023_06_28_12_42_34,       Insight2_F4_xxx,    USB-C,      USB,          ,          0,          1,             1,      4031237645

Show Spectrometer Status:
l0_version, f4_version, battery_perc, battery_mVolt, accelerometer_temp, accelerometer_x, accelerometer_y, accelerometer_z, compass_temp, compass_x, compass_y, compass_z, lamp_0, lamp_1, gain_0, gain_1
        17,         24,           50,          1920,               6432,              44,             308,           18820,            0,     65407,     65460,     65519,   2457,   2457,      1,      1

Temperature Statistic Info:
NTC AVG [°C], NTC2 AVG [°C]
      39.704,        39.411

Statistic Info:
M1:  num,      min,      max,   median,      AVG,      STD,M2:  num,      min,      max,   median,      AVG,      STD
     301,   895.00,  1020.00,   925.00,   937.17,  38.4061,     401,  1347.00,  1423.00,  1386.00,  1385.75,  25.7366,

Measurements:
Wavelength, Data Amplitude
1350, 910.00
1351, 911.00
1352, 911.00
1353, 910.00
1354, 910.00
1355, 910.00
1356, 910.00
1357, 908.00
1358, 909.00
1359, 909.00
1360, 908.00
1361, 907.00
1362, 907.00
1363, 907.00
1364, 906.00
1365, 906.00
1366, 905.00
1367, 906.00
1368, 905.00
1369, 904.00
1370, 905.00
1371, 904.00
1372, 903.00
1373, 903.00
1374, 902.00
1375, 902.00
1376, 902.00
1377, 901.00
1378, 902.00
1379, 900.00
1380, 900.00
1381, 901.00
1382, 900.00
1383, 900.00
1384, 899.00
1385, 899.00
1386, 898.00
1387, 898.00
1388, 898.00
1389, 898.00
1390, 897.00
1391, 898.00
1392, 897.00
1393, 897.00
1394, 898.00
1395, 898.00
1396, 897.00
1397, 896.00
1398, 897.00
1399, 898.00
1400, 897.00
1401, 897.00
1402, 897.00
1403, 896.00
1404, 897.00
1405, 896.00
1406, 896.00
1407, 897.00
1408, 897.00
1409, 897.00
1410, 897.00
1411, 895.00
1412, 897.00
1413, 896.00
1414, 897.00
1415, 896.00
1416, 897.00
1417, 897.00
1418, 897.00
1419, 897.00
1420, 897.00
1421, 897.00
1422, 897.00
1423, 896.00
1424, 897.00
1425, 897.00
1426, 897.00
1427, 897.00
1428, 898.00
1429, 898.00
1430, 898.00
1431, 898.00
1432, 898.00
1433, 899.00
1434, 898.00
1435, 898.00
1436, 899.00
1437, 899.00
1438, 900.00
1439, 899.00
1440, 900.00
1441, 900.00
1442, 901.00
1443, 901.00
1444, 901.00
1445, 901.00
1446, 902.00
1447, 901.00
1448, 902.00
1449, 902.00
1450, 903.00
1451, 903.00
1452, 904.00
1453, 903.00
1454, 904.00
1455, 903.00
1456, 905.00
1457, 905.00
1458, 905.00
1459, 906.00
1460, 906.00
1461, 907.00
1462, 906.00
1463, 907.00
1464, 906.00
1465, 907.00
1466, 908.00
1467, 908.00
1468, 909.00
1469, 909.00
1470, 909.00
1471, 911.00
1472, 911.00
1473, 911.00
1474, 911.00
1475, 912.00
1476, 913.00
1477, 914.00
1478, 913.00
1479, 914.00
1480, 914.00
1481, 916.00
1482, 916.00
1483, 916.00
1484, 916.00
1485, 916.00
1486, 917.00
1487, 918.00
1488, 919.00
1489, 919.00
1490, 919.00
1491, 920.00
1492, 921.00
1493, 922.00
1494, 922.00
1495, 922.00
1496, 923.00
1497, 923.00
1498, 924.00
1499, 924.00
1500, 926.00
1501, 925.00
1502, 926.00
1503, 927.00
1504, 927.00
1505, 928.00
1506, 928.00
1507, 928.00
1508, 929.00
1509, 930.00
1510, 930.00
1511, 931.00
1512, 931.00
1513, 932.00
1514, 933.00
1515, 933.00
1516, 933.00
1517, 934.00
1518, 935.00
1519, 935.00
1520, 936.00
1521, 935.00
1522, 937.00
1523, 937.00
1524, 938.00
1525, 939.00
1526, 940.00
1527, 940.00
1528, 941.00
1529, 940.00
1530, 942.00
1531, 942.00
1532, 943.00
1533, 944.00
1534, 943.00
1535, 945.00
1536, 945.00
1537, 946.00
1538, 947.00
1539, 946.00
1540, 948.00
1541, 948.00
1542, 949.00
1543, 949.00
1544, 949.00
1545, 951.00
1546, 951.00
1547, 952.00
1548, 951.00
1549, 954.00
1550, 953.00
1551, 953.00
1552, 954.00
1553, 954.00
1554, 955.00
1555, 956.00
1556, 958.00
1557, 957.00
1558, 958.00
1559, 959.00
1560, 959.00
1561, 959.00
1562, 962.00
1563, 961.00
1564, 962.00
1565, 963.00
1566, 963.00
1567, 964.00
1568, 964.00
1569, 965.00
1570, 966.00
1571, 966.00
1572, 967.00
1573, 968.00
1574, 969.00
1575, 969.00
1576, 969.00
1577, 970.00
1578, 972.00
1579, 971.00
1580, 972.00
1581, 972.00
1582, 973.00
1583, 974.00
1584, 973.00
1585, 975.00
1586, 975.00
1587, 976.00
1588, 976.00
1589, 977.00
1590, 978.00
1591, 978.00
1592, 979.00
1593, 980.00
1594, 980.00
1595, 981.00
1596, 981.00
1597, 982.00
1598, 983.00
1599, 983.00
1600, 984.00
1601, 984.00
1602, 985.00
1603, 984.00
1604, 986.00
1605, 986.00
1606, 987.00
1607, 988.00
1608, 988.00
1609, 989.00
1610, 990.00
1611, 991.00
1612, 992.00
1613, 992.00
1614, 994.00
1615, 994.00
1616, 995.00
1617, 995.00
1618, 996.00
1619, 998.00
1620, 998.00
1621, 998.00
1622, 1000.00
1623, 1000.00
1624, 1002.00
1625, 1002.00
1626, 1002.00
1627, 1004.00
1628, 1004.00
1629, 1005.00
1630, 1007.00
1631, 1007.00
1632, 1007.00
1633, 1008.00
1634, 1008.00
1635, 1009.00
1636, 1011.00
1637, 1011.00
1638, 1011.00
1639, 1011.00
1640, 1012.00
1641, 1014.00
1642, 1013.00
1643, 1014.00
1644, 1015.00
1645, 1016.00
1646, 1017.00
1647, 1017.00
1648, 1018.00
1649, 1019.00
1650, 1020.00

1750, 1422.00
1751, 1423.00
1752, 1421.00
1753, 1421.00
1754, 1423.00
1755, 1422.00
1756, 1422.00
1757, 1420.00
1758, 1423.00
1759, 1423.00
1760, 1422.00
1761, 1421.00
1762, 1422.00
1763, 1420.00
1764, 1421.00
1765, 1421.00
1766, 1420.00
1767, 1422.00
1768, 1420.00
1769, 1420.00
1770, 1421.00
1771, 1419.00
1772, 1420.00
1773, 1419.00
1774, 1421.00
1775, 1418.00
1776, 1420.00
1777, 1421.00
1778, 1418.00
1779, 1419.00
1780, 1418.00
1781, 1419.00
1782, 1419.00
1783, 1418.00
1784, 1416.00
1785, 1418.00
1786, 1416.00
1787, 1416.00
1788, 1416.00
1789, 1414.00
1790, 1416.00
1791, 1416.00
1792, 1415.00
1793, 1415.00
1794, 1414.00
1795, 1413.00
1796, 1413.00
1797, 1415.00
1798, 1413.00
1799, 1414.00
1800, 1415.00
1801, 1413.00
1802, 1413.00
1803, 1413.00
1804, 1412.00
1805, 1412.00
1806, 1413.00
1807, 1413.00
1808, 1413.00
1809, 1413.00
1810, 1411.00
1811, 1412.00
1812, 1413.00
1813, 1412.00
1814, 1413.00
1815, 1411.00
1816, 1411.00
1817, 1411.00
1818, 1410.00
1819, 1411.00
1820, 1407.00
1821, 1409.00
1822, 1410.00
1823, 1409.00
1824, 1407.00
1825, 1409.00
1826, 1406.00
1827, 1406.00
1828, 1405.00
1829, 1406.00
1830, 1404.00
1831, 1403.00
1832, 1403.00
1833, 1402.00
1834, 1401.00
1835, 1402.00
1836, 1399.00
1837, 1398.00
1838, 1398.00
1839, 1398.00
1840, 1399.00
1841, 1396.00
1842, 1394.00
1843, 1392.00
1844, 1392.00
1845, 1392.00
1846, 1389.00
1847, 1388.00
1848, 1388.00
1849, 1387.00
1850, 1386.00
1851, 1384.00
1852, 1383.00
1853, 1381.00
1854, 1379.00
1855, 1379.00
1856, 1377.00
1857, 1377.00
1858, 1374.00
1859, 1373.00
1860, 1374.00
1861, 1371.00
1862, 1371.00
1863, 1371.00
1864, 1369.00
1865, 1369.00
1866, 1367.00
1867, 1366.00
1868, 1367.00
1869, 1364.00
1870, 1362.00
1871, 1362.00
1872, 1361.00
1873, 1359.00
1874, 1360.00
1875, 1359.00
1876, 1358.00
1877, 1359.00
1878, 1357.00
1879, 1357.00
1880, 1358.00
1881, 1356.00
1882, 1356.00
1883, 1356.00
1884, 1355.00
1885, 1357.00
1886, 1355.00
1887, 1354.00
1888, 1354.00
1889, 1354.00
1890, 1354.00
1891, 1354.00
1892, 1353.00
1893, 1352.00
1894, 1354.00
1895, 1352.00
1896, 1351.00
1897, 1352.00
1898, 1351.00
1899, 1349.00
1900, 1349.00
1901, 1350.00
1902, 1351.00
1903, 1349.00
1904, 1349.00
1905, 1350.00
1906, 1351.00
1907, 1350.00
1908, 1351.00
1909, 1351.00
1910, 1350.00
1911, 1350.00
1912, 1348.00
1913, 1349.00
1914, 1349.00
1915, 1348.00
1916, 1347.00
1917, 1349.00
1918, 1348.00
1919, 1349.00
1920, 1348.00
1921, 1350.00
1922, 1350.00
1923, 1349.00
1924, 1350.00
1925, 1349.00
1926, 1351.00
1927, 1349.00
1928, 1350.00
1929, 1350.00
1930, 1350.00
1931, 1351.00
1932, 1349.00
1933, 1350.00
1934, 1349.00
1935, 1349.00
1936, 1351.00
1937, 1349.00
1938, 1350.00
1939, 1351.00
1940, 1350.00
1941, 1349.00
1942, 1351.00
1943, 1350.00
1944, 1350.00
1945, 1350.00
1946, 1351.00
1947, 1351.00
1948, 1353.00
1949, 1352.00
1950, 1353.00
1951, 1353.00
1952, 1353.00
1953, 1356.00
1954, 1354.00
1955, 1353.00
1956, 1354.00
1957, 1353.00
1958, 1353.00
1959, 1355.00
1960, 1356.00
1961, 1354.00
1962, 1355.00
1963, 1355.00
1964, 1355.00
1965, 1355.00
1966, 1356.00
1967, 1355.00
1968, 1358.00
1969, 1357.00
1970, 1358.00
1971, 1358.00
1972, 1358.00
1973, 1360.00
1974, 1358.00
1975, 1359.00
1976, 1360.00
1977, 1360.00
1978, 1361.00
1979, 1362.00
1980, 1363.00
1981, 1361.00
1982, 1361.00
1983, 1361.00
1984, 1363.00
1985, 1363.00
1986, 1363.00
1987, 1365.00
1988, 1365.00
1989, 1363.00
1990, 1364.00
1991, 1363.00
1992, 1365.00
1993, 1364.00
1994, 1366.00
1995, 1365.00
1996, 1367.00
1997, 1367.00
1998, 1367.00
1999, 1367.00
2000, 1368.00
2001, 1366.00
2002, 1368.00
2003, 1368.00
2004, 1370.00
2005, 1369.00
2006, 1370.00
2007, 1370.00
2008, 1371.00
2009, 1372.00
2010, 1372.00
2011, 1371.00
2012, 1376.00
2013, 1371.00
2014, 1372.00
2015, 1373.00
2016, 1373.00
2017, 1375.00
2018, 1374.00
2019, 1373.00
2020, 1375.00
2021, 1375.00
2022, 1377.00
2023, 1376.00
2024, 1376.00
2025, 1378.00
2026, 1378.00
2027, 1380.00
2028, 1376.00
2029, 1378.00
2030, 1379.00
2031, 1379.00
2032, 1380.00
2033, 1380.00
2034, 1381.00
2035, 1381.00
2036, 1381.00
2037, 1380.00
2038, 1382.00
2039, 1382.00
2040, 1383.00
2041, 1382.00
2042, 1384.00
2043, 1382.00
2044, 1385.00
2045, 1384.00
2046, 1386.00
2047, 1385.00
2048, 1386.00
2049, 1387.00
2050, 1384.00
2051, 1385.00
2052, 1387.00
2053, 1390.00
2054, 1389.00
2055, 1390.00
2056, 1392.00
2057, 1391.00
2058, 1390.00
2059, 1391.00
2060, 1393.00
2061, 1395.00
2062, 1392.00
2063, 1395.00
2064, 1394.00
2065, 1393.00
2066, 1394.00
2067, 1395.00
2068, 1398.00
2069, 1396.00
2070, 1398.00
2071, 1398.00
2072, 1399.00
2073, 1399.00
2074, 1400.00
2075, 1400.00
2076, 1401.00
2077, 1401.00
2078, 1402.00
2079, 1402.00
2080, 1402.00
2081, 1402.00
2082, 1402.00
2083, 1404.00
2084, 1403.00
2085, 1404.00
2086, 1406.00
2087, 1406.00
2088, 1405.00
2089, 1406.00
2090, 1407.00
2091, 1406.00
2092, 1407.00
2093, 1406.00
2094, 1407.00
2095, 1408.00
2096, 1408.00
2097, 1408.00
2098, 1408.00
2099, 1409.00
2100, 1407.00
2101, 1409.00
2102, 1408.00
2103, 1410.00
2104, 1411.00
2105, 1412.00
2106, 1412.00
2107, 1411.00
2108, 1411.00
2109, 1411.00
2110, 1410.00
2111, 1411.00
2112, 1411.00
2113, 1413.00
2114, 1412.00
2115, 1413.00
2116, 1412.00
2117, 1413.00
2118, 1414.00
2119, 1412.00
2120, 1413.00
2121, 1412.00
2122, 1413.00
2123, 1413.00
2124, 1413.00
2125, 1413.00
2126, 1415.00
2127, 1414.00
2128, 1414.00
2129, 1414.00
2130, 1415.00
2131, 1415.00
2132, 1415.00
2133, 1416.00
2134, 1415.00
2135, 1416.00
2136, 1416.00
2137, 1417.00
2138, 1416.00
2139, 1415.00
2140, 1417.00
2141, 1417.00
2142, 1417.00
2143, 1416.00
2144, 1418.00
2145, 1416.00
2146, 1417.00
2147, 1418.00
2148, 1419.00
2149, 1418.00
2150, 1416.00
