FW version: 24
Log Version: 3.0.3

General Info:
       Command/Macro Performed,            Timestamp,             Device ID, COM Port, UART/I2C, Test Name, Host Major, Host Minor, Host Revision, Host Git Commit
            Single_measurement,  2023_06_28_12_43_08,       Insight2_F4_xxx,    USB-C,      USB,          ,          0,          1,             1,      4031237645

Show Spectrometer Status:
l0_version, f4_version, battery_perc, battery_mVolt, accelerometer_temp, accelerometer_x, accelerometer_y, accelerometer_z, compass_temp, compass_x, compass_y, compass_z, lamp_0, lamp_1, gain_0, gain_1
        17,         24,           50,          1919,               6432,              44,             360,           18716,            0,     65406,     65407,     65535,   3276,   3276,      1,      1

Temperature Statistic Info:
NTC AVG [°C], NTC2 AVG [°C]
      39.908,        39.587

Statistic Info:
M1:  num,      min,      max,   median,      AVG,      STD,M2:  num,      min,      max,   median,      AVG,      STD
     301,  1550.00,  1749.00,  1594.00,  1616.42,  61.4668,     401,  2159.00,  2281.00,  2220.00,  2219.75,  40.4098,

Measurements:
Wavelength, Data Amplitude
1350, 1579.00
1351, 1578.00
1352, 1577.00
1353, 1577.00
1354, 1576.00
1355, 1577.00
1356, 1576.00
1357, 1576.00
1358, 1575.00
1359, 1574.00
1360, 1575.00
1361, 1573.00
1362, 1572.00
1363, 1571.00
1364, 1570.00
1365, 1569.00
1366, 1569.00
1367, 1570.00
1368, 1568.00
1369, 1566.00
1370, 1568.00
1371, 1566.00
1372, 1565.00
1373, 1564.00
1374, 1564.00
1375, 1563.00
1376, 1563.00
1377, 1561.00
1378, 1561.00
1379, 1560.00
1380, 1559.00
1381, 1558.00
1382, 1558.00
1383, 1557.00
1384, 1558.00
1385, 1557.00
1386, 1557.00
1387, 1556.00
1388, 1555.00
1389, 1556.00
1390, 1555.00
1391, 1555.00
1392, 1554.00
1393, 1555.00
1394, 1554.00
1395, 1553.00
1396, 1553.00
1397, 1553.00
1398, 1553.00
1399, 1553.00
1400, 1553.00
1401, 1553.00
1402, 1552.00
1403, 1552.00
1404, 1553.00
1405, 1551.00
1406, 1552.00
1407, 1553.00
1408, 1552.00
1409, 1553.00
1410, 1551.00
1411, 1552.00
1412, 1553.00
1413, 1551.00
1414, 1552.00
1415, 1552.00
1416, 1551.00
1417, 1552.00
1418, 1551.00
1419, 1550.00
1420, 1551.00
1421, 1552.00
1422, 1552.00
1423, 1552.00
1424, 1551.00
1425, 1552.00
1426, 1553.00
1427, 1552.00
1428, 1552.00
1429, 1553.00
1430, 1553.00
1431, 1554.00
1432, 1553.00
1433, 1553.00
1434, 1554.00
1435, 1554.00
1436, 1554.00
1437, 1556.00
1438, 1555.00
1439, 1556.00
1440, 1556.00
1441, 1557.00
1442, 1557.00
1443, 1556.00
1444, 1557.00
1445, 1558.00
1446, 1559.00
1447, 1559.00
1448, 1558.00
1449, 1559.00
1450, 1560.00
1451, 1561.00
1452, 1561.00
1453, 1561.00
1454, 1562.00
1455, 1563.00
1456, 1562.00
1457, 1563.00
1458, 1564.00
1459, 1565.00
1460, 1565.00
1461, 1565.00
1462, 1566.00
1463, 1567.00
1464, 1566.00
1465, 1567.00
1466, 1569.00
1467, 1569.00
1468, 1570.00
1469, 1571.00
1470, 1572.00
1471, 1571.00
1472, 1573.00
1473, 1574.00
1474, 1575.00
1475, 1575.00
1476, 1576.00
1477, 1577.00
1478, 1578.00
1479, 1579.00
1480, 1579.00
1481, 1579.00
1482, 1581.00
1483, 1581.00
1484, 1582.00
1485, 1583.00
1486, 1583.00
1487, 1583.00
1488, 1586.00
1489, 1586.00
1490, 1586.00
1491, 1588.00
1492, 1587.00
1493, 1589.00
1494, 1589.00
1495, 1591.00
1496, 1592.00
1497, 1593.00
1498, 1593.00
1499, 1594.00
1500, 1594.00
1501, 1595.00
1502, 1597.00
1503, 1597.00
1504, 1598.00
1505, 1598.00
1506, 1600.00
1507, 1602.00
1508, 1601.00
1509, 1603.00
1510, 1603.00
1511, 1604.00
1512, 1605.00
1513, 1606.00
1514, 1606.00
1515, 1608.00
1516, 1609.00
1517, 1609.00
1518, 1610.00
1519, 1612.00
1520, 1612.00
1521, 1613.00
1522, 1613.00
1523, 1616.00
1524, 1617.00
1525, 1616.00
1526, 1618.00
1527, 1619.00
1528, 1619.00
1529, 1620.00
1530, 1623.00
1531, 1622.00
1532, 1623.00
1533, 1625.00
1534, 1625.00
1535, 1627.00
1536, 1628.00
1537, 1629.00
1538, 1629.00
1539, 1631.00
1540, 1632.00
1541, 1633.00
1542, 1633.00
1543, 1634.00
1544, 1637.00
1545, 1636.00
1546, 1637.00
1547, 1639.00
1548, 1639.00
1549, 1640.00
1550, 1642.00
1551, 1642.00
1552, 1643.00
1553, 1644.00
1554, 1645.00
1555, 1647.00
1556, 1647.00
1557, 1648.00
1558, 1649.00
1559, 1650.00
1560, 1652.00
1561, 1652.00
1562, 1654.00
1563, 1655.00
1564, 1657.00
1565, 1657.00
1566, 1657.00
1567, 1659.00
1568, 1662.00
1569, 1662.00
1570, 1662.00
1571, 1663.00
1572, 1665.00
1573, 1665.00
1574, 1666.00
1575, 1666.00
1576, 1668.00
1577, 1669.00
1578, 1671.00
1579, 1671.00
1580, 1672.00
1581, 1674.00
1582, 1675.00
1583, 1675.00
1584, 1677.00
1585, 1677.00
1586, 1679.00
1587, 1679.00
1588, 1680.00
1589, 1680.00
1590, 1682.00
1591, 1683.00
1592, 1683.00
1593, 1685.00
1594, 1686.00
1595, 1686.00
1596, 1687.00
1597, 1688.00
1598, 1690.00
1599, 1691.00
1600, 1690.00
1601, 1693.00
1602, 1692.00
1603, 1694.00
1604, 1696.00
1605, 1697.00
1606, 1697.00
1607, 1699.00
1608, 1699.00
1609, 1700.00
1610, 1703.00
1611, 1704.00
1612, 1704.00
1613, 1706.00
1614, 1707.00
1615, 1709.00
1616, 1710.00
1617, 1710.00
1618, 1712.00
1619, 1714.00
1620, 1715.00
1621, 1716.00
1622, 1717.00
1623, 1718.00
1624, 1720.00
1625, 1721.00
1626, 1722.00
1627, 1723.00
1628, 1723.00
1629, 1725.00
1630, 1726.00
1631, 1727.00
1632, 1729.00
1633, 1731.00
1634, 1731.00
1635, 1731.00
1636, 1734.00
1637, 1735.00
1638, 1735.00
1639, 1737.00
1640, 1738.00
1641, 1739.00
1642, 1739.00
1643, 1739.00
1644, 1741.00
1645, 1742.00
1646, 1743.00
1647, 1744.00
1648, 1746.00
1649, 1747.00
1650, 1749.00

1750, 2281.00
1751, 2279.00
1752, 2281.00
1753, 2280.00
1754, 2280.00
1755, 2279.00
1756, 2278.00
1757, 2279.00
1758, 2281.00
1759, 2280.00
1760, 2279.00
1761, 2279.00
1762, 2279.00
1763, 2279.00
1764, 2279.00
1765, 2277.00
1766, 2278.00
1767, 2279.00
1768, 2280.00
1769, 2278.00
1770, 2277.00
1771, 2275.00
1772, 2277.00
1773, 2277.00
1774, 2276.00
1775, 2274.00
1776, 2276.00
1777, 2276.00
1778, 2273.00
1779, 2275.00
1780, 2274.00
1781, 2275.00
1782, 2272.00
1783, 2273.00
1784, 2275.00
1785, 2271.00
1786, 2272.00
1787, 2271.00
1788, 2272.00
1789, 2270.00
1790, 2270.00
1791, 2269.00
1792, 2269.00
1793, 2267.00
1794, 2270.00
1795, 2267.00
1796, 2269.00
1797, 2267.00
1798, 2267.00
1799, 2265.00
1800, 2265.00
1801, 2264.00
1802, 2265.00
1803, 2266.00
1804, 2266.00
1805, 2266.00
1806, 2264.00
1807, 2263.00
1808, 2266.00
1809, 2261.00
1810, 2263.00
1811, 2262.00
1812, 2262.00
1813, 2263.00
1814, 2260.00
1815, 2260.00
1816, 2260.00
1817, 2260.00
1818, 2259.00
1819, 2259.00
1820, 2259.00
1821, 2258.00
1822, 2257.00
1823, 2257.00
1824, 2255.00
1825, 2255.00
1826, 2254.00
1827, 2255.00
1828, 2252.00
1829, 2252.00
1830, 2251.00
1831, 2250.00
1832, 2249.00
1833, 2248.00
1834, 2246.00
1835, 2246.00
1836, 2245.00
1837, 2244.00
1838, 2243.00
1839, 2240.00
1840, 2240.00
1841, 2236.00
1842, 2235.00
1843, 2233.00
1844, 2232.00
1845, 2230.00
1846, 2226.00
1847, 2226.00
1848, 2224.00
1849, 2221.00
1850, 2220.00
1851, 2218.00
1852, 2217.00
1853, 2215.00
1854, 2213.00
1855, 2209.00
1856, 2209.00
1857, 2207.00
1858, 2203.00
1859, 2201.00
1860, 2199.00
1861, 2197.00
1862, 2198.00
1863, 2195.00
1864, 2194.00
1865, 2192.00
1866, 2192.00
1867, 2189.00
1868, 2189.00
1869, 2186.00
1870, 2184.00
1871, 2183.00
1872, 2182.00
1873, 2182.00
1874, 2179.00
1875, 2180.00
1876, 2178.00
1877, 2178.00
1878, 2178.00
1879, 2175.00
1880, 2174.00
1881, 2173.00
1882, 2173.00
1883, 2173.00
1884, 2171.00
1885, 2173.00
1886, 2171.00
1887, 2172.00
1888, 2170.00
1889, 2168.00
1890, 2169.00
1891, 2169.00
1892, 2168.00
1893, 2166.00
1894, 2166.00
1895, 2167.00
1896, 2166.00
1897, 2166.00
1898, 2166.00
1899, 2167.00
1900, 2165.00
1901, 2167.00
1902, 2165.00
1903, 2166.00
1904, 2164.00
1905, 2165.00
1906, 2163.00
1907, 2164.00
1908, 2164.00
1909, 2163.00
1910, 2164.00
1911, 2163.00
1912, 2164.00
1913, 2161.00
1914, 2163.00
1915, 2163.00
1916, 2159.00
1917, 2163.00
1918, 2162.00
1919, 2163.00
1920, 2162.00
1921, 2162.00
1922, 2162.00
1923, 2161.00
1924, 2162.00
1925, 2163.00
1926, 2164.00
1927, 2163.00
1928, 2162.00
1929, 2164.00
1930, 2162.00
1931, 2165.00
1932, 2163.00
1933, 2162.00
1934, 2163.00
1935, 2162.00
1936, 2163.00
1937, 2164.00
1938, 2164.00
1939, 2164.00
1940, 2163.00
1941, 2163.00
1942, 2165.00
1943, 2166.00
1944, 2166.00
1945, 2165.00
1946, 2166.00
1947, 2165.00
1948, 2169.00
1949, 2166.00
1950, 2169.00
1951, 2168.00
1952, 2169.00
1953, 2167.00
1954, 2168.00
1955, 2170.00
1956, 2169.00
1957, 2170.00
1958, 2170.00
1959, 2170.00
1960, 2172.00
1961, 2172.00
1962, 2172.00
1963, 2173.00
1964, 2174.00
1965, 2174.00
1966, 2173.00
1967, 2174.00
1968, 2175.00
1969, 2176.00
1970, 2176.00
1971, 2176.00
1972, 2176.00
1973, 2176.00
1974, 2178.00
1975, 2178.00
1976, 2181.00
1977, 2178.00
1978, 2179.00
1979, 2180.00
1980, 2182.00
1981, 2181.00
1982, 2183.00
1983, 2181.00
1984, 2183.00
1985, 2184.00
1986, 2186.00
1987, 2185.00
1988, 2185.00
1989, 2186.00
1990, 2187.00
1991, 2188.00
1992, 2189.00
1993, 2189.00
1994, 2189.00
1995, 2190.00
1996, 2191.00
1997, 2189.00
1998, 2192.00
1999, 2190.00
2000, 2192.00
2001, 2193.00
2002, 2192.00
2003, 2194.00
2004, 2197.00
2005, 2195.00
2006, 2194.00
2007, 2196.00
2008, 2196.00
2009, 2195.00
2010, 2198.00
2011, 2198.00
2012, 2199.00
2013, 2198.00
2014, 2199.00
2015, 2197.00
2016, 2201.00
2017, 2201.00
2018, 2200.00
2019, 2201.00
2020, 2203.00
2021, 2203.00
2022, 2204.00
2023, 2204.00
2024, 2205.00
2025, 2205.00
2026, 2208.00
2027, 2206.00
2028, 2206.00
2029, 2208.00
2030, 2207.00
2031, 2206.00
2032, 2209.00
2033, 2209.00
2034, 2211.00
2035, 2211.00
2036, 2212.00
2037, 2212.00
2038, 2213.00
2039, 2214.00
2040, 2214.00
2041, 2214.00
2042, 2216.00
2043, 2215.00
2044, 2216.00
2045, 2217.00
2046, 2217.00
2047, 2220.00
2048, 2217.00
2049, 2220.00
2050, 2219.00
2051, 2220.00
2052, 2222.00
2053, 2222.00
2054, 2225.00
2055, 2225.00
2056, 2225.00
2057, 2226.00
2058, 2225.00
2059, 2227.00
2060, 2228.00
2061, 2230.00
2062, 2231.00
2063, 2230.00
2064, 2231.00
2065, 2232.00
2066, 2232.00
2067, 2235.00
2068, 2233.00
2069, 2235.00
2070, 2237.00
2071, 2237.00
2072, 2238.00
2073, 2237.00
2074, 2239.00
2075, 2238.00
2076, 2239.00
2077, 2241.00
2078, 2242.00
2079, 2242.00
2080, 2243.00
2081, 2244.00
2082, 2244.00
2083, 2245.00
2084, 2245.00
2085, 2245.00
2086, 2245.00
2087, 2246.00
2088, 2248.00
2089, 2248.00
2090, 2249.00
2091, 2251.00
2092, 2249.00
2093, 2248.00
2094, 2251.00
2095, 2251.00
2096, 2250.00
2097, 2251.00
2098, 2252.00
2099, 2254.00
2100, 2253.00
2101, 2254.00
2102, 2253.00
2103, 2255.00
2104, 2255.00
2105, 2255.00
2106, 2255.00
2107, 2255.00
2108, 2254.00
2109, 2257.00
2110, 2258.00
2111, 2257.00
2112, 2258.00
2113, 2257.00
2114, 2258.00
2115, 2257.00
2116, 2258.00
2117, 2260.00
2118, 2261.00
2119, 2260.00
2120, 2261.00
2121, 2260.00
2122, 2260.00
2123, 2261.00
2124, 2259.00
2125, 2262.00
2126, 2261.00
2127, 2262.00
2128, 2262.00
2129, 2260.00
2130, 2262.00
2131, 2263.00
2132, 2261.00
2133, 2262.00
2134, 2262.00
2135, 2263.00
2136, 2263.00
2137, 2263.00
2138, 2265.00
2139, 2266.00
2140, 2264.00
2141, 2265.00
2142, 2262.00
2143, 2266.00
2144, 2266.00
2145, 2267.00
2146, 2269.00
2147, 2266.00
2148, 2266.00
2149, 2267.00
2150, 2269.00
