FW version: 24
Log Version: 3.0.3

General Info:
       Command/Macro Performed,            Timestamp,             Device ID, COM Port, UART/I2C, Test Name, Host Major, Host Minor, Host Revision, Host Git Commit
            Single_measurement,  2023_07_04_11_41_13,       Insight2_F4_xxx,    USB-C,      USB,          ,          0,          1,             1,      4031237645

Show Spectrometer Status:
l0_version, f4_version, battery_perc, battery_mVolt, accelerometer_temp, accelerometer_x, accelerometer_y, accelerometer_z, compass_temp, compass_x, compass_y, compass_z, lamp_0, lamp_1, gain_0, gain_1
        17,         24,           32,          1876,               6256,           64824,            1752,           19248,            0,     65406,     65499,     19313,   3276,   3276,      0,      0

Temperature Statistic Info:
NTC AVG [°C], NTC2 AVG [°C]
      38.739,        38.450

Statistic Info:
M1:  num,      min,      max,   median,      AVG,      STD,M2:  num,      min,      max,   median,      AVG,      STD
     301,   655.00,   740.00,   674.00,   683.12,  26.3409,     401,   911.00,   963.00,   938.00,   937.26,  17.9329,

Measurements:
Wavelength, Data Amplitude
1350, 665.00
1351, 665.00
1352, 665.00
1353, 665.00
1354, 665.00
1355, 665.00
1356, 665.00
1357, 664.00
1358, 665.00
1359, 663.00
1360, 663.00
1361, 663.00
1362, 664.00
1363, 663.00
1364, 663.00
1365, 663.00
1366, 662.00
1367, 662.00
1368, 662.00
1369, 661.00
1370, 661.00
1371, 661.00
1372, 660.00
1373, 660.00
1374, 660.00
1375, 660.00
1376, 660.00
1377, 659.00
1378, 659.00
1379, 659.00
1380, 658.00
1381, 658.00
1382, 658.00
1383, 658.00
1384, 658.00
1385, 658.00
1386, 657.00
1387, 657.00
1388, 657.00
1389, 657.00
1390, 657.00
1391, 656.00
1392, 656.00
1393, 656.00
1394, 656.00
1395, 656.00
1396, 656.00
1397, 656.00
1398, 656.00
1399, 656.00
1400, 656.00
1401, 656.00
1402, 656.00
1403, 656.00
1404, 655.00
1405, 655.00
1406, 656.00
1407, 656.00
1408, 655.00
1409, 656.00
1410, 656.00
1411, 655.00
1412, 655.00
1413, 656.00
1414, 656.00
1415, 655.00
1416, 655.00
1417, 656.00
1418, 656.00
1419, 656.00
1420, 656.00
1421, 656.00
1422, 656.00
1423, 656.00
1424, 655.00
1425, 656.00
1426, 656.00
1427, 656.00
1428, 656.00
1429, 656.00
1430, 656.00
1431, 656.00
1432, 656.00
1433, 656.00
1434, 656.00
1435, 657.00
1436, 657.00
1437, 657.00
1438, 657.00
1439, 657.00
1440, 658.00
1441, 658.00
1442, 658.00
1443, 658.00
1444, 658.00
1445, 658.00
1446, 658.00
1447, 659.00
1448, 659.00
1449, 659.00
1450, 659.00
1451, 660.00
1452, 660.00
1453, 660.00
1454, 660.00
1455, 660.00
1456, 660.00
1457, 660.00
1458, 661.00
1459, 661.00
1460, 662.00
1461, 662.00
1462, 662.00
1463, 662.00
1464, 662.00
1465, 663.00
1466, 663.00
1467, 663.00
1468, 663.00
1469, 664.00
1470, 664.00
1471, 664.00
1472, 664.00
1473, 665.00
1474, 665.00
1475, 666.00
1476, 666.00
1477, 666.00
1478, 667.00
1479, 666.00
1480, 668.00
1481, 668.00
1482, 668.00
1483, 668.00
1484, 669.00
1485, 669.00
1486, 669.00
1487, 669.00
1488, 670.00
1489, 670.00
1490, 671.00
1491, 671.00
1492, 672.00
1493, 672.00
1494, 672.00
1495, 672.00
1496, 673.00
1497, 673.00
1498, 673.00
1499, 674.00
1500, 674.00
1501, 674.00
1502, 675.00
1503, 675.00
1504, 676.00
1505, 676.00
1506, 676.00
1507, 676.00
1508, 677.00
1509, 677.00
1510, 678.00
1511, 678.00
1512, 678.00
1513, 679.00
1514, 680.00
1515, 680.00
1516, 680.00
1517, 680.00
1518, 681.00
1519, 682.00
1520, 681.00
1521, 682.00
1522, 683.00
1523, 682.00
1524, 683.00
1525, 683.00
1526, 684.00
1527, 684.00
1528, 685.00
1529, 685.00
1530, 685.00
1531, 686.00
1532, 686.00
1533, 687.00
1534, 687.00
1535, 688.00
1536, 689.00
1537, 688.00
1538, 689.00
1539, 689.00
1540, 689.00
1541, 690.00
1542, 690.00
1543, 691.00
1544, 691.00
1545, 692.00
1546, 692.00
1547, 693.00
1548, 693.00
1549, 694.00
1550, 693.00
1551, 694.00
1552, 694.00
1553, 695.00
1554, 696.00
1555, 696.00
1556, 696.00
1557, 697.00
1558, 697.00
1559, 697.00
1560, 698.00
1561, 699.00
1562, 699.00
1563, 700.00
1564, 700.00
1565, 700.00
1566, 701.00
1567, 701.00
1568, 702.00
1569, 702.00
1570, 703.00
1571, 703.00
1572, 703.00
1573, 704.00
1574, 705.00
1575, 705.00
1576, 705.00
1577, 706.00
1578, 706.00
1579, 707.00
1580, 707.00
1581, 707.00
1582, 708.00
1583, 708.00
1584, 708.00
1585, 709.00
1586, 710.00
1587, 709.00
1588, 710.00
1589, 711.00
1590, 711.00
1591, 712.00
1592, 712.00
1593, 713.00
1594, 713.00
1595, 713.00
1596, 713.00
1597, 713.00
1598, 714.00
1599, 715.00
1600, 715.00
1601, 716.00
1602, 716.00
1603, 717.00
1604, 717.00
1605, 718.00
1606, 718.00
1607, 718.00
1608, 719.00
1609, 719.00
1610, 720.00
1611, 721.00
1612, 721.00
1613, 721.00
1614, 722.00
1615, 723.00
1616, 723.00
1617, 724.00
1618, 724.00
1619, 724.00
1620, 725.00
1621, 726.00
1622, 726.00
1623, 726.00
1624, 727.00
1625, 728.00
1626, 729.00
1627, 729.00
1628, 729.00
1629, 730.00
1630, 730.00
1631, 731.00
1632, 731.00
1633, 732.00
1634, 732.00
1635, 733.00
1636, 733.00
1637, 734.00
1638, 734.00
1639, 735.00
1640, 735.00
1641, 735.00
1642, 736.00
1643, 736.00
1644, 737.00
1645, 737.00
1646, 738.00
1647, 738.00
1648, 738.00
1649, 739.00
1650, 740.00

1750, 963.00
1751, 963.00
1752, 963.00
1753, 963.00
1754, 963.00
1755, 963.00
1756, 963.00
1757, 963.00
1758, 962.00
1759, 963.00
1760, 963.00
1761, 963.00
1762, 963.00
1763, 963.00
1764, 963.00
1765, 963.00
1766, 963.00
1767, 962.00
1768, 962.00
1769, 962.00
1770, 962.00
1771, 962.00
1772, 961.00
1773, 962.00
1774, 962.00
1775, 961.00
1776, 961.00
1777, 961.00
1778, 961.00
1779, 961.00
1780, 960.00
1781, 960.00
1782, 959.00
1783, 959.00
1784, 959.00
1785, 959.00
1786, 959.00
1787, 960.00
1788, 959.00
1789, 959.00
1790, 958.00
1791, 959.00
1792, 958.00
1793, 958.00
1794, 958.00
1795, 958.00
1796, 957.00
1797, 957.00
1798, 957.00
1799, 958.00
1800, 957.00
1801, 957.00
1802, 958.00
1803, 957.00
1804, 957.00
1805, 956.00
1806, 957.00
1807, 956.00
1808, 956.00
1809, 956.00
1810, 956.00
1811, 956.00
1812, 955.00
1813, 955.00
1814, 955.00
1815, 955.00
1816, 955.00
1817, 954.00
1818, 955.00
1819, 954.00
1820, 954.00
1821, 954.00
1822, 952.00
1823, 953.00
1824, 953.00
1825, 953.00
1826, 952.00
1827, 952.00
1828, 952.00
1829, 951.00
1830, 950.00
1831, 951.00
1832, 950.00
1833, 950.00
1834, 950.00
1835, 948.00
1836, 948.00
1837, 947.00
1838, 948.00
1839, 947.00
1840, 946.00
1841, 945.00
1842, 945.00
1843, 943.00
1844, 943.00
1845, 942.00
1846, 941.00
1847, 940.00
1848, 940.00
1849, 938.00
1850, 938.00
1851, 937.00
1852, 937.00
1853, 936.00
1854, 934.00
1855, 934.00
1856, 933.00
1857, 933.00
1858, 931.00
1859, 931.00
1860, 931.00
1861, 928.00
1862, 928.00
1863, 927.00
1864, 927.00
1865, 925.00
1866, 925.00
1867, 924.00
1868, 923.00
1869, 923.00
1870, 922.00
1871, 921.00
1872, 921.00
1873, 920.00
1874, 920.00
1875, 919.00
1876, 919.00
1877, 919.00
1878, 918.00
1879, 918.00
1880, 917.00
1881, 917.00
1882, 916.00
1883, 916.00
1884, 917.00
1885, 915.00
1886, 915.00
1887, 915.00
1888, 915.00
1889, 914.00
1890, 914.00
1891, 914.00
1892, 914.00
1893, 915.00
1894, 914.00
1895, 914.00
1896, 913.00
1897, 914.00
1898, 913.00
1899, 913.00
1900, 913.00
1901, 913.00
1902, 912.00
1903, 912.00
1904, 912.00
1905, 912.00
1906, 913.00
1907, 912.00
1908, 912.00
1909, 912.00
1910, 912.00
1911, 912.00
1912, 912.00
1913, 912.00
1914, 912.00
1915, 912.00
1916, 912.00
1917, 912.00
1918, 911.00
1919, 912.00
1920, 911.00
1921, 911.00
1922, 911.00
1923, 911.00
1924, 912.00
1925, 911.00
1926, 911.00
1927, 911.00
1928, 912.00
1929, 912.00
1930, 911.00
1931, 911.00
1932, 911.00
1933, 912.00
1934, 912.00
1935, 912.00
1936, 912.00
1937, 913.00
1938, 912.00
1939, 912.00
1940, 912.00
1941, 912.00
1942, 912.00
1943, 913.00
1944, 912.00
1945, 913.00
1946, 913.00
1947, 914.00
1948, 913.00
1949, 914.00
1950, 913.00
1951, 913.00
1952, 914.00
1953, 914.00
1954, 914.00
1955, 914.00
1956, 914.00
1957, 915.00
1958, 914.00
1959, 915.00
1960, 916.00
1961, 915.00
1962, 915.00
1963, 917.00
1964, 917.00
1965, 917.00
1966, 916.00
1967, 918.00
1968, 917.00
1969, 918.00
1970, 918.00
1971, 918.00
1972, 919.00
1973, 918.00
1974, 918.00
1975, 919.00
1976, 919.00
1977, 920.00
1978, 920.00
1979, 920.00
1980, 920.00
1981, 920.00
1982, 921.00
1983, 921.00
1984, 921.00
1985, 921.00
1986, 922.00
1987, 922.00
1988, 922.00
1989, 922.00
1990, 922.00
1991, 923.00
1992, 922.00
1993, 923.00
1994, 923.00
1995, 923.00
1996, 924.00
1997, 924.00
1998, 924.00
1999, 925.00
2000, 925.00
2001, 926.00
2002, 925.00
2003, 926.00
2004, 925.00
2005, 926.00
2006, 927.00
2007, 926.00
2008, 927.00
2009, 927.00
2010, 927.00
2011, 927.00
2012, 928.00
2013, 928.00
2014, 928.00
2015, 928.00
2016, 929.00
2017, 929.00
2018, 929.00
2019, 929.00
2020, 929.00
2021, 930.00
2022, 930.00
2023, 931.00
2024, 931.00
2025, 931.00
2026, 931.00
2027, 932.00
2028, 932.00
2029, 933.00
2030, 933.00
2031, 932.00
2032, 933.00
2033, 932.00
2034, 933.00
2035, 933.00
2036, 934.00
2037, 934.00
2038, 934.00
2039, 935.00
2040, 936.00
2041, 935.00
2042, 935.00
2043, 936.00
2044, 936.00
2045, 937.00
2046, 937.00
2047, 937.00
2048, 937.00
2049, 938.00
2050, 938.00
2051, 939.00
2052, 939.00
2053, 940.00
2054, 939.00
2055, 940.00
2056, 940.00
2057, 941.00
2058, 941.00
2059, 942.00
2060, 941.00
2061, 943.00
2062, 942.00
2063, 942.00
2064, 943.00
2065, 944.00
2066, 944.00
2067, 944.00
2068, 944.00
2069, 945.00
2070, 946.00
2071, 946.00
2072, 945.00
2073, 946.00
2074, 946.00
2075, 947.00
2076, 947.00
2077, 947.00
2078, 947.00
2079, 948.00
2080, 948.00
2081, 948.00
2082, 948.00
2083, 949.00
2084, 949.00
2085, 949.00
2086, 949.00
2087, 949.00
2088, 951.00
2089, 951.00
2090, 950.00
2091, 951.00
2092, 952.00
2093, 952.00
2094, 952.00
2095, 952.00
2096, 953.00
2097, 952.00
2098, 952.00
2099, 952.00
2100, 953.00
2101, 954.00
2102, 954.00
2103, 953.00
2104, 954.00
2105, 954.00
2106, 953.00
2107, 954.00
2108, 954.00
2109, 954.00
2110, 954.00
2111, 954.00
2112, 955.00
2113, 955.00
2114, 955.00
2115, 955.00
2116, 955.00
2117, 955.00
2118, 955.00
2119, 955.00
2120, 955.00
2121, 956.00
2122, 956.00
2123, 956.00
2124, 956.00
2125, 957.00
2126, 956.00
2127, 956.00
2128, 957.00
2129, 957.00
2130, 957.00
2131, 957.00
2132, 957.00
2133, 957.00
2134, 957.00
2135, 957.00
2136, 956.00
2137, 957.00
2138, 957.00
2139, 958.00
2140, 958.00
2141, 958.00
2142, 958.00
2143, 958.00
2144, 958.00
2145, 958.00
2146, 958.00
2147, 958.00
2148, 957.00
2149, 958.00
2150, 958.00
