FW version: 24
Log Version: 3.0.3

General Info:
       Command/Macro Performed,            Timestamp,             Device ID, COM Port, UART/I2C, Test Name, Host Major, Host Minor, Host Revision, Host Git Commit
            Single_measurement,  2023_07_04_11_42_03,       Insight2_F4_xxx,    USB-C,      USB,          ,          0,          1,             1,      4031237645

Show Spectrometer Status:
l0_version, f4_version, battery_perc, battery_mVolt, accelerometer_temp, accelerometer_x, accelerometer_y, accelerometer_z, compass_temp, compass_x, compass_y, compass_z, lamp_0, lamp_1, gain_0, gain_1
        17,         24,           32,          1877,               6272,           64808,            1716,           19268,            0,     65384,     65525,     19277,   2866,   2866,      1,      1

Temperature Statistic Info:
NTC AVG [°C], NTC2 AVG [°C]
      39.056,        38.710

Statistic Info:
M1:  num,      min,      max,   median,      AVG,      STD,M2:  num,      min,      max,   median,      AVG,      STD
     301,  1478.00,  1676.00,  1523.00,  1543.82,  61.7474,     401,  2125.00,  2248.00,  2190.00,  2187.67,  42.1526,

Measurements:
Wavelength, Data Amplitude
1350, 1502.00
1351, 1500.00
1352, 1499.00
1353, 1500.00
1354, 1499.00
1355, 1499.00
1356, 1498.00
1357, 1498.00
1358, 1498.00
1359, 1497.00
1360, 1497.00
1361, 1497.00
1362, 1496.00
1363, 1495.00
1364, 1495.00
1365, 1494.00
1366, 1493.00
1367, 1493.00
1368, 1492.00
1369, 1491.00
1370, 1490.00
1371, 1491.00
1372, 1489.00
1373, 1488.00
1374, 1488.00
1375, 1489.00
1376, 1488.00
1377, 1486.00
1378, 1486.00
1379, 1486.00
1380, 1485.00
1381, 1485.00
1382, 1484.00
1383, 1484.00
1384, 1484.00
1385, 1483.00
1386, 1482.00
1387, 1483.00
1388, 1482.00
1389, 1481.00
1390, 1481.00
1391, 1480.00
1392, 1481.00
1393, 1481.00
1394, 1481.00
1395, 1480.00
1396, 1481.00
1397, 1480.00
1398, 1480.00
1399, 1479.00
1400, 1480.00
1401, 1480.00
1402, 1480.00
1403, 1479.00
1404, 1479.00
1405, 1479.00
1406, 1479.00
1407, 1479.00
1408, 1479.00
1409, 1479.00
1410, 1479.00
1411, 1479.00
1412, 1479.00
1413, 1479.00
1414, 1479.00
1415, 1479.00
1416, 1479.00
1417, 1479.00
1418, 1478.00
1419, 1479.00
1420, 1480.00
1421, 1479.00
1422, 1480.00
1423, 1480.00
1424, 1480.00
1425, 1479.00
1426, 1480.00
1427, 1480.00
1428, 1480.00
1429, 1481.00
1430, 1482.00
1431, 1481.00
1432, 1481.00
1433, 1481.00
1434, 1482.00
1435, 1481.00
1436, 1483.00
1437, 1484.00
1438, 1484.00
1439, 1483.00
1440, 1485.00
1441, 1485.00
1442, 1485.00
1443, 1485.00
1444, 1485.00
1445, 1487.00
1446, 1486.00
1447, 1486.00
1448, 1487.00
1449, 1487.00
1450, 1488.00
1451, 1489.00
1452, 1490.00
1453, 1490.00
1454, 1490.00
1455, 1490.00
1456, 1491.00
1457, 1492.00
1458, 1492.00
1459, 1492.00
1460, 1494.00
1461, 1494.00
1462, 1495.00
1463, 1496.00
1464, 1496.00
1465, 1497.00
1466, 1497.00
1467, 1498.00
1468, 1499.00
1469, 1498.00
1470, 1499.00
1471, 1499.00
1472, 1501.00
1473, 1502.00
1474, 1503.00
1475, 1503.00
1476, 1504.00
1477, 1505.00
1478, 1506.00
1479, 1506.00
1480, 1507.00
1481, 1509.00
1482, 1509.00
1483, 1510.00
1484, 1511.00
1485, 1511.00
1486, 1513.00
1487, 1513.00
1488, 1514.00
1489, 1515.00
1490, 1515.00
1491, 1517.00
1492, 1517.00
1493, 1517.00
1494, 1518.00
1495, 1519.00
1496, 1519.00
1497, 1521.00
1498, 1522.00
1499, 1523.00
1500, 1523.00
1501, 1524.00
1502, 1525.00
1503, 1526.00
1504, 1527.00
1505, 1527.00
1506, 1527.00
1507, 1529.00
1508, 1530.00
1509, 1531.00
1510, 1531.00
1511, 1532.00
1512, 1533.00
1513, 1535.00
1514, 1535.00
1515, 1536.00
1516, 1537.00
1517, 1538.00
1518, 1539.00
1519, 1539.00
1520, 1541.00
1521, 1542.00
1522, 1543.00
1523, 1543.00
1524, 1544.00
1525, 1546.00
1526, 1546.00
1527, 1547.00
1528, 1548.00
1529, 1549.00
1530, 1550.00
1531, 1552.00
1532, 1552.00
1533, 1552.00
1534, 1554.00
1535, 1554.00
1536, 1556.00
1537, 1557.00
1538, 1558.00
1539, 1559.00
1540, 1560.00
1541, 1559.00
1542, 1562.00
1543, 1563.00
1544, 1563.00
1545, 1564.00
1546, 1565.00
1547, 1567.00
1548, 1567.00
1549, 1569.00
1550, 1568.00
1551, 1570.00
1552, 1571.00
1553, 1572.00
1554, 1573.00
1555, 1573.00
1556, 1574.00
1557, 1576.00
1558, 1577.00
1559, 1578.00
1560, 1580.00
1561, 1580.00
1562, 1582.00
1563, 1582.00
1564, 1584.00
1565, 1584.00
1566, 1585.00
1567, 1587.00
1568, 1588.00
1569, 1589.00
1570, 1590.00
1571, 1591.00
1572, 1593.00
1573, 1593.00
1574, 1593.00
1575, 1594.00
1576, 1597.00
1577, 1597.00
1578, 1598.00
1579, 1600.00
1580, 1600.00
1581, 1601.00
1582, 1601.00
1583, 1603.00
1584, 1605.00
1585, 1605.00
1586, 1606.00
1587, 1606.00
1588, 1608.00
1589, 1609.00
1590, 1609.00
1591, 1611.00
1592, 1612.00
1593, 1612.00
1594, 1612.00
1595, 1614.00
1596, 1615.00
1597, 1616.00
1598, 1617.00
1599, 1618.00
1600, 1619.00
1601, 1620.00
1602, 1621.00
1603, 1622.00
1604, 1622.00
1605, 1624.00
1606, 1625.00
1607, 1625.00
1608, 1627.00
1609, 1628.00
1610, 1630.00
1611, 1631.00
1612, 1632.00
1613, 1634.00
1614, 1634.00
1615, 1636.00
1616, 1637.00
1617, 1638.00
1618, 1640.00
1619, 1641.00
1620, 1641.00
1621, 1643.00
1622, 1645.00
1623, 1646.00
1624, 1647.00
1625, 1648.00
1626, 1650.00
1627, 1651.00
1628, 1652.00
1629, 1653.00
1630, 1655.00
1631, 1656.00
1632, 1656.00
1633, 1658.00
1634, 1659.00
1635, 1659.00
1636, 1661.00
1637, 1662.00
1638, 1663.00
1639, 1664.00
1640, 1665.00
1641, 1666.00
1642, 1666.00
1643, 1668.00
1644, 1669.00
1645, 1670.00
1646, 1671.00
1647, 1672.00
1648, 1674.00
1649, 1676.00
1650, 1676.00

1750, 2244.00
1751, 2245.00
1752, 2246.00
1753, 2245.00
1754, 2245.00
1755, 2247.00
1756, 2246.00
1757, 2244.00
1758, 2248.00
1759, 2246.00
1760, 2247.00
1761, 2243.00
1762, 2244.00
1763, 2246.00
1764, 2245.00
1765, 2246.00
1766, 2244.00
1767, 2244.00
1768, 2244.00
1769, 2245.00
1770, 2245.00
1771, 2244.00
1772, 2243.00
1773, 2244.00
1774, 2242.00
1775, 2244.00
1776, 2243.00
1777, 2242.00
1778, 2241.00
1779, 2240.00
1780, 2241.00
1781, 2240.00
1782, 2240.00
1783, 2240.00
1784, 2238.00
1785, 2239.00
1786, 2238.00
1787, 2238.00
1788, 2236.00
1789, 2237.00
1790, 2234.00
1791, 2235.00
1792, 2235.00
1793, 2234.00
1794, 2234.00
1795, 2234.00
1796, 2235.00
1797, 2232.00
1798, 2233.00
1799, 2233.00
1800, 2232.00
1801, 2232.00
1802, 2232.00
1803, 2231.00
1804, 2232.00
1805, 2232.00
1806, 2230.00
1807, 2231.00
1808, 2228.00
1809, 2230.00
1810, 2231.00
1811, 2229.00
1812, 2229.00
1813, 2228.00
1814, 2228.00
1815, 2228.00
1816, 2227.00
1817, 2227.00
1818, 2229.00
1819, 2226.00
1820, 2225.00
1821, 2227.00
1822, 2225.00
1823, 2225.00
1824, 2224.00
1825, 2222.00
1826, 2223.00
1827, 2222.00
1828, 2223.00
1829, 2219.00
1830, 2220.00
1831, 2217.00
1832, 2216.00
1833, 2216.00
1834, 2213.00
1835, 2213.00
1836, 2212.00
1837, 2211.00
1838, 2209.00
1839, 2207.00
1840, 2209.00
1841, 2205.00
1842, 2202.00
1843, 2202.00
1844, 2199.00
1845, 2199.00
1846, 2197.00
1847, 2195.00
1848, 2192.00
1849, 2191.00
1850, 2189.00
1851, 2189.00
1852, 2184.00
1853, 2183.00
1854, 2180.00
1855, 2177.00
1856, 2176.00
1857, 2176.00
1858, 2170.00
1859, 2169.00
1860, 2171.00
1861, 2167.00
1862, 2164.00
1863, 2164.00
1864, 2159.00
1865, 2160.00
1866, 2159.00
1867, 2158.00
1868, 2153.00
1869, 2154.00
1870, 2153.00
1871, 2149.00
1872, 2148.00
1873, 2149.00
1874, 2146.00
1875, 2145.00
1876, 2146.00
1877, 2144.00
1878, 2141.00
1879, 2140.00
1880, 2141.00
1881, 2140.00
1882, 2140.00
1883, 2138.00
1884, 2137.00
1885, 2138.00
1886, 2135.00
1887, 2134.00
1888, 2135.00
1889, 2135.00
1890, 2133.00
1891, 2133.00
1892, 2132.00
1893, 2133.00
1894, 2132.00
1895, 2131.00
1896, 2132.00
1897, 2130.00
1898, 2131.00
1899, 2131.00
1900, 2130.00
1901, 2130.00
1902, 2129.00
1903, 2128.00
1904, 2130.00
1905, 2128.00
1906, 2128.00
1907, 2129.00
1908, 2127.00
1909, 2128.00
1910, 2129.00
1911, 2126.00
1912, 2127.00
1913, 2126.00
1914, 2127.00
1915, 2128.00
1916, 2127.00
1917, 2127.00
1918, 2129.00
1919, 2128.00
1920, 2125.00
1921, 2127.00
1922, 2127.00
1923, 2127.00
1924, 2125.00
1925, 2127.00
1926, 2125.00
1927, 2127.00
1928, 2129.00
1929, 2127.00
1930, 2125.00
1931, 2126.00
1932, 2128.00
1933, 2128.00
1934, 2127.00
1935, 2128.00
1936, 2127.00
1937, 2126.00
1938, 2128.00
1939, 2128.00
1940, 2129.00
1941, 2129.00
1942, 2128.00
1943, 2129.00
1944, 2128.00
1945, 2130.00
1946, 2131.00
1947, 2131.00
1948, 2132.00
1949, 2132.00
1950, 2131.00
1951, 2130.00
1952, 2132.00
1953, 2135.00
1954, 2135.00
1955, 2133.00
1956, 2134.00
1957, 2135.00
1958, 2134.00
1959, 2136.00
1960, 2135.00
1961, 2138.00
1962, 2137.00
1963, 2138.00
1964, 2137.00
1965, 2139.00
1966, 2141.00
1967, 2142.00
1968, 2141.00
1969, 2142.00
1970, 2141.00
1971, 2141.00
1972, 2142.00
1973, 2143.00
1974, 2142.00
1975, 2146.00
1976, 2144.00
1977, 2146.00
1978, 2146.00
1979, 2147.00
1980, 2147.00
1981, 2149.00
1982, 2148.00
1983, 2151.00
1984, 2150.00
1985, 2151.00
1986, 2152.00
1987, 2153.00
1988, 2151.00
1989, 2152.00
1990, 2153.00
1991, 2154.00
1992, 2156.00
1993, 2157.00
1994, 2157.00
1995, 2157.00
1996, 2157.00
1997, 2157.00
1998, 2157.00
1999, 2158.00
2000, 2161.00
2001, 2158.00
2002, 2160.00
2003, 2161.00
2004, 2162.00
2005, 2162.00
2006, 2163.00
2007, 2162.00
2008, 2164.00
2009, 2163.00
2010, 2163.00
2011, 2164.00
2012, 2167.00
2013, 2166.00
2014, 2166.00
2015, 2167.00
2016, 2169.00
2017, 2169.00
2018, 2170.00
2019, 2170.00
2020, 2171.00
2021, 2171.00
2022, 2169.00
2023, 2173.00
2024, 2173.00
2025, 2174.00
2026, 2172.00
2027, 2175.00
2028, 2173.00
2029, 2176.00
2030, 2178.00
2031, 2176.00
2032, 2178.00
2033, 2177.00
2034, 2178.00
2035, 2180.00
2036, 2178.00
2037, 2180.00
2038, 2180.00
2039, 2181.00
2040, 2184.00
2041, 2183.00
2042, 2184.00
2043, 2184.00
2044, 2186.00
2045, 2187.00
2046, 2188.00
2047, 2189.00
2048, 2189.00
2049, 2190.00
2050, 2190.00
2051, 2192.00
2052, 2192.00
2053, 2193.00
2054, 2194.00
2055, 2193.00
2056, 2195.00
2057, 2195.00
2058, 2196.00
2059, 2198.00
2060, 2200.00
2061, 2199.00
2062, 2201.00
2063, 2201.00
2064, 2203.00
2065, 2204.00
2066, 2203.00
2067, 2205.00
2068, 2205.00
2069, 2208.00
2070, 2207.00
2071, 2207.00
2072, 2210.00
2073, 2210.00
2074, 2211.00
2075, 2213.00
2076, 2212.00
2077, 2213.00
2078, 2214.00
2079, 2213.00
2080, 2216.00
2081, 2214.00
2082, 2218.00
2083, 2215.00
2084, 2217.00
2085, 2219.00
2086, 2218.00
2087, 2219.00
2088, 2219.00
2089, 2220.00
2090, 2222.00
2091, 2222.00
2092, 2223.00
2093, 2222.00
2094, 2223.00
2095, 2225.00
2096, 2224.00
2097, 2224.00
2098, 2225.00
2099, 2227.00
2100, 2225.00
2101, 2227.00
2102, 2226.00
2103, 2227.00
2104, 2229.00
2105, 2228.00
2106, 2229.00
2107, 2229.00
2108, 2227.00
2109, 2229.00
2110, 2231.00
2111, 2231.00
2112, 2231.00
2113, 2231.00
2114, 2231.00
2115, 2231.00
2116, 2231.00
2117, 2231.00
2118, 2231.00
2119, 2232.00
2120, 2233.00
2121, 2232.00
2122, 2235.00
2123, 2233.00
2124, 2235.00
2125, 2235.00
2126, 2234.00
2127, 2236.00
2128, 2234.00
2129, 2234.00
2130, 2234.00
2131, 2235.00
2132, 2236.00
2133, 2236.00
2134, 2237.00
2135, 2237.00
2136, 2235.00
2137, 2236.00
2138, 2237.00
2139, 2238.00
2140, 2237.00
2141, 2238.00
2142, 2238.00
2143, 2240.00
2144, 2238.00
2145, 2238.00
2146, 2238.00
2147, 2239.00
2148, 2238.00
2149, 2238.00
2150, 2241.00
