FW version: 24
Log Version: 3.0.3

General Info:
       Command/Macro Performed,            Timestamp,             Device ID, COM Port, UART/I2C, Test Name, Host Major, Host Minor, Host Revision, Host Git Commit
            Single_measurement,  2023_07_04_11_41_43,       Insight2_F4_xxx,    USB-C,      USB,          ,          0,          1,             1,      4031237645

Show Spectrometer Status:
l0_version, f4_version, battery_perc, battery_mVolt, accelerometer_temp, accelerometer_x, accelerometer_y, accelerometer_z, compass_temp, compass_x, compass_y, compass_z, lamp_0, lamp_1, gain_0, gain_1
        17,         24,           32,          1877,               6256,           64840,            1740,           19272,            0,     65371,     65486,     19279,   2457,   2457,      1,      1

Temperature Statistic Info:
NTC AVG [°C], NTC2 AVG [°C]
      38.911,        38.566

Statistic Info:
M1:  num,      min,      max,   median,      AVG,      STD,M2:  num,      min,      max,   median,      AVG,      STD
     301,  1097.00,  1250.00,  1133.00,  1148.37,  47.8084,     401,  1643.00,  1739.00,  1695.00,  1693.00,  33.0426,

Measurements:
Wavelength, Data Amplitude
1350, 1113.00
1351, 1112.00
1352, 1112.00
1353, 1113.00
1354, 1111.00
1355, 1112.00
1356, 1112.00
1357, 1111.00
1358, 1111.00
1359, 1110.00
1360, 1111.00
1361, 1110.00
1362, 1110.00
1363, 1109.00
1364, 1109.00
1365, 1108.00
1366, 1108.00
1367, 1108.00
1368, 1108.00
1369, 1106.00
1370, 1106.00
1371, 1106.00
1372, 1106.00
1373, 1104.00
1374, 1105.00
1375, 1104.00
1376, 1104.00
1377, 1102.00
1378, 1102.00
1379, 1102.00
1380, 1102.00
1381, 1101.00
1382, 1102.00
1383, 1102.00
1384, 1101.00
1385, 1100.00
1386, 1100.00
1387, 1100.00
1388, 1100.00
1389, 1100.00
1390, 1100.00
1391, 1100.00
1392, 1100.00
1393, 1100.00
1394, 1098.00
1395, 1099.00
1396, 1099.00
1397, 1099.00
1398, 1099.00
1399, 1099.00
1400, 1098.00
1401, 1099.00
1402, 1098.00
1403, 1099.00
1404, 1099.00
1405, 1098.00
1406, 1098.00
1407, 1098.00
1408, 1098.00
1409, 1100.00
1410, 1098.00
1411, 1098.00
1412, 1099.00
1413, 1097.00
1414, 1098.00
1415, 1099.00
1416, 1098.00
1417, 1098.00
1418, 1098.00
1419, 1098.00
1420, 1099.00
1421, 1098.00
1422, 1099.00
1423, 1099.00
1424, 1098.00
1425, 1099.00
1426, 1099.00
1427, 1099.00
1428, 1100.00
1429, 1099.00
1430, 1100.00
1431, 1100.00
1432, 1100.00
1433, 1100.00
1434, 1101.00
1435, 1101.00
1436, 1101.00
1437, 1101.00
1438, 1101.00
1439, 1103.00
1440, 1103.00
1441, 1103.00
1442, 1103.00
1443, 1102.00
1444, 1104.00
1445, 1103.00
1446, 1104.00
1447, 1105.00
1448, 1106.00
1449, 1105.00
1450, 1106.00
1451, 1106.00
1452, 1106.00
1453, 1107.00
1454, 1107.00
1455, 1108.00
1456, 1108.00
1457, 1109.00
1458, 1109.00
1459, 1109.00
1460, 1110.00
1461, 1111.00
1462, 1111.00
1463, 1111.00
1464, 1112.00
1465, 1113.00
1466, 1114.00
1467, 1112.00
1468, 1113.00
1469, 1114.00
1470, 1115.00
1471, 1115.00
1472, 1115.00
1473, 1116.00
1474, 1117.00
1475, 1118.00
1476, 1119.00
1477, 1120.00
1478, 1119.00
1479, 1120.00
1480, 1121.00
1481, 1121.00
1482, 1121.00
1483, 1123.00
1484, 1122.00
1485, 1123.00
1486, 1124.00
1487, 1125.00
1488, 1125.00
1489, 1126.00
1490, 1127.00
1491, 1128.00
1492, 1128.00
1493, 1129.00
1494, 1129.00
1495, 1130.00
1496, 1131.00
1497, 1131.00
1498, 1132.00
1499, 1133.00
1500, 1133.00
1501, 1133.00
1502, 1134.00
1503, 1134.00
1504, 1135.00
1505, 1137.00
1506, 1137.00
1507, 1137.00
1508, 1139.00
1509, 1139.00
1510, 1139.00
1511, 1141.00
1512, 1141.00
1513, 1142.00
1514, 1143.00
1515, 1143.00
1516, 1143.00
1517, 1144.00
1518, 1145.00
1519, 1145.00
1520, 1147.00
1521, 1148.00
1522, 1149.00
1523, 1149.00
1524, 1150.00
1525, 1150.00
1526, 1151.00
1527, 1151.00
1528, 1152.00
1529, 1153.00
1530, 1153.00
1531, 1154.00
1532, 1155.00
1533, 1156.00
1534, 1157.00
1535, 1157.00
1536, 1158.00
1537, 1160.00
1538, 1161.00
1539, 1161.00
1540, 1161.00
1541, 1162.00
1542, 1163.00
1543, 1163.00
1544, 1164.00
1545, 1165.00
1546, 1166.00
1547, 1166.00
1548, 1167.00
1549, 1168.00
1550, 1169.00
1551, 1170.00
1552, 1171.00
1553, 1172.00
1554, 1171.00
1555, 1172.00
1556, 1173.00
1557, 1173.00
1558, 1174.00
1559, 1176.00
1560, 1176.00
1561, 1178.00
1562, 1177.00
1563, 1178.00
1564, 1179.00
1565, 1180.00
1566, 1181.00
1567, 1182.00
1568, 1182.00
1569, 1184.00
1570, 1184.00
1571, 1185.00
1572, 1185.00
1573, 1186.00
1574, 1188.00
1575, 1188.00
1576, 1188.00
1577, 1189.00
1578, 1190.00
1579, 1190.00
1580, 1192.00
1581, 1192.00
1582, 1193.00
1583, 1194.00
1584, 1194.00
1585, 1195.00
1586, 1195.00
1587, 1196.00
1588, 1197.00
1589, 1198.00
1590, 1198.00
1591, 1200.00
1592, 1200.00
1593, 1201.00
1594, 1201.00
1595, 1202.00
1596, 1203.00
1597, 1204.00
1598, 1204.00
1599, 1205.00
1600, 1206.00
1601, 1207.00
1602, 1208.00
1603, 1208.00
1604, 1210.00
1605, 1209.00
1606, 1211.00
1607, 1212.00
1608, 1213.00
1609, 1213.00
1610, 1213.00
1611, 1216.00
1612, 1216.00
1613, 1217.00
1614, 1218.00
1615, 1220.00
1616, 1221.00
1617, 1222.00
1618, 1222.00
1619, 1223.00
1620, 1224.00
1621, 1226.00
1622, 1225.00
1623, 1227.00
1624, 1228.00
1625, 1230.00
1626, 1231.00
1627, 1231.00
1628, 1232.00
1629, 1233.00
1630, 1235.00
1631, 1235.00
1632, 1236.00
1633, 1237.00
1634, 1238.00
1635, 1238.00
1636, 1239.00
1637, 1240.00
1638, 1240.00
1639, 1242.00
1640, 1241.00
1641, 1243.00
1642, 1244.00
1643, 1244.00
1644, 1246.00
1645, 1246.00
1646, 1247.00
1647, 1248.00
1648, 1248.00
1649, 1249.00
1650, 1250.00

1750, 1736.00
1751, 1737.00
1752, 1736.00
1753, 1735.00
1754, 1736.00
1755, 1737.00
1756, 1735.00
1757, 1735.00
1758, 1737.00
1759, 1736.00
1760, 1735.00
1761, 1739.00
1762, 1736.00
1763, 1736.00
1764, 1737.00
1765, 1735.00
1766, 1736.00
1767, 1736.00
1768, 1737.00
1769, 1735.00
1770, 1735.00
1771, 1735.00
1772, 1734.00
1773, 1735.00
1774, 1734.00
1775, 1734.00
1776, 1733.00
1777, 1735.00
1778, 1733.00
1779, 1735.00
1780, 1733.00
1781, 1733.00
1782, 1731.00
1783, 1732.00
1784, 1732.00
1785, 1732.00
1786, 1731.00
1787, 1731.00
1788, 1729.00
1789, 1731.00
1790, 1729.00
1791, 1730.00
1792, 1730.00
1793, 1728.00
1794, 1729.00
1795, 1730.00
1796, 1730.00
1797, 1729.00
1798, 1727.00
1799, 1726.00
1800, 1727.00
1801, 1727.00
1802, 1726.00
1803, 1727.00
1804, 1727.00
1805, 1725.00
1806, 1727.00
1807, 1724.00
1808, 1725.00
1809, 1724.00
1810, 1725.00
1811, 1726.00
1812, 1725.00
1813, 1725.00
1814, 1725.00
1815, 1723.00
1816, 1724.00
1817, 1724.00
1818, 1723.00
1819, 1723.00
1820, 1721.00
1821, 1723.00
1822, 1720.00
1823, 1719.00
1824, 1723.00
1825, 1721.00
1826, 1720.00
1827, 1719.00
1828, 1718.00
1829, 1719.00
1830, 1717.00
1831, 1717.00
1832, 1714.00
1833, 1715.00
1834, 1713.00
1835, 1711.00
1836, 1711.00
1837, 1711.00
1838, 1709.00
1839, 1709.00
1840, 1707.00
1841, 1706.00
1842, 1704.00
1843, 1704.00
1844, 1701.00
1845, 1700.00
1846, 1700.00
1847, 1699.00
1848, 1696.00
1849, 1692.00
1850, 1693.00
1851, 1693.00
1852, 1691.00
1853, 1689.00
1854, 1687.00
1855, 1686.00
1856, 1685.00
1857, 1683.00
1858, 1681.00
1859, 1678.00
1860, 1680.00
1861, 1675.00
1862, 1675.00
1863, 1673.00
1864, 1672.00
1865, 1671.00
1866, 1669.00
1867, 1669.00
1868, 1667.00
1869, 1665.00
1870, 1663.00
1871, 1665.00
1872, 1663.00
1873, 1661.00
1874, 1661.00
1875, 1657.00
1876, 1658.00
1877, 1656.00
1878, 1657.00
1879, 1657.00
1880, 1655.00
1881, 1655.00
1882, 1655.00
1883, 1654.00
1884, 1653.00
1885, 1651.00
1886, 1652.00
1887, 1651.00
1888, 1651.00
1889, 1651.00
1890, 1650.00
1891, 1649.00
1892, 1649.00
1893, 1649.00
1894, 1650.00
1895, 1649.00
1896, 1649.00
1897, 1647.00
1898, 1650.00
1899, 1648.00
1900, 1647.00
1901, 1648.00
1902, 1648.00
1903, 1648.00
1904, 1647.00
1905, 1646.00
1906, 1647.00
1907, 1646.00
1908, 1646.00
1909, 1646.00
1910, 1646.00
1911, 1644.00
1912, 1646.00
1913, 1645.00
1914, 1645.00
1915, 1647.00
1916, 1646.00
1917, 1644.00
1918, 1645.00
1919, 1645.00
1920, 1644.00
1921, 1644.00
1922, 1645.00
1923, 1645.00
1924, 1643.00
1925, 1646.00
1926, 1647.00
1927, 1645.00
1928, 1647.00
1929, 1646.00
1930, 1647.00
1931, 1646.00
1932, 1645.00
1933, 1646.00
1934, 1644.00
1935, 1646.00
1936, 1646.00
1937, 1647.00
1938, 1645.00
1939, 1647.00
1940, 1648.00
1941, 1646.00
1942, 1647.00
1943, 1648.00
1944, 1646.00
1945, 1648.00
1946, 1648.00
1947, 1646.00
1948, 1649.00
1949, 1649.00
1950, 1649.00
1951, 1648.00
1952, 1651.00
1953, 1649.00
1954, 1651.00
1955, 1650.00
1956, 1652.00
1957, 1652.00
1958, 1652.00
1959, 1652.00
1960, 1651.00
1961, 1652.00
1962, 1653.00
1963, 1654.00
1964, 1652.00
1965, 1657.00
1966, 1654.00
1967, 1656.00
1968, 1656.00
1969, 1657.00
1970, 1657.00
1971, 1658.00
1972, 1657.00
1973, 1659.00
1974, 1659.00
1975, 1661.00
1976, 1659.00
1977, 1661.00
1978, 1660.00
1979, 1661.00
1980, 1663.00
1981, 1663.00
1982, 1661.00
1983, 1663.00
1984, 1662.00
1985, 1664.00
1986, 1664.00
1987, 1666.00
1988, 1664.00
1989, 1667.00
1990, 1668.00
1991, 1665.00
1992, 1667.00
1993, 1668.00
1994, 1668.00
1995, 1668.00
1996, 1669.00
1997, 1669.00
1998, 1670.00
1999, 1671.00
2000, 1670.00
2001, 1671.00
2002, 1671.00
2003, 1672.00
2004, 1673.00
2005, 1675.00
2006, 1674.00
2007, 1673.00
2008, 1674.00
2009, 1674.00
2010, 1675.00
2011, 1675.00
2012, 1676.00
2013, 1677.00
2014, 1675.00
2015, 1678.00
2016, 1678.00
2017, 1677.00
2018, 1678.00
2019, 1679.00
2020, 1679.00
2021, 1679.00
2022, 1681.00
2023, 1682.00
2024, 1682.00
2025, 1681.00
2026, 1683.00
2027, 1683.00
2028, 1684.00
2029, 1684.00
2030, 1685.00
2031, 1686.00
2032, 1685.00
2033, 1687.00
2034, 1687.00
2035, 1687.00
2036, 1687.00
2037, 1689.00
2038, 1688.00
2039, 1689.00
2040, 1689.00
2041, 1689.00
2042, 1691.00
2043, 1692.00
2044, 1691.00
2045, 1692.00
2046, 1692.00
2047, 1695.00
2048, 1694.00
2049, 1695.00
2050, 1697.00
2051, 1697.00
2052, 1698.00
2053, 1699.00
2054, 1699.00
2055, 1700.00
2056, 1700.00
2057, 1702.00
2058, 1701.00
2059, 1700.00
2060, 1702.00
2061, 1702.00
2062, 1703.00
2063, 1707.00
2064, 1704.00
2065, 1705.00
2066, 1707.00
2067, 1707.00
2068, 1707.00
2069, 1710.00
2070, 1710.00
2071, 1711.00
2072, 1710.00
2073, 1711.00
2074, 1711.00
2075, 1712.00
2076, 1712.00
2077, 1713.00
2078, 1715.00
2079, 1713.00
2080, 1715.00
2081, 1717.00
2082, 1716.00
2083, 1717.00
2084, 1718.00
2085, 1718.00
2086, 1719.00
2087, 1717.00
2088, 1718.00
2089, 1720.00
2090, 1719.00
2091, 1722.00
2092, 1720.00
2093, 1721.00
2094, 1722.00
2095, 1723.00
2096, 1723.00
2097, 1722.00
2098, 1723.00
2099, 1724.00
2100, 1725.00
2101, 1723.00
2102, 1725.00
2103, 1726.00
2104, 1724.00
2105, 1725.00
2106, 1726.00
2107, 1726.00
2108, 1727.00
2109, 1727.00
2110, 1728.00
2111, 1727.00
2112, 1731.00
2113, 1728.00
2114, 1727.00
2115, 1729.00
2116, 1727.00
2117, 1729.00
2118, 1728.00
2119, 1729.00
2120, 1729.00
2121, 1730.00
2122, 1731.00
2123, 1730.00
2124, 1731.00
2125, 1730.00
2126, 1732.00
2127, 1733.00
2128, 1730.00
2129, 1732.00
2130, 1731.00
2131, 1733.00
2132, 1731.00
2133, 1732.00
2134, 1732.00
2135, 1733.00
2136, 1733.00
2137, 1732.00
2138, 1735.00
2139, 1734.00
2140, 1734.00
2141, 1734.00
2142, 1734.00
2143, 1735.00
2144, 1736.00
2145, 1735.00
2146, 1735.00
2147, 1735.00
2148, 1735.00
2149, 1736.00
2150, 1735.00
