FW version: 24
Log Version: 3.0.3

General Info:
       Command/Macro Performed,            Timestamp,             Device ID, COM Port, UART/I2C, Test Name, Host Major, Host Minor, Host Revision, Host Git Commit
            Single_measurement,  2023_06_29_11_34_17,       Insight2_F4_xxx,    USB-C,      USB,          ,          0,          1,             1,      4031237645

Show Spectrometer Status:
l0_version, f4_version, battery_perc, battery_mVolt, accelerometer_temp, accelerometer_x, accelerometer_y, accelerometer_z, compass_temp, compass_x, compass_y, compass_z, lamp_0, lamp_1, gain_0, gain_1
        17,         24,           94,          2078,               5760,           65456,           65396,           18476,            0,     65471,     65405,     65534,   3276,   3276,      1,      1

Temperature Statistic Info:
NTC AVG [°C], NTC2 AVG [°C]
      37.554,        37.179

Statistic Info:
M1:  num,      min,      max,   median,      AVG,      STD,M2:  num,      min,      max,   median,      AVG,      STD
     301,  1805.00,  2066.00,  1859.00,  1890.42,  80.6677,     401,  2388.00,  2548.00,  2456.00,  2459.66,  52.0992,

Measurements:
Wavelength, Data Amplitude
1350, 1851.00
1351, 1851.00
1352, 1850.00
1353, 1849.00
1354, 1849.00
1355, 1847.00
1356, 1847.00
1357, 1846.00
1358, 1845.00
1359, 1844.00
1360, 1842.00
1361, 1843.00
1362, 1842.00
1363, 1840.00
1364, 1838.00
1365, 1837.00
1366, 1837.00
1367, 1836.00
1368, 1834.00
1369, 1832.00
1370, 1831.00
1371, 1829.00
1372, 1828.00
1373, 1828.00
1374, 1827.00
1375, 1826.00
1376, 1824.00
1377, 1823.00
1378, 1820.00
1379, 1821.00
1380, 1820.00
1381, 1821.00
1382, 1818.00
1383, 1817.00
1384, 1817.00
1385, 1816.00
1386, 1815.00
1387, 1815.00
1388, 1814.00
1389, 1813.00
1390, 1812.00
1391, 1813.00
1392, 1812.00
1393, 1811.00
1394, 1812.00
1395, 1811.00
1396, 1811.00
1397, 1810.00
1398, 1810.00
1399, 1809.00
1400, 1808.00
1401, 1808.00
1402, 1808.00
1403, 1808.00
1404, 1807.00
1405, 1807.00
1406, 1807.00
1407, 1807.00
1408, 1805.00
1409, 1806.00
1410, 1806.00
1411, 1806.00
1412, 1806.00
1413, 1806.00
1414, 1805.00
1415, 1806.00
1416, 1807.00
1417, 1806.00
1418, 1806.00
1419, 1806.00
1420, 1806.00
1421, 1806.00
1422, 1805.00
1423, 1806.00
1424, 1806.00
1425, 1806.00
1426, 1806.00
1427, 1806.00
1428, 1807.00
1429, 1807.00
1430, 1806.00
1431, 1808.00
1432, 1807.00
1433, 1807.00
1434, 1808.00
1435, 1809.00
1436, 1808.00
1437, 1809.00
1438, 1810.00
1439, 1809.00
1440, 1809.00
1441, 1811.00
1442, 1811.00
1443, 1812.00
1444, 1811.00
1445, 1812.00
1446, 1812.00
1447, 1813.00
1448, 1813.00
1449, 1815.00
1450, 1814.00
1451, 1815.00
1452, 1815.00
1453, 1815.00
1454, 1816.00
1455, 1817.00
1456, 1818.00
1457, 1819.00
1458, 1819.00
1459, 1820.00
1460, 1820.00
1461, 1820.00
1462, 1822.00
1463, 1823.00
1464, 1822.00
1465, 1823.00
1466, 1825.00
1467, 1826.00
1468, 1826.00
1469, 1827.00
1470, 1828.00
1471, 1830.00
1472, 1830.00
1473, 1830.00
1474, 1832.00
1475, 1833.00
1476, 1834.00
1477, 1834.00
1478, 1835.00
1479, 1837.00
1480, 1837.00
1481, 1838.00
1482, 1839.00
1483, 1840.00
1484, 1842.00
1485, 1842.00
1486, 1843.00
1487, 1845.00
1488, 1846.00
1489, 1847.00
1490, 1847.00
1491, 1849.00
1492, 1850.00
1493, 1851.00
1494, 1852.00
1495, 1853.00
1496, 1854.00
1497, 1856.00
1498, 1856.00
1499, 1857.00
1500, 1859.00
1501, 1859.00
1502, 1860.00
1503, 1862.00
1504, 1863.00
1505, 1864.00
1506, 1866.00
1507, 1867.00
1508, 1867.00
1509, 1868.00
1510, 1869.00
1511, 1870.00
1512, 1873.00
1513, 1874.00
1514, 1875.00
1515, 1876.00
1516, 1877.00
1517, 1878.00
1518, 1879.00
1519, 1880.00
1520, 1882.00
1521, 1883.00
1522, 1884.00
1523, 1887.00
1524, 1886.00
1525, 1888.00
1526, 1889.00
1527, 1890.00
1528, 1892.00
1529, 1893.00
1530, 1895.00
1531, 1897.00
1532, 1897.00
1533, 1897.00
1534, 1900.00
1535, 1901.00
1536, 1902.00
1537, 1903.00
1538, 1904.00
1539, 1907.00
1540, 1908.00
1541, 1909.00
1542, 1910.00
1543, 1912.00
1544, 1912.00
1545, 1915.00
1546, 1914.00
1547, 1917.00
1548, 1917.00
1549, 1918.00
1550, 1921.00
1551, 1921.00
1552, 1922.00
1553, 1924.00
1554, 1925.00
1555, 1928.00
1556, 1927.00
1557, 1930.00
1558, 1932.00
1559, 1933.00
1560, 1934.00
1561, 1936.00
1562, 1938.00
1563, 1939.00
1564, 1940.00
1565, 1942.00
1566, 1943.00
1567, 1944.00
1568, 1947.00
1569, 1948.00
1570, 1949.00
1571, 1950.00
1572, 1951.00
1573, 1954.00
1574, 1956.00
1575, 1956.00
1576, 1959.00
1577, 1961.00
1578, 1961.00
1579, 1961.00
1580, 1963.00
1581, 1964.00
1582, 1965.00
1583, 1967.00
1584, 1970.00
1585, 1969.00
1586, 1972.00
1587, 1973.00
1588, 1974.00
1589, 1975.00
1590, 1976.00
1591, 1976.00
1592, 1979.00
1593, 1979.00
1594, 1981.00
1595, 1983.00
1596, 1983.00
1597, 1985.00
1598, 1987.00
1599, 1988.00
1600, 1989.00
1601, 1991.00
1602, 1991.00
1603, 1994.00
1604, 1994.00
1605, 1997.00
1606, 1998.00
1607, 1999.00
1608, 2001.00
1609, 2003.00
1610, 2005.00
1611, 2006.00
1612, 2008.00
1613, 2009.00
1614, 2010.00
1615, 2012.00
1616, 2014.00
1617, 2016.00
1618, 2018.00
1619, 2019.00
1620, 2022.00
1621, 2021.00
1622, 2024.00
1623, 2025.00
1624, 2027.00
1625, 2028.00
1626, 2031.00
1627, 2031.00
1628, 2034.00
1629, 2035.00
1630, 2037.00
1631, 2039.00
1632, 2040.00
1633, 2042.00
1634, 2043.00
1635, 2044.00
1636, 2045.00
1637, 2046.00
1638, 2048.00
1639, 2050.00
1640, 2051.00
1641, 2053.00
1642, 2054.00
1643, 2055.00
1644, 2056.00
1645, 2057.00
1646, 2059.00
1647, 2061.00
1648, 2062.00
1649, 2064.00
1650, 2066.00

1750, 2544.00
1751, 2546.00
1752, 2547.00
1753, 2547.00
1754, 2548.00
1755, 2547.00
1756, 2544.00
1757, 2546.00
1758, 2548.00
1759, 2546.00
1760, 2546.00
1761, 2546.00
1762, 2546.00
1763, 2545.00
1764, 2544.00
1765, 2545.00
1766, 2545.00
1767, 2546.00
1768, 2546.00
1769, 2545.00
1770, 2546.00
1771, 2545.00
1772, 2544.00
1773, 2542.00
1774, 2543.00
1775, 2542.00
1776, 2541.00
1777, 2541.00
1778, 2543.00
1779, 2540.00
1780, 2541.00
1781, 2540.00
1782, 2540.00
1783, 2539.00
1784, 2538.00
1785, 2538.00
1786, 2535.00
1787, 2536.00
1788, 2535.00
1789, 2535.00
1790, 2536.00
1791, 2536.00
1792, 2533.00
1793, 2533.00
1794, 2533.00
1795, 2532.00
1796, 2534.00
1797, 2530.00
1798, 2531.00
1799, 2529.00
1800, 2530.00
1801, 2529.00
1802, 2529.00
1803, 2529.00
1804, 2527.00
1805, 2528.00
1806, 2527.00
1807, 2528.00
1808, 2527.00
1809, 2526.00
1810, 2524.00
1811, 2524.00
1812, 2525.00
1813, 2521.00
1814, 2521.00
1815, 2523.00
1816, 2522.00
1817, 2524.00
1818, 2519.00
1819, 2518.00
1820, 2518.00
1821, 2517.00
1822, 2517.00
1823, 2515.00
1824, 2516.00
1825, 2512.00
1826, 2511.00
1827, 2509.00
1828, 2509.00
1829, 2508.00
1830, 2505.00
1831, 2504.00
1832, 2502.00
1833, 2501.00
1834, 2500.00
1835, 2497.00
1836, 2494.00
1837, 2493.00
1838, 2492.00
1839, 2490.00
1840, 2487.00
1841, 2487.00
1842, 2482.00
1843, 2481.00
1844, 2477.00
1845, 2477.00
1846, 2473.00
1847, 2471.00
1848, 2472.00
1849, 2466.00
1850, 2463.00
1851, 2461.00
1852, 2458.00
1853, 2457.00
1854, 2453.00
1855, 2451.00
1856, 2449.00
1857, 2445.00
1858, 2445.00
1859, 2441.00
1860, 2439.00
1861, 2436.00
1862, 2435.00
1863, 2432.00
1864, 2431.00
1865, 2429.00
1866, 2426.00
1867, 2424.00
1868, 2425.00
1869, 2421.00
1870, 2420.00
1871, 2419.00
1872, 2416.00
1873, 2415.00
1874, 2415.00
1875, 2412.00
1876, 2411.00
1877, 2410.00
1878, 2410.00
1879, 2408.00
1880, 2409.00
1881, 2407.00
1882, 2405.00
1883, 2405.00
1884, 2404.00
1885, 2403.00
1886, 2403.00
1887, 2403.00
1888, 2401.00
1889, 2402.00
1890, 2401.00
1891, 2399.00
1892, 2400.00
1893, 2400.00
1894, 2399.00
1895, 2399.00
1896, 2396.00
1897, 2398.00
1898, 2397.00
1899, 2398.00
1900, 2394.00
1901, 2397.00
1902, 2393.00
1903, 2395.00
1904, 2393.00
1905, 2394.00
1906, 2396.00
1907, 2394.00
1908, 2393.00
1909, 2392.00
1910, 2392.00
1911, 2393.00
1912, 2392.00
1913, 2391.00
1914, 2391.00
1915, 2392.00
1916, 2392.00
1917, 2393.00
1918, 2389.00
1919, 2390.00
1920, 2391.00
1921, 2392.00
1922, 2389.00
1923, 2391.00
1924, 2389.00
1925, 2388.00
1926, 2391.00
1927, 2390.00
1928, 2390.00
1929, 2391.00
1930, 2391.00
1931, 2392.00
1932, 2390.00
1933, 2390.00
1934, 2392.00
1935, 2391.00
1936, 2393.00
1937, 2390.00
1938, 2391.00
1939, 2391.00
1940, 2392.00
1941, 2394.00
1942, 2392.00
1943, 2395.00
1944, 2392.00
1945, 2395.00
1946, 2394.00
1947, 2393.00
1948, 2394.00
1949, 2394.00
1950, 2394.00
1951, 2394.00
1952, 2394.00
1953, 2395.00
1954, 2395.00
1955, 2395.00
1956, 2397.00
1957, 2396.00
1958, 2398.00
1959, 2399.00
1960, 2398.00
1961, 2399.00
1962, 2399.00
1963, 2399.00
1964, 2399.00
1965, 2401.00
1966, 2402.00
1967, 2402.00
1968, 2401.00
1969, 2405.00
1970, 2402.00
1971, 2403.00
1972, 2404.00
1973, 2405.00
1974, 2405.00
1975, 2406.00
1976, 2407.00
1977, 2407.00
1978, 2407.00
1979, 2408.00
1980, 2409.00
1981, 2410.00
1982, 2409.00
1983, 2410.00
1984, 2411.00
1985, 2413.00
1986, 2411.00
1987, 2412.00
1988, 2412.00
1989, 2414.00
1990, 2416.00
1991, 2415.00
1992, 2414.00
1993, 2416.00
1994, 2418.00
1995, 2417.00
1996, 2418.00
1997, 2418.00
1998, 2419.00
1999, 2419.00
2000, 2421.00
2001, 2420.00
2002, 2420.00
2003, 2421.00
2004, 2421.00
2005, 2422.00
2006, 2424.00
2007, 2423.00
2008, 2423.00
2009, 2425.00
2010, 2427.00
2011, 2427.00
2012, 2427.00
2013, 2429.00
2014, 2429.00
2015, 2425.00
2016, 2429.00
2017, 2430.00
2018, 2430.00
2019, 2429.00
2020, 2432.00
2021, 2430.00
2022, 2433.00
2023, 2433.00
2024, 2436.00
2025, 2433.00
2026, 2437.00
2027, 2435.00
2028, 2436.00
2029, 2436.00
2030, 2437.00
2031, 2439.00
2032, 2438.00
2033, 2438.00
2034, 2439.00
2035, 2441.00
2036, 2443.00
2037, 2443.00
2038, 2444.00
2039, 2444.00
2040, 2444.00
2041, 2445.00
2042, 2446.00
2043, 2446.00
2044, 2445.00
2045, 2448.00
2046, 2451.00
2047, 2450.00
2048, 2451.00
2049, 2451.00
2050, 2452.00
2051, 2453.00
2052, 2454.00
2053, 2456.00
2054, 2455.00
2055, 2456.00
2056, 2458.00
2057, 2460.00
2058, 2459.00
2059, 2460.00
2060, 2462.00
2061, 2461.00
2062, 2464.00
2063, 2466.00
2064, 2464.00
2065, 2466.00
2066, 2466.00
2067, 2469.00
2068, 2469.00
2069, 2469.00
2070, 2470.00
2071, 2471.00
2072, 2471.00
2073, 2474.00
2074, 2474.00
2075, 2475.00
2076, 2477.00
2077, 2475.00
2078, 2479.00
2079, 2479.00
2080, 2478.00
2081, 2478.00
2082, 2482.00
2083, 2481.00
2084, 2482.00
2085, 2484.00
2086, 2484.00
2087, 2484.00
2088, 2485.00
2089, 2485.00
2090, 2487.00
2091, 2487.00
2092, 2487.00
2093, 2488.00
2094, 2490.00
2095, 2490.00
2096, 2490.00
2097, 2489.00
2098, 2491.00
2099, 2493.00
2100, 2492.00
2101, 2493.00
2102, 2492.00
2103, 2493.00
2104, 2495.00
2105, 2494.00
2106, 2495.00
2107, 2496.00
2108, 2497.00
2109, 2497.00
2110, 2497.00
2111, 2498.00
2112, 2499.00
2113, 2498.00
2114, 2497.00
2115, 2500.00
2116, 2500.00
2117, 2500.00
2118, 2501.00
2119, 2499.00
2120, 2501.00
2121, 2502.00
2122, 2500.00
2123, 2500.00
2124, 2503.00
2125, 2502.00
2126, 2503.00
2127, 2503.00
2128, 2505.00
2129, 2503.00
2130, 2503.00
2131, 2505.00
2132, 2505.00
2133, 2504.00
2134, 2504.00
2135, 2507.00
2136, 2505.00
2137, 2506.00
2138, 2507.00
2139, 2506.00
2140, 2506.00
2141, 2508.00
2142, 2506.00
2143, 2510.00
2144, 2508.00
2145, 2509.00
2146, 2508.00
2147, 2510.00
2148, 2510.00
2149, 2509.00
2150, 2510.00
