FW version: 24
Log Version: 3.0.3

General Info:
       Command/Macro Performed,            Timestamp,             Device ID, COM Port, UART/I2C, Test Name, Host Major, Host Minor, Host Revision, Host Git Commit
            Single_measurement,  2023_06_29_11_33_19,       Insight2_F4_xxx,    USB-C,      USB,          ,          0,          1,             1,      4031237645

Show Spectrometer Status:
l0_version, f4_version, battery_perc, battery_mVolt, accelerometer_temp, accelerometer_x, accelerometer_y, accelerometer_z, compass_temp, compass_x, compass_y, compass_z, lamp_0, lamp_1, gain_0, gain_1
        17,         24,           94,          2078,               5696,           65440,           65424,           18396,            0,     65450,     65528,     65503,   2047,   2047,      1,      1

Temperature Statistic Info:
NTC AVG [°C], NTC2 AVG [°C]
      37.092,        36.778

Statistic Info:
M1:  num,      min,      max,   median,      AVG,      STD,M2:  num,      min,      max,   median,      AVG,      STD
     301,   715.00,   829.00,   741.00,   753.39,  35.7761,     401,  1075.00,  1148.00,  1109.00,  1109.56,  24.1219,

Measurements:
Wavelength, Data Amplitude
1350, 731.00
1351, 731.00
1352, 731.00
1353, 730.00
1354, 730.00
1355, 729.00
1356, 730.00
1357, 729.00
1358, 729.00
1359, 729.00
1360, 728.00
1361, 728.00
1362, 727.00
1363, 727.00
1364, 726.00
1365, 726.00
1366, 725.00
1367, 725.00
1368, 726.00
1369, 725.00
1370, 724.00
1371, 724.00
1372, 723.00
1373, 723.00
1374, 723.00
1375, 722.00
1376, 722.00
1377, 721.00
1378, 721.00
1379, 721.00
1380, 721.00
1381, 720.00
1382, 719.00
1383, 720.00
1384, 719.00
1385, 719.00
1386, 719.00
1387, 718.00
1388, 718.00
1389, 718.00
1390, 717.00
1391, 717.00
1392, 717.00
1393, 718.00
1394, 717.00
1395, 717.00
1396, 717.00
1397, 717.00
1398, 717.00
1399, 716.00
1400, 716.00
1401, 717.00
1402, 715.00
1403, 716.00
1404, 716.00
1405, 715.00
1406, 717.00
1407, 716.00
1408, 716.00
1409, 716.00
1410, 716.00
1411, 715.00
1412, 716.00
1413, 716.00
1414, 716.00
1415, 715.00
1416, 715.00
1417, 715.00
1418, 716.00
1419, 716.00
1420, 716.00
1421, 715.00
1422, 716.00
1423, 717.00
1424, 715.00
1425, 716.00
1426, 716.00
1427, 716.00
1428, 716.00
1429, 716.00
1430, 716.00
1431, 716.00
1432, 717.00
1433, 717.00
1434, 717.00
1435, 717.00
1436, 717.00
1437, 718.00
1438, 718.00
1439, 718.00
1440, 718.00
1441, 719.00
1442, 719.00
1443, 719.00
1444, 718.00
1445, 719.00
1446, 720.00
1447, 720.00
1448, 720.00
1449, 719.00
1450, 720.00
1451, 720.00
1452, 721.00
1453, 721.00
1454, 722.00
1455, 722.00
1456, 722.00
1457, 722.00
1458, 722.00
1459, 722.00
1460, 723.00
1461, 723.00
1462, 725.00
1463, 724.00
1464, 724.00
1465, 725.00
1466, 725.00
1467, 725.00
1468, 726.00
1469, 726.00
1470, 726.00
1471, 727.00
1472, 727.00
1473, 728.00
1474, 728.00
1475, 729.00
1476, 729.00
1477, 729.00
1478, 731.00
1479, 731.00
1480, 730.00
1481, 731.00
1482, 732.00
1483, 733.00
1484, 733.00
1485, 733.00
1486, 734.00
1487, 734.00
1488, 735.00
1489, 735.00
1490, 736.00
1491, 737.00
1492, 737.00
1493, 737.00
1494, 738.00
1495, 738.00
1496, 740.00
1497, 739.00
1498, 740.00
1499, 740.00
1500, 741.00
1501, 742.00
1502, 742.00
1503, 742.00
1504, 743.00
1505, 744.00
1506, 745.00
1507, 744.00
1508, 745.00
1509, 746.00
1510, 746.00
1511, 747.00
1512, 747.00
1513, 748.00
1514, 749.00
1515, 749.00
1516, 749.00
1517, 750.00
1518, 751.00
1519, 751.00
1520, 752.00
1521, 752.00
1522, 752.00
1523, 754.00
1524, 754.00
1525, 754.00
1526, 755.00
1527, 755.00
1528, 757.00
1529, 757.00
1530, 757.00
1531, 758.00
1532, 759.00
1533, 759.00
1534, 760.00
1535, 760.00
1536, 760.00
1537, 761.00
1538, 762.00
1539, 763.00
1540, 763.00
1541, 764.00
1542, 764.00
1543, 764.00
1544, 766.00
1545, 766.00
1546, 766.00
1547, 767.00
1548, 767.00
1549, 768.00
1550, 768.00
1551, 769.00
1552, 769.00
1553, 770.00
1554, 770.00
1555, 771.00
1556, 772.00
1557, 772.00
1558, 772.00
1559, 773.00
1560, 774.00
1561, 774.00
1562, 774.00
1563, 776.00
1564, 777.00
1565, 777.00
1566, 778.00
1567, 778.00
1568, 779.00
1569, 780.00
1570, 780.00
1571, 781.00
1572, 781.00
1573, 782.00
1574, 782.00
1575, 783.00
1576, 784.00
1577, 784.00
1578, 784.00
1579, 786.00
1580, 785.00
1581, 786.00
1582, 787.00
1583, 787.00
1584, 788.00
1585, 788.00
1586, 789.00
1587, 790.00
1588, 791.00
1589, 791.00
1590, 791.00
1591, 792.00
1592, 793.00
1593, 793.00
1594, 794.00
1595, 794.00
1596, 795.00
1597, 796.00
1598, 796.00
1599, 796.00
1600, 797.00
1601, 797.00
1602, 798.00
1603, 799.00
1604, 799.00
1605, 801.00
1606, 800.00
1607, 801.00
1608, 802.00
1609, 803.00
1610, 804.00
1611, 804.00
1612, 806.00
1613, 806.00
1614, 807.00
1615, 808.00
1616, 808.00
1617, 808.00
1618, 808.00
1619, 810.00
1620, 811.00
1621, 811.00
1622, 812.00
1623, 812.00
1624, 814.00
1625, 814.00
1626, 815.00
1627, 815.00
1628, 816.00
1629, 817.00
1630, 818.00
1631, 818.00
1632, 819.00
1633, 820.00
1634, 820.00
1635, 821.00
1636, 821.00
1637, 822.00
1638, 822.00
1639, 823.00
1640, 823.00
1641, 823.00
1642, 825.00
1643, 825.00
1644, 825.00
1645, 826.00
1646, 826.00
1647, 826.00
1648, 827.00
1649, 827.00
1650, 829.00

1750, 1147.00
1751, 1146.00
1752, 1146.00
1753, 1147.00
1754, 1146.00
1755, 1146.00
1756, 1147.00
1757, 1147.00
1758, 1147.00
1759, 1148.00
1760, 1147.00
1761, 1147.00
1762, 1146.00
1763, 1147.00
1764, 1146.00
1765, 1147.00
1766, 1145.00
1767, 1148.00
1768, 1146.00
1769, 1148.00
1770, 1146.00
1771, 1145.00
1772, 1146.00
1773, 1145.00
1774, 1145.00
1775, 1145.00
1776, 1145.00
1777, 1143.00
1778, 1145.00
1779, 1145.00
1780, 1144.00
1781, 1145.00
1782, 1144.00
1783, 1143.00
1784, 1143.00
1785, 1143.00
1786, 1142.00
1787, 1143.00
1788, 1141.00
1789, 1143.00
1790, 1142.00
1791, 1142.00
1792, 1141.00
1793, 1140.00
1794, 1141.00
1795, 1141.00
1796, 1140.00
1797, 1140.00
1798, 1140.00
1799, 1140.00
1800, 1140.00
1801, 1140.00
1802, 1139.00
1803, 1139.00
1804, 1139.00
1805, 1140.00
1806, 1139.00
1807, 1139.00
1808, 1140.00
1809, 1138.00
1810, 1137.00
1811, 1137.00
1812, 1138.00
1813, 1137.00
1814, 1137.00
1815, 1136.00
1816, 1135.00
1817, 1137.00
1818, 1135.00
1819, 1137.00
1820, 1135.00
1821, 1135.00
1822, 1132.00
1823, 1133.00
1824, 1134.00
1825, 1132.00
1826, 1132.00
1827, 1132.00
1828, 1131.00
1829, 1131.00
1830, 1130.00
1831, 1128.00
1832, 1129.00
1833, 1127.00
1834, 1126.00
1835, 1125.00
1836, 1126.00
1837, 1123.00
1838, 1123.00
1839, 1124.00
1840, 1121.00
1841, 1120.00
1842, 1120.00
1843, 1118.00
1844, 1118.00
1845, 1115.00
1846, 1113.00
1847, 1114.00
1848, 1113.00
1849, 1112.00
1850, 1111.00
1851, 1109.00
1852, 1109.00
1853, 1107.00
1854, 1105.00
1855, 1104.00
1856, 1105.00
1857, 1104.00
1858, 1102.00
1859, 1100.00
1860, 1099.00
1861, 1098.00
1862, 1097.00
1863, 1095.00
1864, 1096.00
1865, 1093.00
1866, 1094.00
1867, 1094.00
1868, 1092.00
1869, 1091.00
1870, 1091.00
1871, 1089.00
1872, 1088.00
1873, 1088.00
1874, 1088.00
1875, 1086.00
1876, 1087.00
1877, 1088.00
1878, 1086.00
1879, 1087.00
1880, 1085.00
1881, 1082.00
1882, 1084.00
1883, 1082.00
1884, 1083.00
1885, 1084.00
1886, 1082.00
1887, 1082.00
1888, 1081.00
1889, 1081.00
1890, 1080.00
1891, 1081.00
1892, 1081.00
1893, 1080.00
1894, 1080.00
1895, 1082.00
1896, 1080.00
1897, 1079.00
1898, 1078.00
1899, 1079.00
1900, 1078.00
1901, 1077.00
1902, 1079.00
1903, 1079.00
1904, 1079.00
1905, 1079.00
1906, 1078.00
1907, 1078.00
1908, 1079.00
1909, 1079.00
1910, 1077.00
1911, 1077.00
1912, 1077.00
1913, 1077.00
1914, 1076.00
1915, 1078.00
1916, 1077.00
1917, 1076.00
1918, 1076.00
1919, 1076.00
1920, 1076.00
1921, 1077.00
1922, 1077.00
1923, 1077.00
1924, 1078.00
1925, 1077.00
1926, 1075.00
1927, 1076.00
1928, 1078.00
1929, 1078.00
1930, 1077.00
1931, 1078.00
1932, 1078.00
1933, 1077.00
1934, 1076.00
1935, 1077.00
1936, 1076.00
1937, 1078.00
1938, 1077.00
1939, 1078.00
1940, 1077.00
1941, 1079.00
1942, 1079.00
1943, 1077.00
1944, 1077.00
1945, 1078.00
1946, 1079.00
1947, 1078.00
1948, 1078.00
1949, 1078.00
1950, 1080.00
1951, 1080.00
1952, 1078.00
1953, 1079.00
1954, 1079.00
1955, 1079.00
1956, 1080.00
1957, 1080.00
1958, 1081.00
1959, 1080.00
1960, 1081.00
1961, 1082.00
1962, 1082.00
1963, 1082.00
1964, 1082.00
1965, 1082.00
1966, 1083.00
1967, 1082.00
1968, 1082.00
1969, 1083.00
1970, 1084.00
1971, 1082.00
1972, 1083.00
1973, 1084.00
1974, 1083.00
1975, 1085.00
1976, 1084.00
1977, 1086.00
1978, 1085.00
1979, 1085.00
1980, 1086.00
1981, 1086.00
1982, 1087.00
1983, 1086.00
1984, 1088.00
1985, 1088.00
1986, 1087.00
1987, 1088.00
1988, 1088.00
1989, 1090.00
1990, 1088.00
1991, 1089.00
1992, 1088.00
1993, 1089.00
1994, 1090.00
1995, 1091.00
1996, 1090.00
1997, 1090.00
1998, 1091.00
1999, 1091.00
2000, 1092.00
2001, 1091.00
2002, 1090.00
2003, 1092.00
2004, 1093.00
2005, 1094.00
2006, 1093.00
2007, 1094.00
2008, 1093.00
2009, 1093.00
2010, 1093.00
2011, 1095.00
2012, 1094.00
2013, 1096.00
2014, 1095.00
2015, 1096.00
2016, 1097.00
2017, 1096.00
2018, 1095.00
2019, 1098.00
2020, 1096.00
2021, 1097.00
2022, 1097.00
2023, 1096.00
2024, 1098.00
2025, 1098.00
2026, 1097.00
2027, 1100.00
2028, 1101.00
2029, 1099.00
2030, 1100.00
2031, 1100.00
2032, 1100.00
2033, 1100.00
2034, 1103.00
2035, 1103.00
2036, 1102.00
2037, 1102.00
2038, 1103.00
2039, 1104.00
2040, 1102.00
2041, 1104.00
2042, 1102.00
2043, 1106.00
2044, 1104.00
2045, 1107.00
2046, 1107.00
2047, 1106.00
2048, 1107.00
2049, 1107.00
2050, 1107.00
2051, 1106.00
2052, 1108.00
2053, 1109.00
2054, 1110.00
2055, 1111.00
2056, 1110.00
2057, 1111.00
2058, 1111.00
2059, 1113.00
2060, 1111.00
2061, 1113.00
2062, 1113.00
2063, 1113.00
2064, 1113.00
2065, 1114.00
2066, 1115.00
2067, 1117.00
2068, 1117.00
2069, 1115.00
2070, 1117.00
2071, 1116.00
2072, 1119.00
2073, 1116.00
2074, 1118.00
2075, 1120.00
2076, 1119.00
2077, 1121.00
2078, 1121.00
2079, 1120.00
2080, 1121.00
2081, 1121.00
2082, 1120.00
2083, 1122.00
2084, 1121.00
2085, 1122.00
2086, 1122.00
2087, 1123.00
2088, 1125.00
2089, 1123.00
2090, 1124.00
2091, 1123.00
2092, 1125.00
2093, 1125.00
2094, 1128.00
2095, 1126.00
2096, 1127.00
2097, 1127.00
2098, 1127.00
2099, 1127.00
2100, 1127.00
2101, 1127.00
2102, 1128.00
2103, 1128.00
2104, 1128.00
2105, 1129.00
2106, 1129.00
2107, 1129.00
2108, 1129.00
2109, 1128.00
2110, 1129.00
2111, 1130.00
2112, 1130.00
2113, 1133.00
2114, 1132.00
2115, 1129.00
2116, 1130.00
2117, 1130.00
2118, 1131.00
2119, 1132.00
2120, 1133.00
2121, 1131.00
2122, 1132.00
2123, 1134.00
2124, 1134.00
2125, 1133.00
2126, 1133.00
2127, 1133.00
2128, 1133.00
2129, 1134.00
2130, 1133.00
2131, 1135.00
2132, 1135.00
2133, 1134.00
2134, 1134.00
2135, 1134.00
2136, 1136.00
2137, 1134.00
2138, 1135.00
2139, 1135.00
2140, 1135.00
2141, 1136.00
2142, 1137.00
2143, 1135.00
2144, 1136.00
2145, 1137.00
2146, 1136.00
2147, 1136.00
2148, 1137.00
2149, 1135.00
2150, 1137.00
