FW version: 24
Log Version: 3.0.3

General Info:
       Command/Macro Performed,            Timestamp,             Device ID, COM Port, UART/I2C, Test Name, Host Major, Host Minor, Host Revision, Host Git Commit
            Single_measurement,  2023_06_29_11_33_27,       Insight2_F4_xxx,    USB-C,      USB,          ,          0,          1,             1,      4031237645

Show Spectrometer Status:
l0_version, f4_version, battery_perc, battery_mVolt, accelerometer_temp, accelerometer_x, accelerometer_y, accelerometer_z, compass_temp, compass_x, compass_y, compass_z, lamp_0, lamp_1, gain_0, gain_1
        17,         24,           94,          2074,               5744,           65440,           65456,           18432,            0,     65454,     65525,     65500,   2047,   2047,      1,      1

Temperature Statistic Info:
NTC AVG [°C], NTC2 AVG [°C]
      37.121,        36.835

Statistic Info:
M1:  num,      min,      max,   median,      AVG,      STD,M2:  num,      min,      max,   median,      AVG,      STD
     301,   716.00,   830.00,   742.00,   754.44,  35.8171,     401,  1077.00,  1149.00,  1110.00,  1111.16,  24.0388,

Measurements:
Wavelength, Data Amplitude
1350, 732.00
1351, 732.00
1352, 731.00
1353, 731.00
1354, 731.00
1355, 730.00
1356, 730.00
1357, 730.00
1358, 730.00
1359, 729.00
1360, 730.00
1361, 728.00
1362, 730.00
1363, 728.00
1364, 728.00
1365, 727.00
1366, 726.00
1367, 726.00
1368, 726.00
1369, 726.00
1370, 725.00
1371, 725.00
1372, 724.00
1373, 723.00
1374, 723.00
1375, 723.00
1376, 723.00
1377, 721.00
1378, 722.00
1379, 722.00
1380, 721.00
1381, 721.00
1382, 720.00
1383, 719.00
1384, 719.00
1385, 720.00
1386, 719.00
1387, 719.00
1388, 719.00
1389, 719.00
1390, 719.00
1391, 718.00
1392, 719.00
1393, 719.00
1394, 718.00
1395, 718.00
1396, 718.00
1397, 717.00
1398, 718.00
1399, 717.00
1400, 718.00
1401, 718.00
1402, 717.00
1403, 717.00
1404, 717.00
1405, 717.00
1406, 717.00
1407, 717.00
1408, 717.00
1409, 717.00
1410, 718.00
1411, 716.00
1412, 717.00
1413, 717.00
1414, 716.00
1415, 717.00
1416, 717.00
1417, 716.00
1418, 717.00
1419, 716.00
1420, 717.00
1421, 717.00
1422, 716.00
1423, 717.00
1424, 718.00
1425, 717.00
1426, 717.00
1427, 717.00
1428, 717.00
1429, 717.00
1430, 718.00
1431, 717.00
1432, 718.00
1433, 718.00
1434, 719.00
1435, 718.00
1436, 718.00
1437, 719.00
1438, 719.00
1439, 719.00
1440, 719.00
1441, 720.00
1442, 719.00
1443, 720.00
1444, 720.00
1445, 719.00
1446, 720.00
1447, 721.00
1448, 721.00
1449, 721.00
1450, 722.00
1451, 721.00
1452, 723.00
1453, 722.00
1454, 722.00
1455, 723.00
1456, 723.00
1457, 724.00
1458, 724.00
1459, 723.00
1460, 724.00
1461, 724.00
1462, 725.00
1463, 726.00
1464, 726.00
1465, 726.00
1466, 726.00
1467, 727.00
1468, 727.00
1469, 727.00
1470, 728.00
1471, 728.00
1472, 730.00
1473, 729.00
1474, 729.00
1475, 729.00
1476, 730.00
1477, 731.00
1478, 732.00
1479, 732.00
1480, 732.00
1481, 733.00
1482, 734.00
1483, 734.00
1484, 734.00
1485, 734.00
1486, 735.00
1487, 735.00
1488, 736.00
1489, 737.00
1490, 737.00
1491, 737.00
1492, 738.00
1493, 738.00
1494, 739.00
1495, 740.00
1496, 740.00
1497, 740.00
1498, 741.00
1499, 741.00
1500, 742.00
1501, 742.00
1502, 742.00
1503, 743.00
1504, 744.00
1505, 744.00
1506, 744.00
1507, 746.00
1508, 746.00
1509, 746.00
1510, 748.00
1511, 748.00
1512, 748.00
1513, 749.00
1514, 749.00
1515, 750.00
1516, 750.00
1517, 751.00
1518, 751.00
1519, 752.00
1520, 752.00
1521, 753.00
1522, 754.00
1523, 754.00
1524, 755.00
1525, 755.00
1526, 756.00
1527, 757.00
1528, 758.00
1529, 757.00
1530, 758.00
1531, 759.00
1532, 760.00
1533, 761.00
1534, 761.00
1535, 761.00
1536, 761.00
1537, 762.00
1538, 764.00
1539, 763.00
1540, 765.00
1541, 764.00
1542, 765.00
1543, 767.00
1544, 767.00
1545, 766.00
1546, 767.00
1547, 767.00
1548, 768.00
1549, 769.00
1550, 770.00
1551, 770.00
1552, 771.00
1553, 770.00
1554, 771.00
1555, 773.00
1556, 773.00
1557, 773.00
1558, 774.00
1559, 775.00
1560, 774.00
1561, 776.00
1562, 776.00
1563, 776.00
1564, 778.00
1565, 777.00
1566, 779.00
1567, 779.00
1568, 780.00
1569, 780.00
1570, 782.00
1571, 782.00
1572, 782.00
1573, 782.00
1574, 783.00
1575, 784.00
1576, 784.00
1577, 785.00
1578, 785.00
1579, 787.00
1580, 787.00
1581, 788.00
1582, 788.00
1583, 789.00
1584, 789.00
1585, 790.00
1586, 790.00
1587, 791.00
1588, 791.00
1589, 792.00
1590, 793.00
1591, 793.00
1592, 794.00
1593, 794.00
1594, 795.00
1595, 795.00
1596, 796.00
1597, 797.00
1598, 797.00
1599, 798.00
1600, 798.00
1601, 799.00
1602, 800.00
1603, 800.00
1604, 801.00
1605, 802.00
1606, 802.00
1607, 802.00
1608, 803.00
1609, 804.00
1610, 804.00
1611, 806.00
1612, 806.00
1613, 807.00
1614, 807.00
1615, 809.00
1616, 809.00
1617, 810.00
1618, 810.00
1619, 812.00
1620, 811.00
1621, 813.00
1622, 814.00
1623, 814.00
1624, 815.00
1625, 815.00
1626, 816.00
1627, 816.00
1628, 817.00
1629, 818.00
1630, 818.00
1631, 819.00
1632, 821.00
1633, 821.00
1634, 821.00
1635, 822.00
1636, 822.00
1637, 822.00
1638, 823.00
1639, 824.00
1640, 824.00
1641, 826.00
1642, 825.00
1643, 826.00
1644, 826.00
1645, 826.00
1646, 827.00
1647, 828.00
1648, 828.00
1649, 829.00
1650, 830.00

1750, 1148.00
1751, 1149.00
1752, 1149.00
1753, 1147.00
1754, 1148.00
1755, 1148.00
1756, 1148.00
1757, 1149.00
1758, 1148.00
1759, 1148.00
1760, 1147.00
1761, 1149.00
1762, 1148.00
1763, 1148.00
1764, 1148.00
1765, 1146.00
1766, 1148.00
1767, 1147.00
1768, 1147.00
1769, 1147.00
1770, 1148.00
1771, 1147.00
1772, 1147.00
1773, 1147.00
1774, 1147.00
1775, 1148.00
1776, 1145.00
1777, 1149.00
1778, 1147.00
1779, 1146.00
1780, 1146.00
1781, 1146.00
1782, 1145.00
1783, 1145.00
1784, 1145.00
1785, 1145.00
1786, 1143.00
1787, 1144.00
1788, 1143.00
1789, 1144.00
1790, 1144.00
1791, 1143.00
1792, 1144.00
1793, 1143.00
1794, 1141.00
1795, 1141.00
1796, 1142.00
1797, 1141.00
1798, 1142.00
1799, 1141.00
1800, 1141.00
1801, 1140.00
1802, 1142.00
1803, 1141.00
1804, 1141.00
1805, 1138.00
1806, 1141.00
1807, 1140.00
1808, 1140.00
1809, 1139.00
1810, 1140.00
1811, 1139.00
1812, 1138.00
1813, 1138.00
1814, 1139.00
1815, 1136.00
1816, 1138.00
1817, 1138.00
1818, 1139.00
1819, 1138.00
1820, 1137.00
1821, 1135.00
1822, 1136.00
1823, 1135.00
1824, 1135.00
1825, 1135.00
1826, 1136.00
1827, 1133.00
1828, 1133.00
1829, 1132.00
1830, 1132.00
1831, 1131.00
1832, 1130.00
1833, 1129.00
1834, 1129.00
1835, 1125.00
1836, 1126.00
1837, 1125.00
1838, 1125.00
1839, 1124.00
1840, 1123.00
1841, 1120.00
1842, 1121.00
1843, 1121.00
1844, 1119.00
1845, 1118.00
1846, 1118.00
1847, 1116.00
1848, 1114.00
1849, 1113.00
1850, 1113.00
1851, 1111.00
1852, 1109.00
1853, 1108.00
1854, 1107.00
1855, 1108.00
1856, 1105.00
1857, 1105.00
1858, 1103.00
1859, 1102.00
1860, 1101.00
1861, 1099.00
1862, 1099.00
1863, 1099.00
1864, 1099.00
1865, 1097.00
1866, 1096.00
1867, 1093.00
1868, 1093.00
1869, 1094.00
1870, 1092.00
1871, 1092.00
1872, 1089.00
1873, 1091.00
1874, 1090.00
1875, 1090.00
1876, 1088.00
1877, 1088.00
1878, 1087.00
1879, 1087.00
1880, 1085.00
1881, 1085.00
1882, 1086.00
1883, 1086.00
1884, 1085.00
1885, 1085.00
1886, 1084.00
1887, 1083.00
1888, 1083.00
1889, 1084.00
1890, 1083.00
1891, 1083.00
1892, 1085.00
1893, 1084.00
1894, 1083.00
1895, 1081.00
1896, 1081.00
1897, 1080.00
1898, 1079.00
1899, 1082.00
1900, 1080.00
1901, 1080.00
1902, 1081.00
1903, 1080.00
1904, 1080.00
1905, 1080.00
1906, 1081.00
1907, 1079.00
1908, 1079.00
1909, 1079.00
1910, 1079.00
1911, 1080.00
1912, 1079.00
1913, 1079.00
1914, 1080.00
1915, 1079.00
1916, 1081.00
1917, 1077.00
1918, 1078.00
1919, 1079.00
1920, 1079.00
1921, 1080.00
1922, 1078.00
1923, 1079.00
1924, 1080.00
1925, 1080.00
1926, 1079.00
1927, 1080.00
1928, 1078.00
1929, 1078.00
1930, 1080.00
1931, 1078.00
1932, 1078.00
1933, 1078.00
1934, 1080.00
1935, 1079.00
1936, 1078.00
1937, 1080.00
1938, 1078.00
1939, 1079.00
1940, 1079.00
1941, 1080.00
1942, 1079.00
1943, 1080.00
1944, 1079.00
1945, 1079.00
1946, 1080.00
1947, 1079.00
1948, 1080.00
1949, 1081.00
1950, 1081.00
1951, 1081.00
1952, 1081.00
1953, 1081.00
1954, 1080.00
1955, 1081.00
1956, 1082.00
1957, 1080.00
1958, 1083.00
1959, 1080.00
1960, 1081.00
1961, 1083.00
1962, 1082.00
1963, 1084.00
1964, 1083.00
1965, 1084.00
1966, 1085.00
1967, 1082.00
1968, 1082.00
1969, 1084.00
1970, 1085.00
1971, 1085.00
1972, 1084.00
1973, 1086.00
1974, 1085.00
1975, 1088.00
1976, 1086.00
1977, 1088.00
1978, 1086.00
1979, 1087.00
1980, 1087.00
1981, 1088.00
1982, 1088.00
1983, 1087.00
1984, 1089.00
1985, 1088.00
1986, 1090.00
1987, 1089.00
1988, 1089.00
1989, 1091.00
1990, 1090.00
1991, 1089.00
1992, 1090.00
1993, 1091.00
1994, 1091.00
1995, 1091.00
1996, 1090.00
1997, 1093.00
1998, 1093.00
1999, 1093.00
2000, 1092.00
2001, 1092.00
2002, 1092.00
2003, 1093.00
2004, 1095.00
2005, 1093.00
2006, 1095.00
2007, 1095.00
2008, 1096.00
2009, 1095.00
2010, 1096.00
2011, 1096.00
2012, 1096.00
2013, 1097.00
2014, 1097.00
2015, 1096.00
2016, 1098.00
2017, 1098.00
2018, 1098.00
2019, 1098.00
2020, 1098.00
2021, 1098.00
2022, 1100.00
2023, 1099.00
2024, 1102.00
2025, 1100.00
2026, 1100.00
2027, 1101.00
2028, 1101.00
2029, 1101.00
2030, 1099.00
2031, 1102.00
2032, 1100.00
2033, 1103.00
2034, 1103.00
2035, 1105.00
2036, 1104.00
2037, 1104.00
2038, 1102.00
2039, 1104.00
2040, 1106.00
2041, 1105.00
2042, 1107.00
2043, 1106.00
2044, 1107.00
2045, 1107.00
2046, 1107.00
2047, 1108.00
2048, 1109.00
2049, 1108.00
2050, 1109.00
2051, 1110.00
2052, 1110.00
2053, 1110.00
2054, 1112.00
2055, 1111.00
2056, 1112.00
2057, 1112.00
2058, 1113.00
2059, 1113.00
2060, 1116.00
2061, 1115.00
2062, 1115.00
2063, 1114.00
2064, 1115.00
2065, 1117.00
2066, 1116.00
2067, 1116.00
2068, 1118.00
2069, 1118.00
2070, 1118.00
2071, 1117.00
2072, 1118.00
2073, 1119.00
2074, 1119.00
2075, 1121.00
2076, 1121.00
2077, 1121.00
2078, 1122.00
2079, 1122.00
2080, 1123.00
2081, 1124.00
2082, 1124.00
2083, 1123.00
2084, 1126.00
2085, 1124.00
2086, 1123.00
2087, 1125.00
2088, 1126.00
2089, 1126.00
2090, 1126.00
2091, 1127.00
2092, 1126.00
2093, 1126.00
2094, 1127.00
2095, 1126.00
2096, 1127.00
2097, 1129.00
2098, 1129.00
2099, 1128.00
2100, 1130.00
2101, 1130.00
2102, 1130.00
2103, 1130.00
2104, 1131.00
2105, 1129.00
2106, 1130.00
2107, 1131.00
2108, 1130.00
2109, 1131.00
2110, 1131.00
2111, 1131.00
2112, 1131.00
2113, 1130.00
2114, 1131.00
2115, 1131.00
2116, 1133.00
2117, 1133.00
2118, 1131.00
2119, 1131.00
2120, 1134.00
2121, 1134.00
2122, 1133.00
2123, 1135.00
2124, 1134.00
2125, 1136.00
2126, 1134.00
2127, 1135.00
2128, 1135.00
2129, 1136.00
2130, 1135.00
2131, 1136.00
2132, 1135.00
2133, 1135.00
2134, 1137.00
2135, 1137.00
2136, 1135.00
2137, 1137.00
2138, 1135.00
2139, 1136.00
2140, 1138.00
2141, 1139.00
2142, 1135.00
2143, 1137.00
2144, 1138.00
2145, 1138.00
2146, 1138.00
2147, 1138.00
2148, 1137.00
2149, 1138.00
2150, 1138.00
