FW version: 24
Log Version: 3.0.3

General Info:
       Command/Macro Performed,            Timestamp,             Device ID, COM Port, UART/I2C, Test Name, Host Major, Host Minor, Host Revision, Host Git Commit
            Single_measurement,  2023_06_29_11_33_38,       Insight2_F4_xxx,    USB-C,      USB,          ,          0,          1,             1,      4031237645

Show Spectrometer Status:
l0_version, f4_version, battery_perc, battery_mVolt, accelerometer_temp, accelerometer_x, accelerometer_y, accelerometer_z, compass_temp, compass_x, compass_y, compass_z, lamp_0, lamp_1, gain_0, gain_1
        17,         24,           94,          2077,               5728,           65452,           65408,           18240,            0,     65455,     65526,     65511,   2457,   2457,      1,      1

Temperature Statistic Info:
NTC AVG [°C], NTC2 AVG [°C]
      37.237,        36.920

Statistic Info:
M1:  num,      min,      max,   median,      AVG,      STD,M2:  num,      min,      max,   median,      AVG,      STD
     301,  1037.00,  1199.00,  1073.00,  1091.01,  49.9032,     401,  1483.00,  1583.00,  1527.00,  1528.81,  32.8297,

Measurements:
Wavelength, Data Amplitude
1350, 1063.00
1351, 1063.00
1352, 1061.00
1353, 1061.00
1354, 1061.00
1355, 1060.00
1356, 1060.00
1357, 1060.00
1358, 1060.00
1359, 1058.00
1360, 1059.00
1361, 1057.00
1362, 1057.00
1363, 1057.00
1364, 1056.00
1365, 1056.00
1366, 1055.00
1367, 1054.00
1368, 1054.00
1369, 1052.00
1370, 1053.00
1371, 1052.00
1372, 1051.00
1373, 1049.00
1374, 1051.00
1375, 1049.00
1376, 1048.00
1377, 1048.00
1378, 1048.00
1379, 1046.00
1380, 1046.00
1381, 1046.00
1382, 1045.00
1383, 1045.00
1384, 1044.00
1385, 1045.00
1386, 1043.00
1387, 1043.00
1388, 1043.00
1389, 1042.00
1390, 1042.00
1391, 1042.00
1392, 1042.00
1393, 1041.00
1394, 1041.00
1395, 1040.00
1396, 1040.00
1397, 1041.00
1398, 1040.00
1399, 1040.00
1400, 1040.00
1401, 1040.00
1402, 1039.00
1403, 1038.00
1404, 1039.00
1405, 1040.00
1406, 1040.00
1407, 1039.00
1408, 1039.00
1409, 1038.00
1410, 1039.00
1411, 1038.00
1412, 1040.00
1413, 1038.00
1414, 1039.00
1415, 1038.00
1416, 1037.00
1417, 1039.00
1418, 1038.00
1419, 1038.00
1420, 1039.00
1421, 1038.00
1422, 1039.00
1423, 1040.00
1424, 1040.00
1425, 1040.00
1426, 1039.00
1427, 1039.00
1428, 1039.00
1429, 1039.00
1430, 1040.00
1431, 1040.00
1432, 1039.00
1433, 1040.00
1434, 1041.00
1435, 1040.00
1436, 1041.00
1437, 1042.00
1438, 1041.00
1439, 1042.00
1440, 1042.00
1441, 1043.00
1442, 1042.00
1443, 1043.00
1444, 1044.00
1445, 1043.00
1446, 1043.00
1447, 1044.00
1448, 1045.00
1449, 1045.00
1450, 1045.00
1451, 1045.00
1452, 1046.00
1453, 1047.00
1454, 1046.00
1455, 1046.00
1456, 1046.00
1457, 1046.00
1458, 1048.00
1459, 1048.00
1460, 1049.00
1461, 1049.00
1462, 1049.00
1463, 1050.00
1464, 1050.00
1465, 1052.00
1466, 1050.00
1467, 1052.00
1468, 1053.00
1469, 1053.00
1470, 1053.00
1471, 1054.00
1472, 1054.00
1473, 1055.00
1474, 1055.00
1475, 1056.00
1476, 1057.00
1477, 1057.00
1478, 1059.00
1479, 1058.00
1480, 1060.00
1481, 1059.00
1482, 1060.00
1483, 1061.00
1484, 1061.00
1485, 1062.00
1486, 1063.00
1487, 1064.00
1488, 1064.00
1489, 1065.00
1490, 1066.00
1491, 1067.00
1492, 1067.00
1493, 1068.00
1494, 1068.00
1495, 1068.00
1496, 1070.00
1497, 1070.00
1498, 1071.00
1499, 1071.00
1500, 1073.00
1501, 1073.00
1502, 1074.00
1503, 1074.00
1504, 1076.00
1505, 1076.00
1506, 1076.00
1507, 1077.00
1508, 1078.00
1509, 1078.00
1510, 1080.00
1511, 1080.00
1512, 1081.00
1513, 1082.00
1514, 1082.00
1515, 1083.00
1516, 1084.00
1517, 1085.00
1518, 1085.00
1519, 1086.00
1520, 1087.00
1521, 1088.00
1522, 1088.00
1523, 1088.00
1524, 1091.00
1525, 1091.00
1526, 1091.00
1527, 1093.00
1528, 1094.00
1529, 1094.00
1530, 1094.00
1531, 1095.00
1532, 1097.00
1533, 1096.00
1534, 1098.00
1535, 1099.00
1536, 1099.00
1537, 1100.00
1538, 1102.00
1539, 1102.00
1540, 1102.00
1541, 1104.00
1542, 1105.00
1543, 1105.00
1544, 1106.00
1545, 1107.00
1546, 1108.00
1547, 1108.00
1548, 1109.00
1549, 1110.00
1550, 1111.00
1551, 1112.00
1552, 1112.00
1553, 1112.00
1554, 1114.00
1555, 1114.00
1556, 1116.00
1557, 1116.00
1558, 1117.00
1559, 1117.00
1560, 1119.00
1561, 1120.00
1562, 1120.00
1563, 1121.00
1564, 1122.00
1565, 1123.00
1566, 1124.00
1567, 1124.00
1568, 1125.00
1569, 1127.00
1570, 1127.00
1571, 1128.00
1572, 1130.00
1573, 1131.00
1574, 1130.00
1575, 1132.00
1576, 1132.00
1577, 1134.00
1578, 1135.00
1579, 1134.00
1580, 1136.00
1581, 1138.00
1582, 1138.00
1583, 1138.00
1584, 1139.00
1585, 1139.00
1586, 1141.00
1587, 1141.00
1588, 1141.00
1589, 1143.00
1590, 1144.00
1591, 1145.00
1592, 1145.00
1593, 1146.00
1594, 1147.00
1595, 1147.00
1596, 1148.00
1597, 1149.00
1598, 1149.00
1599, 1151.00
1600, 1153.00
1601, 1152.00
1602, 1153.00
1603, 1154.00
1604, 1155.00
1605, 1156.00
1606, 1157.00
1607, 1158.00
1608, 1159.00
1609, 1161.00
1610, 1161.00
1611, 1162.00
1612, 1163.00
1613, 1164.00
1614, 1165.00
1615, 1167.00
1616, 1168.00
1617, 1168.00
1618, 1170.00
1619, 1170.00
1620, 1171.00
1621, 1172.00
1622, 1173.00
1623, 1174.00
1624, 1175.00
1625, 1175.00
1626, 1177.00
1627, 1178.00
1628, 1179.00
1629, 1181.00
1630, 1181.00
1631, 1183.00
1632, 1183.00
1633, 1184.00
1634, 1185.00
1635, 1186.00
1636, 1188.00
1637, 1188.00
1638, 1189.00
1639, 1189.00
1640, 1190.00
1641, 1191.00
1642, 1191.00
1643, 1193.00
1644, 1194.00
1645, 1193.00
1646, 1195.00
1647, 1196.00
1648, 1198.00
1649, 1197.00
1650, 1199.00

1750, 1582.00
1751, 1581.00
1752, 1580.00
1753, 1580.00
1754, 1581.00
1755, 1579.00
1756, 1581.00
1757, 1581.00
1758, 1582.00
1759, 1580.00
1760, 1581.00
1761, 1582.00
1762, 1582.00
1763, 1580.00
1764, 1583.00
1765, 1582.00
1766, 1580.00
1767, 1580.00
1768, 1580.00
1769, 1580.00
1770, 1581.00
1771, 1580.00
1772, 1581.00
1773, 1578.00
1774, 1580.00
1775, 1578.00
1776, 1579.00
1777, 1579.00
1778, 1579.00
1779, 1577.00
1780, 1578.00
1781, 1577.00
1782, 1576.00
1783, 1576.00
1784, 1576.00
1785, 1576.00
1786, 1577.00
1787, 1574.00
1788, 1573.00
1789, 1575.00
1790, 1574.00
1791, 1575.00
1792, 1574.00
1793, 1574.00
1794, 1573.00
1795, 1574.00
1796, 1572.00
1797, 1570.00
1798, 1572.00
1799, 1572.00
1800, 1570.00
1801, 1573.00
1802, 1570.00
1803, 1571.00
1804, 1571.00
1805, 1571.00
1806, 1569.00
1807, 1569.00
1808, 1568.00
1809, 1568.00
1810, 1568.00
1811, 1568.00
1812, 1569.00
1813, 1568.00
1814, 1566.00
1815, 1568.00
1816, 1567.00
1817, 1566.00
1818, 1566.00
1819, 1565.00
1820, 1565.00
1821, 1563.00
1822, 1562.00
1823, 1562.00
1824, 1560.00
1825, 1561.00
1826, 1561.00
1827, 1560.00
1828, 1558.00
1829, 1556.00
1830, 1558.00
1831, 1557.00
1832, 1555.00
1833, 1555.00
1834, 1553.00
1835, 1552.00
1836, 1550.00
1837, 1551.00
1838, 1549.00
1839, 1548.00
1840, 1547.00
1841, 1544.00
1842, 1543.00
1843, 1541.00
1844, 1540.00
1845, 1538.00
1846, 1537.00
1847, 1534.00
1848, 1534.00
1849, 1531.00
1850, 1531.00
1851, 1528.00
1852, 1528.00
1853, 1525.00
1854, 1525.00
1855, 1522.00
1856, 1522.00
1857, 1521.00
1858, 1516.00
1859, 1516.00
1860, 1517.00
1861, 1513.00
1862, 1512.00
1863, 1511.00
1864, 1510.00
1865, 1507.00
1866, 1506.00
1867, 1506.00
1868, 1506.00
1869, 1506.00
1870, 1502.00
1871, 1503.00
1872, 1501.00
1873, 1501.00
1874, 1500.00
1875, 1499.00
1876, 1497.00
1877, 1497.00
1878, 1496.00
1879, 1497.00
1880, 1496.00
1881, 1494.00
1882, 1496.00
1883, 1495.00
1884, 1493.00
1885, 1494.00
1886, 1492.00
1887, 1491.00
1888, 1490.00
1889, 1489.00
1890, 1492.00
1891, 1493.00
1892, 1490.00
1893, 1490.00
1894, 1490.00
1895, 1489.00
1896, 1488.00
1897, 1488.00
1898, 1489.00
1899, 1487.00
1900, 1490.00
1901, 1487.00
1902, 1488.00
1903, 1488.00
1904, 1487.00
1905, 1486.00
1906, 1486.00
1907, 1487.00
1908, 1484.00
1909, 1485.00
1910, 1486.00
1911, 1486.00
1912, 1483.00
1913, 1485.00
1914, 1487.00
1915, 1485.00
1916, 1487.00
1917, 1484.00
1918, 1486.00
1919, 1485.00
1920, 1483.00
1921, 1486.00
1922, 1485.00
1923, 1486.00
1924, 1484.00
1925, 1485.00
1926, 1484.00
1927, 1485.00
1928, 1485.00
1929, 1485.00
1930, 1484.00
1931, 1487.00
1932, 1485.00
1933, 1483.00
1934, 1485.00
1935, 1484.00
1936, 1486.00
1937, 1486.00
1938, 1484.00
1939, 1485.00
1940, 1486.00
1941, 1487.00
1942, 1483.00
1943, 1486.00
1944, 1487.00
1945, 1487.00
1946, 1486.00
1947, 1487.00
1948, 1487.00
1949, 1487.00
1950, 1487.00
1951, 1488.00
1952, 1489.00
1953, 1486.00
1954, 1489.00
1955, 1489.00
1956, 1488.00
1957, 1489.00
1958, 1488.00
1959, 1490.00
1960, 1490.00
1961, 1490.00
1962, 1490.00
1963, 1490.00
1964, 1492.00
1965, 1492.00
1966, 1490.00
1967, 1492.00
1968, 1493.00
1969, 1491.00
1970, 1493.00
1971, 1492.00
1972, 1495.00
1973, 1494.00
1974, 1494.00
1975, 1495.00
1976, 1494.00
1977, 1495.00
1978, 1493.00
1979, 1495.00
1980, 1497.00
1981, 1496.00
1982, 1497.00
1983, 1498.00
1984, 1499.00
1985, 1499.00
1986, 1498.00
1987, 1501.00
1988, 1500.00
1989, 1501.00
1990, 1500.00
1991, 1499.00
1992, 1501.00
1993, 1501.00
1994, 1501.00
1995, 1501.00
1996, 1501.00
1997, 1503.00
1998, 1502.00
1999, 1502.00
2000, 1503.00
2001, 1504.00
2002, 1502.00
2003, 1504.00
2004, 1507.00
2005, 1505.00
2006, 1506.00
2007, 1508.00
2008, 1506.00
2009, 1507.00
2010, 1509.00
2011, 1509.00
2012, 1509.00
2013, 1509.00
2014, 1510.00
2015, 1509.00
2016, 1510.00
2017, 1510.00
2018, 1509.00
2019, 1511.00
2020, 1511.00
2021, 1510.00
2022, 1513.00
2023, 1513.00
2024, 1513.00
2025, 1513.00
2026, 1514.00
2027, 1513.00
2028, 1515.00
2029, 1517.00
2030, 1516.00
2031, 1516.00
2032, 1517.00
2033, 1517.00
2034, 1517.00
2035, 1517.00
2036, 1519.00
2037, 1518.00
2038, 1519.00
2039, 1519.00
2040, 1519.00
2041, 1521.00
2042, 1520.00
2043, 1520.00
2044, 1522.00
2045, 1523.00
2046, 1523.00
2047, 1524.00
2048, 1525.00
2049, 1524.00
2050, 1527.00
2051, 1526.00
2052, 1527.00
2053, 1529.00
2054, 1527.00
2055, 1527.00
2056, 1529.00
2057, 1530.00
2058, 1530.00
2059, 1531.00
2060, 1531.00
2061, 1533.00
2062, 1534.00
2063, 1533.00
2064, 1534.00
2065, 1533.00
2066, 1535.00
2067, 1534.00
2068, 1535.00
2069, 1537.00
2070, 1536.00
2071, 1537.00
2072, 1537.00
2073, 1539.00
2074, 1542.00
2075, 1541.00
2076, 1540.00
2077, 1542.00
2078, 1542.00
2079, 1543.00
2080, 1542.00
2081, 1543.00
2082, 1545.00
2083, 1545.00
2084, 1545.00
2085, 1545.00
2086, 1546.00
2087, 1547.00
2088, 1547.00
2089, 1546.00
2090, 1547.00
2091, 1547.00
2092, 1549.00
2093, 1550.00
2094, 1549.00
2095, 1546.00
2096, 1550.00
2097, 1550.00
2098, 1550.00
2099, 1550.00
2100, 1553.00
2101, 1552.00
2102, 1553.00
2103, 1554.00
2104, 1553.00
2105, 1552.00
2106, 1553.00
2107, 1554.00
2108, 1553.00
2109, 1555.00
2110, 1554.00
2111, 1555.00
2112, 1555.00
2113, 1555.00
2114, 1555.00
2115, 1557.00
2116, 1556.00
2117, 1558.00
2118, 1557.00
2119, 1557.00
2120, 1556.00
2121, 1558.00
2122, 1556.00
2123, 1558.00
2124, 1560.00
2125, 1558.00
2126, 1559.00
2127, 1559.00
2128, 1557.00
2129, 1559.00
2130, 1560.00
2131, 1559.00
2132, 1561.00
2133, 1560.00
2134, 1561.00
2135, 1561.00
2136, 1561.00
2137, 1560.00
2138, 1562.00
2139, 1561.00
2140, 1562.00
2141, 1562.00
2142, 1564.00
2143, 1561.00
2144, 1563.00
2145, 1563.00
2146, 1562.00
2147, 1563.00
2148, 1563.00
2149, 1562.00
2150, 1563.00
