FW version: 24
Log Version: 3.0.3

General Info:
       Command/Macro Performed,            Timestamp,             Device ID, COM Port, UART/I2C, Test Name, Host Major, Host Minor, Host Revision, Host Git Commit
            Single_measurement,  2023_06_29_11_33_08,       Insight2_F4_xxx,    USB-C,      USB,          ,          0,          1,             1,      4031237645

Show Spectrometer Status:
l0_version, f4_version, battery_perc, battery_mVolt, accelerometer_temp, accelerometer_x, accelerometer_y, accelerometer_z, compass_temp, compass_x, compass_y, compass_z, lamp_0, lamp_1, gain_0, gain_1
        17,         24,           94,          2076,               5680,           65408,           65396,           18388,            0,     65451,     65407,     65493,   3276,   3276,      0,      0

Temperature Statistic Info:
NTC AVG [°C], NTC2 AVG [°C]
      37.033,        36.722

Statistic Info:
M1:  num,      min,      max,   median,      AVG,      STD,M2:  num,      min,      max,   median,      AVG,      STD
     301,   617.00,   705.00,   636.00,   646.33,  27.3293,     401,   819.00,   874.00,   842.00,   843.24,  17.8553,

Measurements:
Wavelength, Data Amplitude
1350, 633.00
1351, 633.00
1352, 633.00
1353, 633.00
1354, 632.00
1355, 632.00
1356, 632.00
1357, 631.00
1358, 632.00
1359, 630.00
1360, 631.00
1361, 630.00
1362, 630.00
1363, 629.00
1364, 629.00
1365, 629.00
1366, 628.00
1367, 628.00
1368, 628.00
1369, 627.00
1370, 627.00
1371, 626.00
1372, 626.00
1373, 625.00
1374, 624.00
1375, 625.00
1376, 624.00
1377, 624.00
1378, 623.00
1379, 623.00
1380, 623.00
1381, 623.00
1382, 622.00
1383, 622.00
1384, 621.00
1385, 621.00
1386, 621.00
1387, 621.00
1388, 620.00
1389, 620.00
1390, 621.00
1391, 620.00
1392, 620.00
1393, 619.00
1394, 619.00
1395, 620.00
1396, 619.00
1397, 619.00
1398, 618.00
1399, 619.00
1400, 619.00
1401, 618.00
1402, 618.00
1403, 618.00
1404, 619.00
1405, 619.00
1406, 618.00
1407, 618.00
1408, 618.00
1409, 618.00
1410, 618.00
1411, 618.00
1412, 617.00
1413, 617.00
1414, 617.00
1415, 618.00
1416, 618.00
1417, 618.00
1418, 617.00
1419, 617.00
1420, 618.00
1421, 618.00
1422, 618.00
1423, 618.00
1424, 617.00
1425, 618.00
1426, 618.00
1427, 618.00
1428, 617.00
1429, 618.00
1430, 618.00
1431, 618.00
1432, 618.00
1433, 618.00
1434, 618.00
1435, 619.00
1436, 619.00
1437, 619.00
1438, 618.00
1439, 619.00
1440, 619.00
1441, 619.00
1442, 619.00
1443, 619.00
1444, 620.00
1445, 619.00
1446, 620.00
1447, 620.00
1448, 620.00
1449, 620.00
1450, 621.00
1451, 621.00
1452, 621.00
1453, 621.00
1454, 622.00
1455, 621.00
1456, 622.00
1457, 622.00
1458, 622.00
1459, 622.00
1460, 623.00
1461, 623.00
1462, 623.00
1463, 623.00
1464, 624.00
1465, 624.00
1466, 624.00
1467, 624.00
1468, 624.00
1469, 624.00
1470, 625.00
1471, 625.00
1472, 626.00
1473, 626.00
1474, 626.00
1475, 626.00
1476, 626.00
1477, 628.00
1478, 628.00
1479, 628.00
1480, 629.00
1481, 628.00
1482, 629.00
1483, 629.00
1484, 630.00
1485, 631.00
1486, 630.00
1487, 631.00
1488, 631.00
1489, 631.00
1490, 632.00
1491, 632.00
1492, 632.00
1493, 633.00
1494, 633.00
1495, 633.00
1496, 634.00
1497, 635.00
1498, 635.00
1499, 635.00
1500, 636.00
1501, 636.00
1502, 636.00
1503, 636.00
1504, 637.00
1505, 637.00
1506, 638.00
1507, 638.00
1508, 638.00
1509, 639.00
1510, 640.00
1511, 640.00
1512, 640.00
1513, 640.00
1514, 641.00
1515, 641.00
1516, 641.00
1517, 642.00
1518, 642.00
1519, 643.00
1520, 644.00
1521, 644.00
1522, 644.00
1523, 644.00
1524, 644.00
1525, 646.00
1526, 646.00
1527, 647.00
1528, 647.00
1529, 647.00
1530, 647.00
1531, 648.00
1532, 648.00
1533, 649.00
1534, 649.00
1535, 650.00
1536, 650.00
1537, 651.00
1538, 651.00
1539, 652.00
1540, 652.00
1541, 653.00
1542, 653.00
1543, 653.00
1544, 654.00
1545, 654.00
1546, 654.00
1547, 655.00
1548, 656.00
1549, 656.00
1550, 657.00
1551, 657.00
1552, 657.00
1553, 658.00
1554, 659.00
1555, 659.00
1556, 659.00
1557, 660.00
1558, 660.00
1559, 661.00
1560, 662.00
1561, 662.00
1562, 662.00
1563, 663.00
1564, 663.00
1565, 664.00
1566, 664.00
1567, 665.00
1568, 665.00
1569, 666.00
1570, 666.00
1571, 667.00
1572, 667.00
1573, 668.00
1574, 668.00
1575, 669.00
1576, 669.00
1577, 670.00
1578, 670.00
1579, 670.00
1580, 671.00
1581, 672.00
1582, 672.00
1583, 672.00
1584, 673.00
1585, 673.00
1586, 673.00
1587, 674.00
1588, 675.00
1589, 675.00
1590, 675.00
1591, 676.00
1592, 676.00
1593, 677.00
1594, 677.00
1595, 678.00
1596, 678.00
1597, 679.00
1598, 679.00
1599, 679.00
1600, 680.00
1601, 680.00
1602, 681.00
1603, 682.00
1604, 682.00
1605, 682.00
1606, 682.00
1607, 683.00
1608, 684.00
1609, 684.00
1610, 685.00
1611, 686.00
1612, 686.00
1613, 687.00
1614, 687.00
1615, 688.00
1616, 688.00
1617, 689.00
1618, 689.00
1619, 689.00
1620, 690.00
1621, 691.00
1622, 692.00
1623, 692.00
1624, 693.00
1625, 693.00
1626, 694.00
1627, 694.00
1628, 695.00
1629, 696.00
1630, 696.00
1631, 696.00
1632, 697.00
1633, 697.00
1634, 698.00
1635, 699.00
1636, 699.00
1637, 699.00
1638, 700.00
1639, 700.00
1640, 701.00
1641, 701.00
1642, 701.00
1643, 702.00
1644, 702.00
1645, 703.00
1646, 704.00
1647, 704.00
1648, 705.00
1649, 705.00
1650, 705.00

1750, 873.00
1751, 873.00
1752, 873.00
1753, 872.00
1754, 873.00
1755, 872.00
1756, 873.00
1757, 874.00
1758, 873.00
1759, 873.00
1760, 873.00
1761, 873.00
1762, 872.00
1763, 873.00
1764, 873.00
1765, 873.00
1766, 873.00
1767, 872.00
1768, 873.00
1769, 873.00
1770, 873.00
1771, 872.00
1772, 872.00
1773, 872.00
1774, 872.00
1775, 872.00
1776, 871.00
1777, 872.00
1778, 871.00
1779, 871.00
1780, 871.00
1781, 871.00
1782, 871.00
1783, 870.00
1784, 870.00
1785, 870.00
1786, 870.00
1787, 869.00
1788, 869.00
1789, 869.00
1790, 869.00
1791, 869.00
1792, 868.00
1793, 868.00
1794, 868.00
1795, 868.00
1796, 868.00
1797, 868.00
1798, 867.00
1799, 868.00
1800, 868.00
1801, 868.00
1802, 867.00
1803, 867.00
1804, 867.00
1805, 867.00
1806, 866.00
1807, 866.00
1808, 866.00
1809, 866.00
1810, 866.00
1811, 865.00
1812, 865.00
1813, 866.00
1814, 865.00
1815, 865.00
1816, 864.00
1817, 864.00
1818, 865.00
1819, 863.00
1820, 863.00
1821, 863.00
1822, 862.00
1823, 863.00
1824, 862.00
1825, 861.00
1826, 860.00
1827, 860.00
1828, 861.00
1829, 860.00
1830, 859.00
1831, 859.00
1832, 858.00
1833, 857.00
1834, 857.00
1835, 856.00
1836, 856.00
1837, 855.00
1838, 855.00
1839, 854.00
1840, 854.00
1841, 852.00
1842, 852.00
1843, 851.00
1844, 850.00
1845, 849.00
1846, 848.00
1847, 848.00
1848, 847.00
1849, 846.00
1850, 845.00
1851, 844.00
1852, 843.00
1853, 842.00
1854, 841.00
1855, 841.00
1856, 840.00
1857, 839.00
1858, 838.00
1859, 837.00
1860, 836.00
1861, 835.00
1862, 835.00
1863, 834.00
1864, 834.00
1865, 833.00
1866, 833.00
1867, 832.00
1868, 831.00
1869, 831.00
1870, 830.00
1871, 829.00
1872, 828.00
1873, 829.00
1874, 827.00
1875, 827.00
1876, 827.00
1877, 826.00
1878, 826.00
1879, 825.00
1880, 825.00
1881, 825.00
1882, 825.00
1883, 825.00
1884, 824.00
1885, 824.00
1886, 824.00
1887, 824.00
1888, 823.00
1889, 823.00
1890, 824.00
1891, 822.00
1892, 823.00
1893, 822.00
1894, 822.00
1895, 822.00
1896, 822.00
1897, 822.00
1898, 821.00
1899, 821.00
1900, 821.00
1901, 821.00
1902, 821.00
1903, 821.00
1904, 821.00
1905, 821.00
1906, 821.00
1907, 820.00
1908, 820.00
1909, 821.00
1910, 820.00
1911, 819.00
1912, 820.00
1913, 820.00
1914, 820.00
1915, 820.00
1916, 820.00
1917, 820.00
1918, 820.00
1919, 820.00
1920, 820.00
1921, 820.00
1922, 820.00
1923, 820.00
1924, 819.00
1925, 819.00
1926, 819.00
1927, 820.00
1928, 820.00
1929, 819.00
1930, 820.00
1931, 819.00
1932, 819.00
1933, 819.00
1934, 820.00
1935, 820.00
1936, 820.00
1937, 820.00
1938, 820.00
1939, 820.00
1940, 820.00
1941, 820.00
1942, 820.00
1943, 820.00
1944, 820.00
1945, 820.00
1946, 821.00
1947, 820.00
1948, 821.00
1949, 821.00
1950, 821.00
1951, 821.00
1952, 821.00
1953, 821.00
1954, 821.00
1955, 822.00
1956, 821.00
1957, 822.00
1958, 822.00
1959, 822.00
1960, 822.00
1961, 823.00
1962, 822.00
1963, 822.00
1964, 823.00
1965, 822.00
1966, 823.00
1967, 823.00
1968, 824.00
1969, 824.00
1970, 824.00
1971, 824.00
1972, 825.00
1973, 825.00
1974, 825.00
1975, 825.00
1976, 825.00
1977, 825.00
1978, 825.00
1979, 826.00
1980, 826.00
1981, 826.00
1982, 826.00
1983, 826.00
1984, 826.00
1985, 827.00
1986, 827.00
1987, 827.00
1988, 827.00
1989, 827.00
1990, 828.00
1991, 828.00
1992, 828.00
1993, 828.00
1994, 829.00
1995, 829.00
1996, 829.00
1997, 830.00
1998, 829.00
1999, 829.00
2000, 829.00
2001, 829.00
2002, 830.00
2003, 830.00
2004, 831.00
2005, 831.00
2006, 831.00
2007, 831.00
2008, 831.00
2009, 831.00
2010, 832.00
2011, 832.00
2012, 832.00
2013, 833.00
2014, 832.00
2015, 832.00
2016, 833.00
2017, 833.00
2018, 833.00
2019, 833.00
2020, 834.00
2021, 833.00
2022, 834.00
2023, 834.00
2024, 834.00
2025, 835.00
2026, 835.00
2027, 835.00
2028, 835.00
2029, 835.00
2030, 835.00
2031, 836.00
2032, 836.00
2033, 836.00
2034, 836.00
2035, 837.00
2036, 837.00
2037, 837.00
2038, 837.00
2039, 837.00
2040, 838.00
2041, 838.00
2042, 839.00
2043, 839.00
2044, 840.00
2045, 839.00
2046, 839.00
2047, 840.00
2048, 840.00
2049, 841.00
2050, 841.00
2051, 841.00
2052, 842.00
2053, 842.00
2054, 842.00
2055, 842.00
2056, 843.00
2057, 843.00
2058, 844.00
2059, 843.00
2060, 844.00
2061, 845.00
2062, 844.00
2063, 845.00
2064, 845.00
2065, 846.00
2066, 846.00
2067, 846.00
2068, 846.00
2069, 846.00
2070, 847.00
2071, 847.00
2072, 848.00
2073, 847.00
2074, 849.00
2075, 848.00
2076, 848.00
2077, 849.00
2078, 849.00
2079, 850.00
2080, 850.00
2081, 850.00
2082, 850.00
2083, 850.00
2084, 851.00
2085, 851.00
2086, 852.00
2087, 851.00
2088, 851.00
2089, 852.00
2090, 853.00
2091, 852.00
2092, 853.00
2093, 853.00
2094, 853.00
2095, 853.00
2096, 853.00
2097, 854.00
2098, 854.00
2099, 854.00
2100, 854.00
2101, 854.00
2102, 854.00
2103, 855.00
2104, 855.00
2105, 855.00
2106, 857.00
2107, 856.00
2108, 856.00
2109, 856.00
2110, 856.00
2111, 856.00
2112, 855.00
2113, 856.00
2114, 856.00
2115, 857.00
2116, 857.00
2117, 857.00
2118, 857.00
2119, 857.00
2120, 858.00
2121, 857.00
2122, 857.00
2123, 857.00
2124, 857.00
2125, 858.00
2126, 857.00
2127, 858.00
2128, 858.00
2129, 858.00
2130, 858.00
2131, 859.00
2132, 859.00
2133, 860.00
2134, 859.00
2135, 859.00
2136, 859.00
2137, 859.00
2138, 859.00
2139, 860.00
2140, 859.00
2141, 858.00
2142, 859.00
2143, 859.00
2144, 859.00
2145, 860.00
2146, 860.00
2147, 860.00
2148, 860.00
2149, 860.00
2150, 860.00
