FW version: 24
Log Version: 3.0.3

General Info:
       Command/Macro Performed,            Timestamp,             Device ID, COM Port, UART/I2C, Test Name, Host Major, Host Minor, Host Revision, Host Git Commit
            Single_measurement,  2023_06_29_11_55_18,       Insight2_F4_xxx,    USB-C,      USB,          ,          0,          1,             1,      4031237645

Show Spectrometer Status:
l0_version, f4_version, battery_perc, battery_mVolt, accelerometer_temp, accelerometer_x, accelerometer_y, accelerometer_z, compass_temp, compass_x, compass_y, compass_z, lamp_0, lamp_1, gain_0, gain_1
        17,         24,           95,          2080,               5888,              64,           65404,           18364,            0,     65373,     65406,     65534,   2866,   2866,      1,      1

Temperature Statistic Info:
NTC AVG [°C], NTC2 AVG [°C]
      37.954,        37.612

Statistic Info:
M1:  num,      min,      max,   median,      AVG,      STD,M2:  num,      min,      max,   median,      AVG,      STD
     301,  1524.00,  1736.00,  1573.00,  1594.83,  65.7275,     401,  2169.00,  2297.00,  2236.00,  2233.99,  44.0231,

Measurements:
Wavelength, Data Amplitude
1350, 1549.00
1351, 1549.00
1352, 1549.00
1353, 1549.00
1354, 1548.00
1355, 1548.00
1356, 1549.00
1357, 1546.00
1358, 1546.00
1359, 1547.00
1360, 1546.00
1361, 1546.00
1362, 1545.00
1363, 1544.00
1364, 1543.00
1365, 1544.00
1366, 1543.00
1367, 1542.00
1368, 1540.00
1369, 1540.00
1370, 1541.00
1371, 1540.00
1372, 1538.00
1373, 1537.00
1374, 1537.00
1375, 1537.00
1376, 1535.00
1377, 1535.00
1378, 1534.00
1379, 1535.00
1380, 1533.00
1381, 1532.00
1382, 1533.00
1383, 1532.00
1384, 1531.00
1385, 1531.00
1386, 1530.00
1387, 1529.00
1388, 1529.00
1389, 1530.00
1390, 1529.00
1391, 1528.00
1392, 1529.00
1393, 1530.00
1394, 1527.00
1395, 1527.00
1396, 1528.00
1397, 1527.00
1398, 1527.00
1399, 1527.00
1400, 1526.00
1401, 1527.00
1402, 1527.00
1403, 1525.00
1404, 1527.00
1405, 1527.00
1406, 1526.00
1407, 1527.00
1408, 1526.00
1409, 1526.00
1410, 1526.00
1411, 1525.00
1412, 1526.00
1413, 1526.00
1414, 1524.00
1415, 1524.00
1416, 1525.00
1417, 1527.00
1418, 1525.00
1419, 1526.00
1420, 1525.00
1421, 1525.00
1422, 1526.00
1423, 1527.00
1424, 1526.00
1425, 1526.00
1426, 1527.00
1427, 1527.00
1428, 1527.00
1429, 1527.00
1430, 1528.00
1431, 1527.00
1432, 1528.00
1433, 1528.00
1434, 1528.00
1435, 1530.00
1436, 1529.00
1437, 1529.00
1438, 1529.00
1439, 1532.00
1440, 1530.00
1441, 1531.00
1442, 1532.00
1443, 1530.00
1444, 1533.00
1445, 1533.00
1446, 1533.00
1447, 1534.00
1448, 1534.00
1449, 1534.00
1450, 1535.00
1451, 1535.00
1452, 1535.00
1453, 1538.00
1454, 1538.00
1455, 1538.00
1456, 1539.00
1457, 1539.00
1458, 1539.00
1459, 1541.00
1460, 1541.00
1461, 1542.00
1462, 1544.00
1463, 1543.00
1464, 1543.00
1465, 1544.00
1466, 1544.00
1467, 1545.00
1468, 1546.00
1469, 1546.00
1470, 1547.00
1471, 1548.00
1472, 1550.00
1473, 1550.00
1474, 1551.00
1475, 1552.00
1476, 1552.00
1477, 1553.00
1478, 1554.00
1479, 1555.00
1480, 1556.00
1481, 1557.00
1482, 1557.00
1483, 1558.00
1484, 1559.00
1485, 1559.00
1486, 1561.00
1487, 1562.00
1488, 1562.00
1489, 1564.00
1490, 1564.00
1491, 1565.00
1492, 1566.00
1493, 1567.00
1494, 1567.00
1495, 1569.00
1496, 1569.00
1497, 1569.00
1498, 1571.00
1499, 1573.00
1500, 1572.00
1501, 1574.00
1502, 1575.00
1503, 1575.00
1504, 1577.00
1505, 1577.00
1506, 1578.00
1507, 1580.00
1508, 1580.00
1509, 1580.00
1510, 1582.00
1511, 1583.00
1512, 1584.00
1513, 1584.00
1514, 1585.00
1515, 1587.00
1516, 1587.00
1517, 1587.00
1518, 1590.00
1519, 1589.00
1520, 1592.00
1521, 1593.00
1522, 1593.00
1523, 1595.00
1524, 1594.00
1525, 1596.00
1526, 1597.00
1527, 1597.00
1528, 1599.00
1529, 1601.00
1530, 1601.00
1531, 1602.00
1532, 1603.00
1533, 1603.00
1534, 1607.00
1535, 1606.00
1536, 1609.00
1537, 1607.00
1538, 1610.00
1539, 1610.00
1540, 1611.00
1541, 1613.00
1542, 1613.00
1543, 1614.00
1544, 1615.00
1545, 1617.00
1546, 1619.00
1547, 1618.00
1548, 1619.00
1549, 1620.00
1550, 1619.00
1551, 1622.00
1552, 1624.00
1553, 1624.00
1554, 1626.00
1555, 1626.00
1556, 1627.00
1557, 1629.00
1558, 1630.00
1559, 1630.00
1560, 1631.00
1561, 1633.00
1562, 1634.00
1563, 1636.00
1564, 1637.00
1565, 1638.00
1566, 1639.00
1567, 1640.00
1568, 1641.00
1569, 1642.00
1570, 1645.00
1571, 1644.00
1572, 1646.00
1573, 1646.00
1574, 1648.00
1575, 1649.00
1576, 1650.00
1577, 1652.00
1578, 1653.00
1579, 1654.00
1580, 1655.00
1581, 1655.00
1582, 1656.00
1583, 1658.00
1584, 1658.00
1585, 1660.00
1586, 1661.00
1587, 1662.00
1588, 1663.00
1589, 1663.00
1590, 1664.00
1591, 1665.00
1592, 1666.00
1593, 1667.00
1594, 1669.00
1595, 1669.00
1596, 1670.00
1597, 1672.00
1598, 1672.00
1599, 1673.00
1600, 1675.00
1601, 1674.00
1602, 1676.00
1603, 1678.00
1604, 1679.00
1605, 1680.00
1606, 1681.00
1607, 1682.00
1608, 1684.00
1609, 1685.00
1610, 1688.00
1611, 1688.00
1612, 1690.00
1613, 1690.00
1614, 1692.00
1615, 1694.00
1616, 1694.00
1617, 1695.00
1618, 1697.00
1619, 1699.00
1620, 1700.00
1621, 1702.00
1622, 1702.00
1623, 1704.00
1624, 1705.00
1625, 1706.00
1626, 1708.00
1627, 1708.00
1628, 1710.00
1629, 1710.00
1630, 1713.00
1631, 1713.00
1632, 1714.00
1633, 1717.00
1634, 1717.00
1635, 1719.00
1636, 1720.00
1637, 1721.00
1638, 1722.00
1639, 1723.00
1640, 1724.00
1641, 1726.00
1642, 1728.00
1643, 1727.00
1644, 1729.00
1645, 1730.00
1646, 1731.00
1647, 1732.00
1648, 1734.00
1649, 1734.00
1650, 1736.00

1750, 2295.00
1751, 2295.00
1752, 2296.00
1753, 2293.00
1754, 2296.00
1755, 2295.00
1756, 2297.00
1757, 2296.00
1758, 2296.00
1759, 2296.00
1760, 2296.00
1761, 2293.00
1762, 2295.00
1763, 2295.00
1764, 2294.00
1765, 2295.00
1766, 2295.00
1767, 2295.00
1768, 2294.00
1769, 2294.00
1770, 2296.00
1771, 2294.00
1772, 2294.00
1773, 2292.00
1774, 2291.00
1775, 2293.00
1776, 2291.00
1777, 2288.00
1778, 2293.00
1779, 2291.00
1780, 2291.00
1781, 2289.00
1782, 2289.00
1783, 2287.00
1784, 2289.00
1785, 2288.00
1786, 2289.00
1787, 2289.00
1788, 2285.00
1789, 2287.00
1790, 2285.00
1791, 2285.00
1792, 2285.00
1793, 2285.00
1794, 2285.00
1795, 2284.00
1796, 2283.00
1797, 2284.00
1798, 2282.00
1799, 2283.00
1800, 2283.00
1801, 2284.00
1802, 2280.00
1803, 2282.00
1804, 2280.00
1805, 2280.00
1806, 2281.00
1807, 2279.00
1808, 2280.00
1809, 2279.00
1810, 2278.00
1811, 2279.00
1812, 2279.00
1813, 2278.00
1814, 2279.00
1815, 2278.00
1816, 2277.00
1817, 2277.00
1818, 2276.00
1819, 2276.00
1820, 2276.00
1821, 2274.00
1822, 2274.00
1823, 2273.00
1824, 2274.00
1825, 2272.00
1826, 2271.00
1827, 2271.00
1828, 2269.00
1829, 2270.00
1830, 2268.00
1831, 2267.00
1832, 2265.00
1833, 2266.00
1834, 2264.00
1835, 2262.00
1836, 2262.00
1837, 2260.00
1838, 2260.00
1839, 2256.00
1840, 2255.00
1841, 2253.00
1842, 2251.00
1843, 2250.00
1844, 2248.00
1845, 2245.00
1846, 2244.00
1847, 2244.00
1848, 2240.00
1849, 2238.00
1850, 2237.00
1851, 2234.00
1852, 2234.00
1853, 2231.00
1854, 2228.00
1855, 2225.00
1856, 2224.00
1857, 2221.00
1858, 2219.00
1859, 2217.00
1860, 2216.00
1861, 2213.00
1862, 2211.00
1863, 2208.00
1864, 2206.00
1865, 2204.00
1866, 2204.00
1867, 2201.00
1868, 2198.00
1869, 2197.00
1870, 2198.00
1871, 2196.00
1872, 2192.00
1873, 2192.00
1874, 2192.00
1875, 2190.00
1876, 2190.00
1877, 2189.00
1878, 2186.00
1879, 2186.00
1880, 2185.00
1881, 2184.00
1882, 2184.00
1883, 2183.00
1884, 2182.00
1885, 2181.00
1886, 2181.00
1887, 2179.00
1888, 2181.00
1889, 2180.00
1890, 2178.00
1891, 2178.00
1892, 2178.00
1893, 2177.00
1894, 2176.00
1895, 2175.00
1896, 2175.00
1897, 2174.00
1898, 2175.00
1899, 2176.00
1900, 2176.00
1901, 2174.00
1902, 2176.00
1903, 2173.00
1904, 2173.00
1905, 2172.00
1906, 2171.00
1907, 2172.00
1908, 2174.00
1909, 2170.00
1910, 2171.00
1911, 2172.00
1912, 2171.00
1913, 2170.00
1914, 2170.00
1915, 2170.00
1916, 2172.00
1917, 2172.00
1918, 2173.00
1919, 2171.00
1920, 2170.00
1921, 2170.00
1922, 2171.00
1923, 2169.00
1924, 2171.00
1925, 2169.00
1926, 2170.00
1927, 2171.00
1928, 2170.00
1929, 2173.00
1930, 2171.00
1931, 2172.00
1932, 2170.00
1933, 2170.00
1934, 2170.00
1935, 2171.00
1936, 2172.00
1937, 2171.00
1938, 2173.00
1939, 2171.00
1940, 2174.00
1941, 2171.00
1942, 2172.00
1943, 2173.00
1944, 2172.00
1945, 2174.00
1946, 2174.00
1947, 2174.00
1948, 2176.00
1949, 2177.00
1950, 2177.00
1951, 2177.00
1952, 2177.00
1953, 2176.00
1954, 2178.00
1955, 2178.00
1956, 2178.00
1957, 2179.00
1958, 2179.00
1959, 2180.00
1960, 2181.00
1961, 2179.00
1962, 2181.00
1963, 2181.00
1964, 2181.00
1965, 2181.00
1966, 2184.00
1967, 2183.00
1968, 2184.00
1969, 2184.00
1970, 2183.00
1971, 2185.00
1972, 2186.00
1973, 2187.00
1974, 2188.00
1975, 2189.00
1976, 2189.00
1977, 2191.00
1978, 2190.00
1979, 2192.00
1980, 2193.00
1981, 2193.00
1982, 2194.00
1983, 2192.00
1984, 2195.00
1985, 2196.00
1986, 2195.00
1987, 2196.00
1988, 2196.00
1989, 2197.00
1990, 2198.00
1991, 2198.00
1992, 2200.00
1993, 2200.00
1994, 2201.00
1995, 2199.00
1996, 2202.00
1997, 2203.00
1998, 2200.00
1999, 2202.00
2000, 2204.00
2001, 2204.00
2002, 2206.00
2003, 2205.00
2004, 2207.00
2005, 2206.00
2006, 2209.00
2007, 2208.00
2008, 2208.00
2009, 2210.00
2010, 2208.00
2011, 2211.00
2012, 2210.00
2013, 2210.00
2014, 2212.00
2015, 2213.00
2016, 2213.00
2017, 2214.00
2018, 2213.00
2019, 2214.00
2020, 2216.00
2021, 2215.00
2022, 2217.00
2023, 2218.00
2024, 2216.00
2025, 2218.00
2026, 2219.00
2027, 2219.00
2028, 2219.00
2029, 2222.00
2030, 2220.00
2031, 2223.00
2032, 2222.00
2033, 2222.00
2034, 2224.00
2035, 2226.00
2036, 2226.00
2037, 2227.00
2038, 2227.00
2039, 2226.00
2040, 2229.00
2041, 2230.00
2042, 2229.00
2043, 2231.00
2044, 2231.00
2045, 2233.00
2046, 2234.00
2047, 2235.00
2048, 2235.00
2049, 2235.00
2050, 2236.00
2051, 2236.00
2052, 2238.00
2053, 2237.00
2054, 2239.00
2055, 2240.00
2056, 2240.00
2057, 2241.00
2058, 2241.00
2059, 2243.00
2060, 2245.00
2061, 2246.00
2062, 2247.00
2063, 2249.00
2064, 2251.00
2065, 2251.00
2066, 2251.00
2067, 2251.00
2068, 2251.00
2069, 2253.00
2070, 2254.00
2071, 2253.00
2072, 2255.00
2073, 2255.00
2074, 2256.00
2075, 2256.00
2076, 2259.00
2077, 2259.00
2078, 2260.00
2079, 2260.00
2080, 2262.00
2081, 2263.00
2082, 2261.00
2083, 2262.00
2084, 2264.00
2085, 2266.00
2086, 2267.00
2087, 2266.00
2088, 2267.00
2089, 2266.00
2090, 2268.00
2091, 2269.00
2092, 2267.00
2093, 2269.00
2094, 2269.00
2095, 2271.00
2096, 2270.00
2097, 2272.00
2098, 2270.00
2099, 2272.00
2100, 2273.00
2101, 2274.00
2102, 2273.00
2103, 2272.00
2104, 2274.00
2105, 2274.00
2106, 2277.00
2107, 2276.00
2108, 2276.00
2109, 2278.00
2110, 2277.00
2111, 2275.00
2112, 2277.00
2113, 2276.00
2114, 2278.00
2115, 2278.00
2116, 2278.00
2117, 2278.00
2118, 2279.00
2119, 2279.00
2120, 2281.00
2121, 2278.00
2122, 2280.00
2123, 2281.00
2124, 2281.00
2125, 2282.00
2126, 2282.00
2127, 2281.00
2128, 2281.00
2129, 2282.00
2130, 2282.00
2131, 2282.00
2132, 2284.00
2133, 2283.00
2134, 2283.00
2135, 2284.00
2136, 2283.00
2137, 2285.00
2138, 2285.00
2139, 2284.00
2140, 2285.00
2141, 2285.00
2142, 2284.00
2143, 2284.00
2144, 2286.00
2145, 2284.00
2146, 2288.00
2147, 2286.00
2148, 2287.00
2149, 2287.00
2150, 2287.00
