FW version: 24
Log Version: 3.0.3

General Info:
       Command/Macro Performed,            Timestamp,             Device ID, COM Port, UART/I2C, Test Name, Host Major, Host Minor, Host Revision, Host Git Commit
            Single_measurement,  2023_06_29_11_54_24,       Insight2_F4_xxx,    USB-C,      USB,          ,          0,          1,             1,      4031237645

Show Spectrometer Status:
l0_version, f4_version, battery_perc, battery_mVolt, accelerometer_temp, accelerometer_x, accelerometer_y, accelerometer_z, compass_temp, compass_x, compass_y, compass_z, lamp_0, lamp_1, gain_0, gain_1
        17,         24,           95,          2078,               5856,              36,           65328,           18484,            0,     65342,     65393,     65532,   3276,   3276,      0,      0

Temperature Statistic Info:
NTC AVG [°C], NTC2 AVG [°C]
      37.698,        37.439

Statistic Info:
M1:  num,      min,      max,   median,      AVG,      STD,M2:  num,      min,      max,   median,      AVG,      STD
     301,   679.00,   770.00,   699.00,   709.48,  28.2495,     401,   935.00,   990.00,   963.00,   962.26,  18.8425,

Measurements:
Wavelength, Data Amplitude
1350, 691.00
1351, 691.00
1352, 691.00
1353, 691.00
1354, 690.00
1355, 690.00
1356, 690.00
1357, 690.00
1358, 690.00
1359, 690.00
1360, 689.00
1361, 689.00
1362, 689.00
1363, 688.00
1364, 688.00
1365, 688.00
1366, 687.00
1367, 688.00
1368, 687.00
1369, 687.00
1370, 687.00
1371, 686.00
1372, 686.00
1373, 685.00
1374, 685.00
1375, 685.00
1376, 685.00
1377, 685.00
1378, 683.00
1379, 684.00
1380, 683.00
1381, 683.00
1382, 683.00
1383, 683.00
1384, 682.00
1385, 682.00
1386, 683.00
1387, 682.00
1388, 682.00
1389, 682.00
1390, 681.00
1391, 681.00
1392, 681.00
1393, 681.00
1394, 681.00
1395, 681.00
1396, 681.00
1397, 680.00
1398, 681.00
1399, 680.00
1400, 680.00
1401, 680.00
1402, 680.00
1403, 680.00
1404, 680.00
1405, 680.00
1406, 680.00
1407, 680.00
1408, 680.00
1409, 680.00
1410, 680.00
1411, 680.00
1412, 680.00
1413, 680.00
1414, 680.00
1415, 680.00
1416, 680.00
1417, 680.00
1418, 679.00
1419, 679.00
1420, 680.00
1421, 680.00
1422, 680.00
1423, 680.00
1424, 680.00
1425, 679.00
1426, 680.00
1427, 680.00
1428, 680.00
1429, 681.00
1430, 680.00
1431, 680.00
1432, 681.00
1433, 681.00
1434, 681.00
1435, 681.00
1436, 681.00
1437, 681.00
1438, 682.00
1439, 682.00
1440, 682.00
1441, 682.00
1442, 682.00
1443, 682.00
1444, 683.00
1445, 683.00
1446, 683.00
1447, 683.00
1448, 683.00
1449, 684.00
1450, 684.00
1451, 684.00
1452, 684.00
1453, 685.00
1454, 685.00
1455, 685.00
1456, 685.00
1457, 685.00
1458, 685.00
1459, 685.00
1460, 686.00
1461, 686.00
1462, 687.00
1463, 687.00
1464, 687.00
1465, 688.00
1466, 688.00
1467, 688.00
1468, 688.00
1469, 689.00
1470, 689.00
1471, 689.00
1472, 689.00
1473, 690.00
1474, 690.00
1475, 690.00
1476, 691.00
1477, 691.00
1478, 692.00
1479, 692.00
1480, 692.00
1481, 693.00
1482, 692.00
1483, 693.00
1484, 694.00
1485, 694.00
1486, 694.00
1487, 695.00
1488, 695.00
1489, 696.00
1490, 696.00
1491, 696.00
1492, 697.00
1493, 697.00
1494, 698.00
1495, 698.00
1496, 698.00
1497, 698.00
1498, 699.00
1499, 699.00
1500, 699.00
1501, 700.00
1502, 700.00
1503, 701.00
1504, 701.00
1505, 701.00
1506, 702.00
1507, 703.00
1508, 703.00
1509, 703.00
1510, 703.00
1511, 703.00
1512, 704.00
1513, 705.00
1514, 705.00
1515, 705.00
1516, 706.00
1517, 706.00
1518, 707.00
1519, 707.00
1520, 707.00
1521, 708.00
1522, 708.00
1523, 709.00
1524, 709.00
1525, 710.00
1526, 710.00
1527, 711.00
1528, 711.00
1529, 711.00
1530, 712.00
1531, 712.00
1532, 713.00
1533, 713.00
1534, 713.00
1535, 714.00
1536, 714.00
1537, 715.00
1538, 715.00
1539, 716.00
1540, 716.00
1541, 716.00
1542, 717.00
1543, 717.00
1544, 718.00
1545, 718.00
1546, 719.00
1547, 719.00
1548, 720.00
1549, 720.00
1550, 721.00
1551, 721.00
1552, 721.00
1553, 722.00
1554, 723.00
1555, 723.00
1556, 724.00
1557, 724.00
1558, 725.00
1559, 725.00
1560, 725.00
1561, 726.00
1562, 726.00
1563, 727.00
1564, 728.00
1565, 728.00
1566, 729.00
1567, 729.00
1568, 730.00
1569, 730.00
1570, 730.00
1571, 731.00
1572, 731.00
1573, 732.00
1574, 732.00
1575, 733.00
1576, 734.00
1577, 734.00
1578, 734.00
1579, 735.00
1580, 735.00
1581, 735.00
1582, 737.00
1583, 737.00
1584, 737.00
1585, 738.00
1586, 738.00
1587, 738.00
1588, 738.00
1589, 739.00
1590, 740.00
1591, 740.00
1592, 740.00
1593, 741.00
1594, 741.00
1595, 742.00
1596, 742.00
1597, 743.00
1598, 743.00
1599, 743.00
1600, 744.00
1601, 744.00
1602, 745.00
1603, 745.00
1604, 746.00
1605, 746.00
1606, 747.00
1607, 747.00
1608, 748.00
1609, 748.00
1610, 749.00
1611, 750.00
1612, 750.00
1613, 750.00
1614, 751.00
1615, 751.00
1616, 752.00
1617, 753.00
1618, 754.00
1619, 754.00
1620, 755.00
1621, 755.00
1622, 756.00
1623, 757.00
1624, 757.00
1625, 758.00
1626, 759.00
1627, 758.00
1628, 759.00
1629, 760.00
1630, 760.00
1631, 761.00
1632, 762.00
1633, 762.00
1634, 762.00
1635, 763.00
1636, 763.00
1637, 764.00
1638, 764.00
1639, 765.00
1640, 765.00
1641, 766.00
1642, 766.00
1643, 766.00
1644, 767.00
1645, 767.00
1646, 768.00
1647, 768.00
1648, 769.00
1649, 770.00
1650, 770.00

1750, 990.00
1751, 989.00
1752, 989.00
1753, 989.00
1754, 990.00
1755, 990.00
1756, 989.00
1757, 990.00
1758, 989.00
1759, 990.00
1760, 989.00
1761, 990.00
1762, 989.00
1763, 989.00
1764, 990.00
1765, 989.00
1766, 989.00
1767, 990.00
1768, 989.00
1769, 988.00
1770, 989.00
1771, 989.00
1772, 988.00
1773, 988.00
1774, 988.00
1775, 987.00
1776, 987.00
1777, 987.00
1778, 988.00
1779, 987.00
1780, 987.00
1781, 987.00
1782, 987.00
1783, 986.00
1784, 987.00
1785, 986.00
1786, 986.00
1787, 986.00
1788, 985.00
1789, 986.00
1790, 985.00
1791, 985.00
1792, 985.00
1793, 985.00
1794, 984.00
1795, 984.00
1796, 985.00
1797, 984.00
1798, 984.00
1799, 983.00
1800, 984.00
1801, 983.00
1802, 983.00
1803, 983.00
1804, 983.00
1805, 983.00
1806, 983.00
1807, 983.00
1808, 983.00
1809, 982.00
1810, 982.00
1811, 982.00
1812, 981.00
1813, 982.00
1814, 982.00
1815, 982.00
1816, 981.00
1817, 981.00
1818, 981.00
1819, 981.00
1820, 980.00
1821, 980.00
1822, 980.00
1823, 979.00
1824, 979.00
1825, 979.00
1826, 979.00
1827, 978.00
1828, 977.00
1829, 978.00
1830, 978.00
1831, 977.00
1832, 977.00
1833, 976.00
1834, 975.00
1835, 975.00
1836, 974.00
1837, 973.00
1838, 973.00
1839, 973.00
1840, 972.00
1841, 971.00
1842, 970.00
1843, 969.00
1844, 969.00
1845, 968.00
1846, 966.00
1847, 967.00
1848, 965.00
1849, 964.00
1850, 963.00
1851, 963.00
1852, 962.00
1853, 961.00
1854, 960.00
1855, 959.00
1856, 959.00
1857, 958.00
1858, 956.00
1859, 956.00
1860, 955.00
1861, 954.00
1862, 953.00
1863, 952.00
1864, 952.00
1865, 951.00
1866, 949.00
1867, 949.00
1868, 948.00
1869, 947.00
1870, 947.00
1871, 947.00
1872, 946.00
1873, 945.00
1874, 945.00
1875, 944.00
1876, 943.00
1877, 943.00
1878, 943.00
1879, 942.00
1880, 942.00
1881, 941.00
1882, 941.00
1883, 941.00
1884, 941.00
1885, 940.00
1886, 939.00
1887, 939.00
1888, 940.00
1889, 939.00
1890, 939.00
1891, 938.00
1892, 938.00
1893, 938.00
1894, 938.00
1895, 938.00
1896, 937.00
1897, 937.00
1898, 937.00
1899, 937.00
1900, 937.00
1901, 936.00
1902, 936.00
1903, 936.00
1904, 937.00
1905, 937.00
1906, 936.00
1907, 936.00
1908, 936.00
1909, 936.00
1910, 936.00
1911, 936.00
1912, 935.00
1913, 935.00
1914, 936.00
1915, 936.00
1916, 935.00
1917, 935.00
1918, 935.00
1919, 935.00
1920, 935.00
1921, 935.00
1922, 935.00
1923, 935.00
1924, 935.00
1925, 935.00
1926, 935.00
1927, 936.00
1928, 935.00
1929, 935.00
1930, 935.00
1931, 935.00
1932, 936.00
1933, 935.00
1934, 936.00
1935, 935.00
1936, 936.00
1937, 937.00
1938, 936.00
1939, 936.00
1940, 936.00
1941, 936.00
1942, 937.00
1943, 937.00
1944, 936.00
1945, 936.00
1946, 937.00
1947, 937.00
1948, 937.00
1949, 937.00
1950, 937.00
1951, 938.00
1952, 937.00
1953, 938.00
1954, 937.00
1955, 939.00
1956, 938.00
1957, 938.00
1958, 938.00
1959, 939.00
1960, 939.00
1961, 939.00
1962, 939.00
1963, 940.00
1964, 940.00
1965, 940.00
1966, 940.00
1967, 940.00
1968, 941.00
1969, 942.00
1970, 941.00
1971, 941.00
1972, 942.00
1973, 942.00
1974, 943.00
1975, 943.00
1976, 943.00
1977, 943.00
1978, 943.00
1979, 944.00
1980, 944.00
1981, 944.00
1982, 944.00
1983, 944.00
1984, 945.00
1985, 945.00
1986, 945.00
1987, 946.00
1988, 946.00
1989, 946.00
1990, 947.00
1991, 947.00
1992, 946.00
1993, 948.00
1994, 948.00
1995, 948.00
1996, 948.00
1997, 948.00
1998, 948.00
1999, 949.00
2000, 950.00
2001, 950.00
2002, 950.00
2003, 949.00
2004, 950.00
2005, 950.00
2006, 950.00
2007, 951.00
2008, 951.00
2009, 951.00
2010, 951.00
2011, 952.00
2012, 952.00
2013, 953.00
2014, 953.00
2015, 953.00
2016, 953.00
2017, 953.00
2018, 954.00
2019, 954.00
2020, 954.00
2021, 954.00
2022, 955.00
2023, 955.00
2024, 955.00
2025, 956.00
2026, 955.00
2027, 956.00
2028, 956.00
2029, 957.00
2030, 956.00
2031, 957.00
2032, 958.00
2033, 958.00
2034, 958.00
2035, 958.00
2036, 959.00
2037, 959.00
2038, 958.00
2039, 959.00
2040, 959.00
2041, 959.00
2042, 960.00
2043, 961.00
2044, 961.00
2045, 961.00
2046, 961.00
2047, 962.00
2048, 962.00
2049, 962.00
2050, 962.00
2051, 963.00
2052, 964.00
2053, 963.00
2054, 965.00
2055, 965.00
2056, 965.00
2057, 965.00
2058, 966.00
2059, 966.00
2060, 966.00
2061, 966.00
2062, 967.00
2063, 968.00
2064, 969.00
2065, 969.00
2066, 968.00
2067, 969.00
2068, 969.00
2069, 970.00
2070, 970.00
2071, 971.00
2072, 971.00
2073, 970.00
2074, 971.00
2075, 972.00
2076, 972.00
2077, 972.00
2078, 972.00
2079, 972.00
2080, 973.00
2081, 973.00
2082, 974.00
2083, 974.00
2084, 974.00
2085, 974.00
2086, 975.00
2087, 975.00
2088, 976.00
2089, 975.00
2090, 976.00
2091, 977.00
2092, 977.00
2093, 977.00
2094, 977.00
2095, 977.00
2096, 976.00
2097, 978.00
2098, 978.00
2099, 978.00
2100, 978.00
2101, 979.00
2102, 978.00
2103, 979.00
2104, 979.00
2105, 979.00
2106, 979.00
2107, 980.00
2108, 980.00
2109, 980.00
2110, 980.00
2111, 980.00
2112, 979.00
2113, 980.00
2114, 980.00
2115, 980.00
2116, 981.00
2117, 981.00
2118, 981.00
2119, 980.00
2120, 981.00
2121, 981.00
2122, 981.00
2123, 981.00
2124, 981.00
2125, 981.00
2126, 982.00
2127, 981.00
2128, 982.00
2129, 983.00
2130, 982.00
2131, 982.00
2132, 982.00
2133, 983.00
2134, 983.00
2135, 983.00
2136, 983.00
2137, 983.00
2138, 983.00
2139, 983.00
2140, 983.00
2141, 983.00
2142, 983.00
2143, 983.00
2144, 983.00
2145, 984.00
2146, 983.00
2147, 983.00
2148, 984.00
2149, 984.00
2150, 984.00
