FW version: 24
Log Version: 3.0.3

General Info:
       Command/Macro Performed,            Timestamp,             Device ID, COM Port, UART/I2C, Test Name, Host Major, Host Minor, Host Revision, Host Git Commit
            Single_measurement,  2023_06_29_11_54_55,       Insight2_F4_xxx,    USB-C,      USB,          ,          0,          1,             1,      4031237645

Show Spectrometer Status:
l0_version, f4_version, battery_perc, battery_mVolt, accelerometer_temp, accelerometer_x, accelerometer_y, accelerometer_z, compass_temp, compass_x, compass_y, compass_z, lamp_0, lamp_1, gain_0, gain_1
        17,         24,           95,          2078,               5840,              36,           65392,           18464,            0,     65316,     65405,     65520,   2457,   2457,      1,      1

Temperature Statistic Info:
NTC AVG [°C], NTC2 AVG [°C]
      37.783,        37.497

Statistic Info:
M1:  num,      min,      max,   median,      AVG,      STD,M2:  num,      min,      max,   median,      AVG,      STD
     301,  1134.00,  1298.00,  1172.00,  1188.54,  51.1097,     401,  1680.00,  1781.00,  1735.00,  1731.84,  34.6881,

Measurements:
Wavelength, Data Amplitude
1350, 1151.00
1351, 1152.00
1352, 1152.00
1353, 1151.00
1354, 1151.00
1355, 1150.00
1356, 1150.00
1357, 1149.00
1358, 1149.00
1359, 1150.00
1360, 1149.00
1361, 1149.00
1362, 1148.00
1363, 1147.00
1364, 1147.00
1365, 1147.00
1366, 1146.00
1367, 1147.00
1368, 1146.00
1369, 1145.00
1370, 1145.00
1371, 1144.00
1372, 1144.00
1373, 1142.00
1374, 1142.00
1375, 1143.00
1376, 1141.00
1377, 1141.00
1378, 1141.00
1379, 1140.00
1380, 1140.00
1381, 1140.00
1382, 1139.00
1383, 1139.00
1384, 1138.00
1385, 1138.00
1386, 1137.00
1387, 1138.00
1388, 1138.00
1389, 1137.00
1390, 1136.00
1391, 1137.00
1392, 1137.00
1393, 1136.00
1394, 1137.00
1395, 1137.00
1396, 1135.00
1397, 1136.00
1398, 1135.00
1399, 1135.00
1400, 1135.00
1401, 1135.00
1402, 1135.00
1403, 1134.00
1404, 1135.00
1405, 1135.00
1406, 1136.00
1407, 1135.00
1408, 1134.00
1409, 1135.00
1410, 1135.00
1411, 1135.00
1412, 1136.00
1413, 1135.00
1414, 1134.00
1415, 1135.00
1416, 1135.00
1417, 1134.00
1418, 1135.00
1419, 1135.00
1420, 1135.00
1421, 1136.00
1422, 1135.00
1423, 1135.00
1424, 1135.00
1425, 1136.00
1426, 1136.00
1427, 1136.00
1428, 1136.00
1429, 1137.00
1430, 1137.00
1431, 1137.00
1432, 1137.00
1433, 1138.00
1434, 1137.00
1435, 1138.00
1436, 1138.00
1437, 1138.00
1438, 1139.00
1439, 1138.00
1440, 1139.00
1441, 1139.00
1442, 1139.00
1443, 1139.00
1444, 1141.00
1445, 1141.00
1446, 1141.00
1447, 1142.00
1448, 1141.00
1449, 1142.00
1450, 1143.00
1451, 1143.00
1452, 1144.00
1453, 1144.00
1454, 1144.00
1455, 1145.00
1456, 1146.00
1457, 1146.00
1458, 1146.00
1459, 1147.00
1460, 1147.00
1461, 1147.00
1462, 1149.00
1463, 1149.00
1464, 1148.00
1465, 1150.00
1466, 1151.00
1467, 1151.00
1468, 1151.00
1469, 1152.00
1470, 1152.00
1471, 1153.00
1472, 1153.00
1473, 1154.00
1474, 1155.00
1475, 1155.00
1476, 1156.00
1477, 1156.00
1478, 1157.00
1479, 1157.00
1480, 1159.00
1481, 1159.00
1482, 1159.00
1483, 1160.00
1484, 1161.00
1485, 1162.00
1486, 1161.00
1487, 1163.00
1488, 1163.00
1489, 1165.00
1490, 1164.00
1491, 1166.00
1492, 1166.00
1493, 1169.00
1494, 1167.00
1495, 1169.00
1496, 1168.00
1497, 1170.00
1498, 1170.00
1499, 1172.00
1500, 1171.00
1501, 1172.00
1502, 1173.00
1503, 1174.00
1504, 1175.00
1505, 1176.00
1506, 1177.00
1507, 1176.00
1508, 1178.00
1509, 1178.00
1510, 1180.00
1511, 1180.00
1512, 1180.00
1513, 1181.00
1514, 1181.00
1515, 1182.00
1516, 1184.00
1517, 1185.00
1518, 1185.00
1519, 1185.00
1520, 1186.00
1521, 1186.00
1522, 1188.00
1523, 1189.00
1524, 1190.00
1525, 1190.00
1526, 1191.00
1527, 1192.00
1528, 1193.00
1529, 1194.00
1530, 1193.00
1531, 1194.00
1532, 1195.00
1533, 1196.00
1534, 1197.00
1535, 1198.00
1536, 1199.00
1537, 1199.00
1538, 1200.00
1539, 1201.00
1540, 1202.00
1541, 1203.00
1542, 1202.00
1543, 1204.00
1544, 1205.00
1545, 1205.00
1546, 1206.00
1547, 1207.00
1548, 1208.00
1549, 1209.00
1550, 1210.00
1551, 1210.00
1552, 1210.00
1553, 1213.00
1554, 1213.00
1555, 1214.00
1556, 1214.00
1557, 1215.00
1558, 1216.00
1559, 1216.00
1560, 1218.00
1561, 1218.00
1562, 1220.00
1563, 1220.00
1564, 1222.00
1565, 1222.00
1566, 1223.00
1567, 1224.00
1568, 1225.00
1569, 1226.00
1570, 1226.00
1571, 1227.00
1572, 1229.00
1573, 1230.00
1574, 1230.00
1575, 1230.00
1576, 1231.00
1577, 1232.00
1578, 1234.00
1579, 1234.00
1580, 1234.00
1581, 1236.00
1582, 1237.00
1583, 1237.00
1584, 1238.00
1585, 1238.00
1586, 1240.00
1587, 1240.00
1588, 1241.00
1589, 1242.00
1590, 1242.00
1591, 1243.00
1592, 1243.00
1593, 1245.00
1594, 1245.00
1595, 1246.00
1596, 1247.00
1597, 1247.00
1598, 1249.00
1599, 1250.00
1600, 1250.00
1601, 1252.00
1602, 1252.00
1603, 1253.00
1604, 1254.00
1605, 1254.00
1606, 1256.00
1607, 1256.00
1608, 1258.00
1609, 1260.00
1610, 1259.00
1611, 1261.00
1612, 1261.00
1613, 1263.00
1614, 1263.00
1615, 1265.00
1616, 1265.00
1617, 1267.00
1618, 1267.00
1619, 1268.00
1620, 1269.00
1621, 1271.00
1622, 1273.00
1623, 1272.00
1624, 1274.00
1625, 1275.00
1626, 1276.00
1627, 1277.00
1628, 1278.00
1629, 1280.00
1630, 1280.00
1631, 1282.00
1632, 1282.00
1633, 1283.00
1634, 1284.00
1635, 1285.00
1636, 1287.00
1637, 1286.00
1638, 1288.00
1639, 1289.00
1640, 1288.00
1641, 1290.00
1642, 1290.00
1643, 1292.00
1644, 1292.00
1645, 1295.00
1646, 1294.00
1647, 1295.00
1648, 1296.00
1649, 1296.00
1650, 1298.00

1750, 1778.00
1751, 1780.00
1752, 1777.00
1753, 1778.00
1754, 1776.00
1755, 1779.00
1756, 1779.00
1757, 1779.00
1758, 1777.00
1759, 1781.00
1760, 1778.00
1761, 1779.00
1762, 1778.00
1763, 1777.00
1764, 1778.00
1765, 1777.00
1766, 1778.00
1767, 1779.00
1768, 1779.00
1769, 1778.00
1770, 1776.00
1771, 1777.00
1772, 1775.00
1773, 1776.00
1774, 1777.00
1775, 1775.00
1776, 1775.00
1777, 1774.00
1778, 1775.00
1779, 1776.00
1780, 1777.00
1781, 1774.00
1782, 1772.00
1783, 1773.00
1784, 1772.00
1785, 1773.00
1786, 1771.00
1787, 1771.00
1788, 1772.00
1789, 1772.00
1790, 1770.00
1791, 1773.00
1792, 1771.00
1793, 1770.00
1794, 1770.00
1795, 1769.00
1796, 1771.00
1797, 1770.00
1798, 1769.00
1799, 1769.00
1800, 1768.00
1801, 1769.00
1802, 1769.00
1803, 1769.00
1804, 1767.00
1805, 1768.00
1806, 1767.00
1807, 1766.00
1808, 1766.00
1809, 1765.00
1810, 1767.00
1811, 1765.00
1812, 1765.00
1813, 1765.00
1814, 1765.00
1815, 1765.00
1816, 1765.00
1817, 1766.00
1818, 1764.00
1819, 1765.00
1820, 1762.00
1821, 1765.00
1822, 1762.00
1823, 1762.00
1824, 1763.00
1825, 1762.00
1826, 1760.00
1827, 1759.00
1828, 1760.00
1829, 1759.00
1830, 1758.00
1831, 1757.00
1832, 1756.00
1833, 1755.00
1834, 1753.00
1835, 1753.00
1836, 1752.00
1837, 1750.00
1838, 1751.00
1839, 1749.00
1840, 1749.00
1841, 1745.00
1842, 1745.00
1843, 1744.00
1844, 1742.00
1845, 1739.00
1846, 1740.00
1847, 1738.00
1848, 1736.00
1849, 1735.00
1850, 1733.00
1851, 1732.00
1852, 1729.00
1853, 1727.00
1854, 1726.00
1855, 1724.00
1856, 1724.00
1857, 1722.00
1858, 1720.00
1859, 1718.00
1860, 1717.00
1861, 1715.00
1862, 1713.00
1863, 1712.00
1864, 1711.00
1865, 1709.00
1866, 1707.00
1867, 1708.00
1868, 1705.00
1869, 1705.00
1870, 1704.00
1871, 1701.00
1872, 1700.00
1873, 1701.00
1874, 1696.00
1875, 1696.00
1876, 1696.00
1877, 1696.00
1878, 1694.00
1879, 1693.00
1880, 1694.00
1881, 1693.00
1882, 1692.00
1883, 1693.00
1884, 1689.00
1885, 1690.00
1886, 1689.00
1887, 1688.00
1888, 1688.00
1889, 1689.00
1890, 1688.00
1891, 1689.00
1892, 1686.00
1893, 1685.00
1894, 1685.00
1895, 1687.00
1896, 1686.00
1897, 1686.00
1898, 1683.00
1899, 1684.00
1900, 1682.00
1901, 1684.00
1902, 1684.00
1903, 1684.00
1904, 1686.00
1905, 1683.00
1906, 1683.00
1907, 1683.00
1908, 1682.00
1909, 1682.00
1910, 1682.00
1911, 1681.00
1912, 1682.00
1913, 1682.00
1914, 1681.00
1915, 1681.00
1916, 1681.00
1917, 1680.00
1918, 1681.00
1919, 1682.00
1920, 1680.00
1921, 1682.00
1922, 1680.00
1923, 1682.00
1924, 1681.00
1925, 1682.00
1926, 1683.00
1927, 1682.00
1928, 1681.00
1929, 1682.00
1930, 1683.00
1931, 1682.00
1932, 1683.00
1933, 1682.00
1934, 1682.00
1935, 1682.00
1936, 1683.00
1937, 1683.00
1938, 1683.00
1939, 1682.00
1940, 1684.00
1941, 1683.00
1942, 1683.00
1943, 1684.00
1944, 1684.00
1945, 1686.00
1946, 1685.00
1947, 1684.00
1948, 1683.00
1949, 1686.00
1950, 1684.00
1951, 1686.00
1952, 1687.00
1953, 1687.00
1954, 1687.00
1955, 1687.00
1956, 1689.00
1957, 1687.00
1958, 1689.00
1959, 1688.00
1960, 1690.00
1961, 1690.00
1962, 1691.00
1963, 1689.00
1964, 1691.00
1965, 1691.00
1966, 1691.00
1967, 1693.00
1968, 1694.00
1969, 1695.00
1970, 1693.00
1971, 1695.00
1972, 1694.00
1973, 1698.00
1974, 1695.00
1975, 1697.00
1976, 1697.00
1977, 1695.00
1978, 1697.00
1979, 1698.00
1980, 1699.00
1981, 1701.00
1982, 1701.00
1983, 1699.00
1984, 1700.00
1985, 1702.00
1986, 1700.00
1987, 1703.00
1988, 1702.00
1989, 1702.00
1990, 1704.00
1991, 1705.00
1992, 1704.00
1993, 1704.00
1994, 1705.00
1995, 1706.00
1996, 1705.00
1997, 1706.00
1998, 1707.00
1999, 1707.00
2000, 1708.00
2001, 1708.00
2002, 1709.00
2003, 1710.00
2004, 1711.00
2005, 1710.00
2006, 1711.00
2007, 1711.00
2008, 1712.00
2009, 1713.00
2010, 1712.00
2011, 1715.00
2012, 1713.00
2013, 1713.00
2014, 1714.00
2015, 1717.00
2016, 1717.00
2017, 1717.00
2018, 1716.00
2019, 1715.00
2020, 1717.00
2021, 1717.00
2022, 1718.00
2023, 1719.00
2024, 1719.00
2025, 1719.00
2026, 1721.00
2027, 1720.00
2028, 1721.00
2029, 1722.00
2030, 1723.00
2031, 1724.00
2032, 1723.00
2033, 1723.00
2034, 1726.00
2035, 1724.00
2036, 1725.00
2037, 1727.00
2038, 1727.00
2039, 1728.00
2040, 1727.00
2041, 1727.00
2042, 1729.00
2043, 1730.00
2044, 1732.00
2045, 1731.00
2046, 1732.00
2047, 1733.00
2048, 1731.00
2049, 1734.00
2050, 1736.00
2051, 1735.00
2052, 1738.00
2053, 1735.00
2054, 1737.00
2055, 1737.00
2056, 1737.00
2057, 1739.00
2058, 1741.00
2059, 1742.00
2060, 1741.00
2061, 1741.00
2062, 1742.00
2063, 1743.00
2064, 1744.00
2065, 1745.00
2066, 1746.00
2067, 1748.00
2068, 1747.00
2069, 1748.00
2070, 1750.00
2071, 1748.00
2072, 1749.00
2073, 1751.00
2074, 1750.00
2075, 1751.00
2076, 1753.00
2077, 1752.00
2078, 1752.00
2079, 1753.00
2080, 1755.00
2081, 1756.00
2082, 1754.00
2083, 1757.00
2084, 1756.00
2085, 1757.00
2086, 1757.00
2087, 1756.00
2088, 1759.00
2089, 1759.00
2090, 1760.00
2091, 1760.00
2092, 1761.00
2093, 1760.00
2094, 1762.00
2095, 1763.00
2096, 1760.00
2097, 1762.00
2098, 1765.00
2099, 1763.00
2100, 1765.00
2101, 1764.00
2102, 1765.00
2103, 1765.00
2104, 1765.00
2105, 1764.00
2106, 1765.00
2107, 1764.00
2108, 1766.00
2109, 1767.00
2110, 1768.00
2111, 1768.00
2112, 1767.00
2113, 1767.00
2114, 1768.00
2115, 1768.00
2116, 1768.00
2117, 1768.00
2118, 1770.00
2119, 1770.00
2120, 1770.00
2121, 1770.00
2122, 1770.00
2123, 1771.00
2124, 1771.00
2125, 1771.00
2126, 1771.00
2127, 1772.00
2128, 1770.00
2129, 1772.00
2130, 1772.00
2131, 1772.00
2132, 1772.00
2133, 1772.00
2134, 1773.00
2135, 1772.00
2136, 1771.00
2137, 1772.00
2138, 1773.00
2139, 1774.00
2140, 1773.00
2141, 1774.00
2142, 1773.00
2143, 1773.00
2144, 1775.00
2145, 1774.00
2146, 1776.00
2147, 1774.00
2148, 1775.00
2149, 1776.00
2150, 1776.00
