FW version: 24
Log Version: 3.0.3

General Info:
       Command/Macro Performed,            Timestamp,             Device ID, COM Port, UART/I2C, Test Name, Host Major, Host Minor, Host Revision, Host Git Commit
            Single_measurement,  2023_06_29_11_54_43,       Insight2_F4_xxx,    USB-C,      USB,          ,          0,          1,             1,      4031237645

Show Spectrometer Status:
l0_version, f4_version, battery_perc, battery_mVolt, accelerometer_temp, accelerometer_x, accelerometer_y, accelerometer_z, compass_temp, compass_x, compass_y, compass_z, lamp_0, lamp_1, gain_0, gain_1
        17,         24,           95,          2078,               5856,              48,           65384,           18492,            0,     65328,     65401,     65533,   2047,   2047,      1,      1

Temperature Statistic Info:
NTC AVG [°C], NTC2 AVG [°C]
      37.783,        37.468

Statistic Info:
M1:  num,      min,      max,   median,      AVG,      STD,M2:  num,      min,      max,   median,      AVG,      STD
     301,   785.00,   900.00,   814.00,   824.75,  36.8535,     401,  1223.00,  1298.00,  1264.00,  1262.56,  25.5874,

Measurements:
Wavelength, Data Amplitude
1350, 796.00
1351, 796.00
1352, 795.00
1353, 796.00
1354, 794.00
1355, 795.00
1356, 796.00
1357, 795.00
1358, 794.00
1359, 794.00
1360, 795.00
1361, 794.00
1362, 794.00
1363, 794.00
1364, 792.00
1365, 793.00
1366, 792.00
1367, 793.00
1368, 792.00
1369, 792.00
1370, 791.00
1371, 792.00
1372, 791.00
1373, 791.00
1374, 790.00
1375, 791.00
1376, 791.00
1377, 789.00
1378, 788.00
1379, 789.00
1380, 789.00
1381, 788.00
1382, 788.00
1383, 788.00
1384, 787.00
1385, 787.00
1386, 787.00
1387, 787.00
1388, 787.00
1389, 787.00
1390, 787.00
1391, 786.00
1392, 787.00
1393, 787.00
1394, 786.00
1395, 786.00
1396, 786.00
1397, 786.00
1398, 787.00
1399, 786.00
1400, 786.00
1401, 785.00
1402, 785.00
1403, 785.00
1404, 786.00
1405, 786.00
1406, 786.00
1407, 786.00
1408, 785.00
1409, 786.00
1410, 787.00
1411, 785.00
1412, 786.00
1413, 786.00
1414, 786.00
1415, 786.00
1416, 785.00
1417, 787.00
1418, 786.00
1419, 787.00
1420, 785.00
1421, 786.00
1422, 786.00
1423, 787.00
1424, 786.00
1425, 786.00
1426, 786.00
1427, 787.00
1428, 787.00
1429, 786.00
1430, 787.00
1431, 787.00
1432, 788.00
1433, 787.00
1434, 788.00
1435, 788.00
1436, 788.00
1437, 789.00
1438, 789.00
1439, 789.00
1440, 790.00
1441, 789.00
1442, 789.00
1443, 790.00
1444, 790.00
1445, 790.00
1446, 791.00
1447, 791.00
1448, 792.00
1449, 792.00
1450, 791.00
1451, 792.00
1452, 792.00
1453, 793.00
1454, 793.00
1455, 794.00
1456, 795.00
1457, 794.00
1458, 794.00
1459, 796.00
1460, 796.00
1461, 795.00
1462, 794.00
1463, 795.00
1464, 796.00
1465, 797.00
1466, 797.00
1467, 798.00
1468, 798.00
1469, 798.00
1470, 800.00
1471, 800.00
1472, 800.00
1473, 801.00
1474, 800.00
1475, 801.00
1476, 801.00
1477, 802.00
1478, 802.00
1479, 803.00
1480, 804.00
1481, 804.00
1482, 805.00
1483, 804.00
1484, 805.00
1485, 807.00
1486, 806.00
1487, 807.00
1488, 808.00
1489, 809.00
1490, 809.00
1491, 810.00
1492, 810.00
1493, 810.00
1494, 810.00
1495, 812.00
1496, 810.00
1497, 813.00
1498, 813.00
1499, 813.00
1500, 814.00
1501, 814.00
1502, 815.00
1503, 815.00
1504, 815.00
1505, 817.00
1506, 816.00
1507, 817.00
1508, 818.00
1509, 817.00
1510, 818.00
1511, 820.00
1512, 820.00
1513, 821.00
1514, 822.00
1515, 821.00
1516, 822.00
1517, 823.00
1518, 823.00
1519, 823.00
1520, 825.00
1521, 825.00
1522, 826.00
1523, 825.00
1524, 826.00
1525, 827.00
1526, 828.00
1527, 828.00
1528, 829.00
1529, 829.00
1530, 829.00
1531, 831.00
1532, 831.00
1533, 832.00
1534, 833.00
1535, 833.00
1536, 834.00
1537, 835.00
1538, 835.00
1539, 836.00
1540, 836.00
1541, 837.00
1542, 837.00
1543, 838.00
1544, 837.00
1545, 837.00
1546, 839.00
1547, 839.00
1548, 840.00
1549, 840.00
1550, 841.00
1551, 841.00
1552, 842.00
1553, 842.00
1554, 843.00
1555, 844.00
1556, 844.00
1557, 845.00
1558, 845.00
1559, 846.00
1560, 846.00
1561, 848.00
1562, 848.00
1563, 849.00
1564, 849.00
1565, 849.00
1566, 850.00
1567, 851.00
1568, 851.00
1569, 852.00
1570, 853.00
1571, 853.00
1572, 854.00
1573, 854.00
1574, 856.00
1575, 856.00
1576, 856.00
1577, 857.00
1578, 857.00
1579, 858.00
1580, 858.00
1581, 859.00
1582, 860.00
1583, 860.00
1584, 861.00
1585, 861.00
1586, 862.00
1587, 863.00
1588, 863.00
1589, 863.00
1590, 864.00
1591, 865.00
1592, 865.00
1593, 866.00
1594, 866.00
1595, 867.00
1596, 867.00
1597, 868.00
1598, 868.00
1599, 869.00
1600, 870.00
1601, 870.00
1602, 871.00
1603, 871.00
1604, 872.00
1605, 872.00
1606, 873.00
1607, 874.00
1608, 875.00
1609, 874.00
1610, 876.00
1611, 877.00
1612, 877.00
1613, 878.00
1614, 879.00
1615, 879.00
1616, 880.00
1617, 882.00
1618, 882.00
1619, 882.00
1620, 883.00
1621, 884.00
1622, 884.00
1623, 885.00
1624, 886.00
1625, 887.00
1626, 887.00
1627, 888.00
1628, 888.00
1629, 889.00
1630, 890.00
1631, 892.00
1632, 891.00
1633, 892.00
1634, 892.00
1635, 894.00
1636, 894.00
1637, 894.00
1638, 895.00
1639, 895.00
1640, 896.00
1641, 896.00
1642, 897.00
1643, 897.00
1644, 898.00
1645, 898.00
1646, 899.00
1647, 899.00
1648, 899.00
1649, 900.00
1650, 900.00

1750, 1294.00
1751, 1293.00
1752, 1295.00
1753, 1296.00
1754, 1295.00
1755, 1296.00
1756, 1294.00
1757, 1295.00
1758, 1296.00
1759, 1296.00
1760, 1295.00
1761, 1295.00
1762, 1296.00
1763, 1295.00
1764, 1294.00
1765, 1296.00
1766, 1295.00
1767, 1294.00
1768, 1295.00
1769, 1295.00
1770, 1294.00
1771, 1295.00
1772, 1293.00
1773, 1293.00
1774, 1293.00
1775, 1293.00
1776, 1295.00
1777, 1293.00
1778, 1292.00
1779, 1293.00
1780, 1295.00
1781, 1292.00
1782, 1292.00
1783, 1291.00
1784, 1292.00
1785, 1292.00
1786, 1290.00
1787, 1291.00
1788, 1291.00
1789, 1291.00
1790, 1291.00
1791, 1289.00
1792, 1291.00
1793, 1290.00
1794, 1289.00
1795, 1288.00
1796, 1289.00
1797, 1289.00
1798, 1288.00
1799, 1289.00
1800, 1289.00
1801, 1288.00
1802, 1289.00
1803, 1287.00
1804, 1288.00
1805, 1289.00
1806, 1287.00
1807, 1289.00
1808, 1289.00
1809, 1286.00
1810, 1288.00
1811, 1288.00
1812, 1285.00
1813, 1287.00
1814, 1287.00
1815, 1285.00
1816, 1284.00
1817, 1284.00
1818, 1286.00
1819, 1283.00
1820, 1285.00
1821, 1283.00
1822, 1285.00
1823, 1282.00
1824, 1282.00
1825, 1283.00
1826, 1283.00
1827, 1282.00
1828, 1281.00
1829, 1281.00
1830, 1281.00
1831, 1280.00
1832, 1280.00
1833, 1279.00
1834, 1277.00
1835, 1277.00
1836, 1277.00
1837, 1276.00
1838, 1276.00
1839, 1274.00
1840, 1274.00
1841, 1273.00
1842, 1272.00
1843, 1271.00
1844, 1269.00
1845, 1268.00
1846, 1266.00
1847, 1266.00
1848, 1265.00
1849, 1263.00
1850, 1263.00
1851, 1262.00
1852, 1261.00
1853, 1261.00
1854, 1258.00
1855, 1257.00
1856, 1256.00
1857, 1253.00
1858, 1252.00
1859, 1251.00
1860, 1252.00
1861, 1250.00
1862, 1249.00
1863, 1247.00
1864, 1247.00
1865, 1245.00
1866, 1244.00
1867, 1245.00
1868, 1243.00
1869, 1242.00
1870, 1240.00
1871, 1241.00
1872, 1237.00
1873, 1237.00
1874, 1238.00
1875, 1236.00
1876, 1238.00
1877, 1236.00
1878, 1235.00
1879, 1234.00
1880, 1234.00
1881, 1232.00
1882, 1231.00
1883, 1231.00
1884, 1233.00
1885, 1232.00
1886, 1230.00
1887, 1231.00
1888, 1231.00
1889, 1229.00
1890, 1231.00
1891, 1230.00
1892, 1228.00
1893, 1228.00
1894, 1228.00
1895, 1229.00
1896, 1228.00
1897, 1228.00
1898, 1229.00
1899, 1227.00
1900, 1228.00
1901, 1228.00
1902, 1227.00
1903, 1226.00
1904, 1227.00
1905, 1227.00
1906, 1227.00
1907, 1225.00
1908, 1223.00
1909, 1226.00
1910, 1227.00
1911, 1225.00
1912, 1226.00
1913, 1225.00
1914, 1224.00
1915, 1225.00
1916, 1225.00
1917, 1225.00
1918, 1226.00
1919, 1225.00
1920, 1225.00
1921, 1226.00
1922, 1225.00
1923, 1224.00
1924, 1225.00
1925, 1226.00
1926, 1226.00
1927, 1227.00
1928, 1226.00
1929, 1226.00
1930, 1224.00
1931, 1225.00
1932, 1227.00
1933, 1225.00
1934, 1227.00
1935, 1226.00
1936, 1227.00
1937, 1227.00
1938, 1226.00
1939, 1227.00
1940, 1226.00
1941, 1227.00
1942, 1227.00
1943, 1227.00
1944, 1226.00
1945, 1228.00
1946, 1228.00
1947, 1227.00
1948, 1229.00
1949, 1227.00
1950, 1230.00
1951, 1228.00
1952, 1230.00
1953, 1229.00
1954, 1229.00
1955, 1229.00
1956, 1230.00
1957, 1231.00
1958, 1232.00
1959, 1232.00
1960, 1233.00
1961, 1231.00
1962, 1232.00
1963, 1232.00
1964, 1232.00
1965, 1232.00
1966, 1233.00
1967, 1233.00
1968, 1234.00
1969, 1232.00
1970, 1235.00
1971, 1234.00
1972, 1236.00
1973, 1234.00
1974, 1237.00
1975, 1237.00
1976, 1237.00
1977, 1237.00
1978, 1238.00
1979, 1238.00
1980, 1238.00
1981, 1239.00
1982, 1240.00
1983, 1239.00
1984, 1240.00
1985, 1240.00
1986, 1242.00
1987, 1241.00
1988, 1241.00
1989, 1240.00
1990, 1241.00
1991, 1241.00
1992, 1243.00
1993, 1243.00
1994, 1243.00
1995, 1242.00
1996, 1245.00
1997, 1243.00
1998, 1246.00
1999, 1244.00
2000, 1246.00
2001, 1245.00
2002, 1245.00
2003, 1248.00
2004, 1246.00
2005, 1246.00
2006, 1248.00
2007, 1248.00
2008, 1249.00
2009, 1250.00
2010, 1248.00
2011, 1249.00
2012, 1250.00
2013, 1250.00
2014, 1249.00
2015, 1251.00
2016, 1250.00
2017, 1251.00
2018, 1252.00
2019, 1254.00
2020, 1252.00
2021, 1253.00
2022, 1252.00
2023, 1253.00
2024, 1254.00
2025, 1253.00
2026, 1254.00
2027, 1255.00
2028, 1254.00
2029, 1256.00
2030, 1254.00
2031, 1257.00
2032, 1258.00
2033, 1256.00
2034, 1258.00
2035, 1256.00
2036, 1259.00
2037, 1259.00
2038, 1260.00
2039, 1259.00
2040, 1260.00
2041, 1261.00
2042, 1262.00
2043, 1260.00
2044, 1262.00
2045, 1263.00
2046, 1262.00
2047, 1263.00
2048, 1263.00
2049, 1266.00
2050, 1264.00
2051, 1265.00
2052, 1265.00
2053, 1266.00
2054, 1268.00
2055, 1267.00
2056, 1269.00
2057, 1270.00
2058, 1268.00
2059, 1269.00
2060, 1271.00
2061, 1272.00
2062, 1272.00
2063, 1272.00
2064, 1273.00
2065, 1273.00
2066, 1275.00
2067, 1273.00
2068, 1276.00
2069, 1274.00
2070, 1276.00
2071, 1275.00
2072, 1277.00
2073, 1277.00
2074, 1277.00
2075, 1277.00
2076, 1278.00
2077, 1281.00
2078, 1280.00
2079, 1279.00
2080, 1280.00
2081, 1280.00
2082, 1280.00
2083, 1281.00
2084, 1283.00
2085, 1283.00
2086, 1283.00
2087, 1282.00
2088, 1286.00
2089, 1285.00
2090, 1285.00
2091, 1284.00
2092, 1285.00
2093, 1286.00
2094, 1286.00
2095, 1285.00
2096, 1284.00
2097, 1287.00
2098, 1288.00
2099, 1286.00
2100, 1287.00
2101, 1288.00
2102, 1288.00
2103, 1289.00
2104, 1290.00
2105, 1288.00
2106, 1288.00
2107, 1289.00
2108, 1291.00
2109, 1290.00
2110, 1289.00
2111, 1291.00
2112, 1290.00
2113, 1288.00
2114, 1291.00
2115, 1290.00
2116, 1291.00
2117, 1292.00
2118, 1292.00
2119, 1292.00
2120, 1291.00
2121, 1291.00
2122, 1292.00
2123, 1293.00
2124, 1293.00
2125, 1291.00
2126, 1292.00
2127, 1293.00
2128, 1292.00
2129, 1293.00
2130, 1294.00
2131, 1295.00
2132, 1295.00
2133, 1294.00
2134, 1295.00
2135, 1293.00
2136, 1294.00
2137, 1294.00
2138, 1295.00
2139, 1293.00
2140, 1296.00
2141, 1296.00
2142, 1294.00
2143, 1295.00
2144, 1296.00
2145, 1296.00
2146, 1297.00
2147, 1297.00
2148, 1295.00
2149, 1297.00
2150, 1298.00
