FW version: 24
Log Version: 3.0.3

General Info:
       Command/Macro Performed,            Timestamp,             Device ID, COM Port, UART/I2C, Test Name, Host Major, Host Minor, Host Revision, Host Git Commit
            Single_measurement,  2023_06_29_11_54_39,       Insight2_F4_xxx,    USB-C,      USB,          ,          0,          1,             1,      4031237645

Show Spectrometer Status:
l0_version, f4_version, battery_perc, battery_mVolt, accelerometer_temp, accelerometer_x, accelerometer_y, accelerometer_z, compass_temp, compass_x, compass_y, compass_z, lamp_0, lamp_1, gain_0, gain_1
        17,         24,           95,          2078,               5856,              60,           65308,           18476,            0,     65340,     65404,     65533,   2047,   2047,      1,      1

Temperature Statistic Info:
NTC AVG [°C], NTC2 AVG [°C]
      37.755,        37.411

Statistic Info:
M1:  num,      min,      max,   median,      AVG,      STD,M2:  num,      min,      max,   median,      AVG,      STD
     301,   785.00,   901.00,   813.00,   825.03,  36.8937,     401,  1224.00,  1298.00,  1264.00,  1262.69,  25.6487,

Measurements:
Wavelength, Data Amplitude
1350, 797.00
1351, 797.00
1352, 796.00
1353, 796.00
1354, 795.00
1355, 796.00
1356, 796.00
1357, 796.00
1358, 795.00
1359, 795.00
1360, 796.00
1361, 794.00
1362, 795.00
1363, 795.00
1364, 793.00
1365, 794.00
1366, 794.00
1367, 793.00
1368, 793.00
1369, 792.00
1370, 792.00
1371, 792.00
1372, 791.00
1373, 791.00
1374, 791.00
1375, 789.00
1376, 790.00
1377, 789.00
1378, 789.00
1379, 789.00
1380, 789.00
1381, 788.00
1382, 789.00
1383, 787.00
1384, 788.00
1385, 787.00
1386, 787.00
1387, 786.00
1388, 787.00
1389, 787.00
1390, 788.00
1391, 786.00
1392, 786.00
1393, 786.00
1394, 786.00
1395, 786.00
1396, 785.00
1397, 787.00
1398, 787.00
1399, 785.00
1400, 786.00
1401, 787.00
1402, 786.00
1403, 785.00
1404, 786.00
1405, 785.00
1406, 786.00
1407, 786.00
1408, 787.00
1409, 786.00
1410, 786.00
1411, 786.00
1412, 786.00
1413, 785.00
1414, 785.00
1415, 786.00
1416, 785.00
1417, 787.00
1418, 786.00
1419, 786.00
1420, 786.00
1421, 786.00
1422, 787.00
1423, 786.00
1424, 787.00
1425, 787.00
1426, 787.00
1427, 787.00
1428, 787.00
1429, 786.00
1430, 787.00
1431, 787.00
1432, 789.00
1433, 788.00
1434, 788.00
1435, 789.00
1436, 789.00
1437, 789.00
1438, 788.00
1439, 790.00
1440, 789.00
1441, 789.00
1442, 790.00
1443, 790.00
1444, 790.00
1445, 790.00
1446, 792.00
1447, 791.00
1448, 791.00
1449, 792.00
1450, 792.00
1451, 792.00
1452, 792.00
1453, 793.00
1454, 793.00
1455, 794.00
1456, 794.00
1457, 795.00
1458, 795.00
1459, 794.00
1460, 796.00
1461, 795.00
1462, 796.00
1463, 797.00
1464, 797.00
1465, 797.00
1466, 797.00
1467, 797.00
1468, 799.00
1469, 798.00
1470, 800.00
1471, 799.00
1472, 800.00
1473, 801.00
1474, 801.00
1475, 801.00
1476, 801.00
1477, 802.00
1478, 803.00
1479, 804.00
1480, 804.00
1481, 805.00
1482, 805.00
1483, 805.00
1484, 806.00
1485, 806.00
1486, 807.00
1487, 807.00
1488, 807.00
1489, 808.00
1490, 809.00
1491, 809.00
1492, 810.00
1493, 810.00
1494, 811.00
1495, 812.00
1496, 812.00
1497, 813.00
1498, 813.00
1499, 813.00
1500, 813.00
1501, 815.00
1502, 814.00
1503, 815.00
1504, 816.00
1505, 817.00
1506, 816.00
1507, 818.00
1508, 818.00
1509, 818.00
1510, 819.00
1511, 819.00
1512, 821.00
1513, 821.00
1514, 822.00
1515, 822.00
1516, 822.00
1517, 824.00
1518, 824.00
1519, 825.00
1520, 825.00
1521, 826.00
1522, 825.00
1523, 827.00
1524, 827.00
1525, 827.00
1526, 827.00
1527, 829.00
1528, 829.00
1529, 830.00
1530, 830.00
1531, 832.00
1532, 831.00
1533, 832.00
1534, 832.00
1535, 833.00
1536, 833.00
1537, 835.00
1538, 835.00
1539, 836.00
1540, 836.00
1541, 837.00
1542, 837.00
1543, 837.00
1544, 838.00
1545, 838.00
1546, 839.00
1547, 840.00
1548, 840.00
1549, 841.00
1550, 842.00
1551, 842.00
1552, 843.00
1553, 844.00
1554, 844.00
1555, 844.00
1556, 843.00
1557, 846.00
1558, 846.00
1559, 846.00
1560, 848.00
1561, 847.00
1562, 848.00
1563, 849.00
1564, 850.00
1565, 850.00
1566, 851.00
1567, 851.00
1568, 852.00
1569, 852.00
1570, 853.00
1571, 854.00
1572, 854.00
1573, 854.00
1574, 855.00
1575, 856.00
1576, 856.00
1577, 858.00
1578, 858.00
1579, 859.00
1580, 859.00
1581, 859.00
1582, 859.00
1583, 860.00
1584, 861.00
1585, 862.00
1586, 862.00
1587, 862.00
1588, 863.00
1589, 864.00
1590, 864.00
1591, 866.00
1592, 865.00
1593, 867.00
1594, 867.00
1595, 867.00
1596, 868.00
1597, 868.00
1598, 868.00
1599, 869.00
1600, 871.00
1601, 870.00
1602, 870.00
1603, 871.00
1604, 872.00
1605, 873.00
1606, 874.00
1607, 874.00
1608, 875.00
1609, 876.00
1610, 876.00
1611, 877.00
1612, 877.00
1613, 877.00
1614, 879.00
1615, 880.00
1616, 881.00
1617, 881.00
1618, 883.00
1619, 883.00
1620, 884.00
1621, 885.00
1622, 885.00
1623, 886.00
1624, 887.00
1625, 887.00
1626, 889.00
1627, 888.00
1628, 890.00
1629, 891.00
1630, 891.00
1631, 891.00
1632, 892.00
1633, 892.00
1634, 893.00
1635, 892.00
1636, 893.00
1637, 894.00
1638, 894.00
1639, 895.00
1640, 895.00
1641, 896.00
1642, 897.00
1643, 897.00
1644, 898.00
1645, 899.00
1646, 899.00
1647, 898.00
1648, 899.00
1649, 900.00
1650, 901.00

1750, 1294.00
1751, 1294.00
1752, 1295.00
1753, 1295.00
1754, 1296.00
1755, 1295.00
1756, 1296.00
1757, 1295.00
1758, 1296.00
1759, 1295.00
1760, 1294.00
1761, 1293.00
1762, 1295.00
1763, 1296.00
1764, 1295.00
1765, 1294.00
1766, 1296.00
1767, 1295.00
1768, 1295.00
1769, 1295.00
1770, 1296.00
1771, 1294.00
1772, 1295.00
1773, 1294.00
1774, 1295.00
1775, 1294.00
1776, 1295.00
1777, 1293.00
1778, 1294.00
1779, 1292.00
1780, 1293.00
1781, 1292.00
1782, 1293.00
1783, 1292.00
1784, 1293.00
1785, 1293.00
1786, 1290.00
1787, 1291.00
1788, 1289.00
1789, 1289.00
1790, 1291.00
1791, 1292.00
1792, 1290.00
1793, 1292.00
1794, 1289.00
1795, 1290.00
1796, 1288.00
1797, 1290.00
1798, 1288.00
1799, 1289.00
1800, 1289.00
1801, 1288.00
1802, 1287.00
1803, 1288.00
1804, 1287.00
1805, 1288.00
1806, 1288.00
1807, 1288.00
1808, 1288.00
1809, 1285.00
1810, 1287.00
1811, 1287.00
1812, 1286.00
1813, 1286.00
1814, 1285.00
1815, 1287.00
1816, 1285.00
1817, 1287.00
1818, 1285.00
1819, 1285.00
1820, 1282.00
1821, 1285.00
1822, 1285.00
1823, 1285.00
1824, 1284.00
1825, 1285.00
1826, 1283.00
1827, 1284.00
1828, 1283.00
1829, 1279.00
1830, 1281.00
1831, 1280.00
1832, 1278.00
1833, 1280.00
1834, 1277.00
1835, 1277.00
1836, 1275.00
1837, 1276.00
1838, 1273.00
1839, 1274.00
1840, 1275.00
1841, 1272.00
1842, 1272.00
1843, 1271.00
1844, 1269.00
1845, 1269.00
1846, 1269.00
1847, 1267.00
1848, 1266.00
1849, 1264.00
1850, 1263.00
1851, 1261.00
1852, 1262.00
1853, 1259.00
1854, 1258.00
1855, 1258.00
1856, 1256.00
1857, 1254.00
1858, 1253.00
1859, 1253.00
1860, 1251.00
1861, 1249.00
1862, 1247.00
1863, 1246.00
1864, 1247.00
1865, 1244.00
1866, 1247.00
1867, 1243.00
1868, 1243.00
1869, 1240.00
1870, 1240.00
1871, 1238.00
1872, 1240.00
1873, 1239.00
1874, 1239.00
1875, 1235.00
1876, 1236.00
1877, 1234.00
1878, 1236.00
1879, 1235.00
1880, 1234.00
1881, 1234.00
1882, 1234.00
1883, 1231.00
1884, 1233.00
1885, 1230.00
1886, 1233.00
1887, 1230.00
1888, 1232.00
1889, 1229.00
1890, 1228.00
1891, 1229.00
1892, 1229.00
1893, 1231.00
1894, 1226.00
1895, 1228.00
1896, 1229.00
1897, 1227.00
1898, 1229.00
1899, 1228.00
1900, 1228.00
1901, 1227.00
1902, 1228.00
1903, 1229.00
1904, 1226.00
1905, 1227.00
1906, 1226.00
1907, 1225.00
1908, 1227.00
1909, 1225.00
1910, 1226.00
1911, 1228.00
1912, 1225.00
1913, 1225.00
1914, 1225.00
1915, 1226.00
1916, 1226.00
1917, 1226.00
1918, 1226.00
1919, 1225.00
1920, 1226.00
1921, 1226.00
1922, 1225.00
1923, 1224.00
1924, 1226.00
1925, 1225.00
1926, 1227.00
1927, 1226.00
1928, 1226.00
1929, 1225.00
1930, 1227.00
1931, 1226.00
1932, 1226.00
1933, 1226.00
1934, 1225.00
1935, 1227.00
1936, 1227.00
1937, 1226.00
1938, 1225.00
1939, 1228.00
1940, 1226.00
1941, 1226.00
1942, 1227.00
1943, 1225.00
1944, 1227.00
1945, 1228.00
1946, 1227.00
1947, 1228.00
1948, 1230.00
1949, 1228.00
1950, 1229.00
1951, 1229.00
1952, 1229.00
1953, 1231.00
1954, 1229.00
1955, 1229.00
1956, 1230.00
1957, 1228.00
1958, 1230.00
1959, 1230.00
1960, 1230.00
1961, 1230.00
1962, 1233.00
1963, 1232.00
1964, 1234.00
1965, 1232.00
1966, 1235.00
1967, 1233.00
1968, 1233.00
1969, 1234.00
1970, 1234.00
1971, 1236.00
1972, 1236.00
1973, 1235.00
1974, 1235.00
1975, 1236.00
1976, 1236.00
1977, 1237.00
1978, 1237.00
1979, 1238.00
1980, 1237.00
1981, 1238.00
1982, 1238.00
1983, 1240.00
1984, 1239.00
1985, 1239.00
1986, 1241.00
1987, 1241.00
1988, 1240.00
1989, 1242.00
1990, 1241.00
1991, 1242.00
1992, 1243.00
1993, 1243.00
1994, 1243.00
1995, 1243.00
1996, 1244.00
1997, 1245.00
1998, 1245.00
1999, 1245.00
2000, 1247.00
2001, 1245.00
2002, 1247.00
2003, 1247.00
2004, 1246.00
2005, 1247.00
2006, 1247.00
2007, 1249.00
2008, 1249.00
2009, 1251.00
2010, 1249.00
2011, 1249.00
2012, 1250.00
2013, 1249.00
2014, 1249.00
2015, 1249.00
2016, 1252.00
2017, 1252.00
2018, 1252.00
2019, 1253.00
2020, 1252.00
2021, 1255.00
2022, 1254.00
2023, 1254.00
2024, 1254.00
2025, 1253.00
2026, 1255.00
2027, 1255.00
2028, 1257.00
2029, 1255.00
2030, 1256.00
2031, 1257.00
2032, 1256.00
2033, 1258.00
2034, 1259.00
2035, 1258.00
2036, 1258.00
2037, 1259.00
2038, 1260.00
2039, 1259.00
2040, 1260.00
2041, 1262.00
2042, 1261.00
2043, 1261.00
2044, 1262.00
2045, 1262.00
2046, 1263.00
2047, 1263.00
2048, 1263.00
2049, 1266.00
2050, 1265.00
2051, 1264.00
2052, 1266.00
2053, 1267.00
2054, 1265.00
2055, 1268.00
2056, 1267.00
2057, 1269.00
2058, 1269.00
2059, 1269.00
2060, 1270.00
2061, 1270.00
2062, 1271.00
2063, 1271.00
2064, 1272.00
2065, 1273.00
2066, 1273.00
2067, 1275.00
2068, 1275.00
2069, 1275.00
2070, 1275.00
2071, 1277.00
2072, 1277.00
2073, 1277.00
2074, 1277.00
2075, 1278.00
2076, 1278.00
2077, 1280.00
2078, 1278.00
2079, 1279.00
2080, 1281.00
2081, 1280.00
2082, 1282.00
2083, 1281.00
2084, 1281.00
2085, 1282.00
2086, 1283.00
2087, 1284.00
2088, 1283.00
2089, 1284.00
2090, 1284.00
2091, 1286.00
2092, 1284.00
2093, 1286.00
2094, 1286.00
2095, 1286.00
2096, 1285.00
2097, 1289.00
2098, 1287.00
2099, 1287.00
2100, 1287.00
2101, 1288.00
2102, 1288.00
2103, 1288.00
2104, 1289.00
2105, 1291.00
2106, 1291.00
2107, 1288.00
2108, 1290.00
2109, 1290.00
2110, 1290.00
2111, 1290.00
2112, 1290.00
2113, 1291.00
2114, 1288.00
2115, 1292.00
2116, 1292.00
2117, 1291.00
2118, 1290.00
2119, 1291.00
2120, 1292.00
2121, 1291.00
2122, 1292.00
2123, 1293.00
2124, 1293.00
2125, 1293.00
2126, 1293.00
2127, 1292.00
2128, 1293.00
2129, 1296.00
2130, 1294.00
2131, 1294.00
2132, 1295.00
2133, 1297.00
2134, 1295.00
2135, 1296.00
2136, 1294.00
2137, 1295.00
2138, 1294.00
2139, 1295.00
2140, 1297.00
2141, 1297.00
2142, 1296.00
2143, 1295.00
2144, 1295.00
2145, 1298.00
2146, 1295.00
2147, 1297.00
2148, 1298.00
2149, 1297.00
2150, 1296.00
