FW version: 24
Log Version: 3.0.3

General Info:
       Command/Macro Performed,            Timestamp,             Device ID, COM Port, UART/I2C, Test Name, Host Major, Host Minor, Host Revision, Host Git Commit
            Single_measurement,  2023_06_30_12_28_37,       Insight2_F4_xxx,    USB-C,      USB,          ,          0,          1,             1,      4031237645

Show Spectrometer Status:
l0_version, f4_version, battery_perc, battery_mVolt, accelerometer_temp, accelerometer_x, accelerometer_y, accelerometer_z, compass_temp, compass_x, compass_y, compass_z, lamp_0, lamp_1, gain_0, gain_1
        17,         24,           95,          2079,               5808,           65248,              68,           18384,            0,     65520,     65359,     65501,   2457,   2457,      1,      1

Temperature Statistic Info:
NTC AVG [°C], NTC2 AVG [°C]
      37.812,        37.583

Statistic Info:
M1:  num,      min,      max,   median,      AVG,      STD,M2:  num,      min,      max,   median,      AVG,      STD
     301,  1206.00,  1375.00,  1245.00,  1262.03,  53.0264,     401,  1777.00,  1878.00,  1833.00,  1830.07,  35.2925,

Measurements:
Wavelength, Data Amplitude
1350, 1221.00
1351, 1220.00
1352, 1220.00
1353, 1221.00
1354, 1220.00
1355, 1220.00
1356, 1221.00
1357, 1221.00
1358, 1220.00
1359, 1219.00
1360, 1219.00
1361, 1219.00
1362, 1219.00
1363, 1217.00
1364, 1217.00
1365, 1218.00
1366, 1217.00
1367, 1217.00
1368, 1216.00
1369, 1216.00
1370, 1216.00
1371, 1215.00
1372, 1214.00
1373, 1213.00
1374, 1214.00
1375, 1213.00
1376, 1212.00
1377, 1211.00
1378, 1211.00
1379, 1211.00
1380, 1211.00
1381, 1211.00
1382, 1209.00
1383, 1210.00
1384, 1210.00
1385, 1210.00
1386, 1208.00
1387, 1209.00
1388, 1209.00
1389, 1209.00
1390, 1208.00
1391, 1209.00
1392, 1208.00
1393, 1208.00
1394, 1207.00
1395, 1208.00
1396, 1206.00
1397, 1208.00
1398, 1207.00
1399, 1207.00
1400, 1206.00
1401, 1206.00
1402, 1206.00
1403, 1206.00
1404, 1207.00
1405, 1206.00
1406, 1206.00
1407, 1206.00
1408, 1207.00
1409, 1206.00
1410, 1207.00
1411, 1207.00
1412, 1207.00
1413, 1207.00
1414, 1206.00
1415, 1207.00
1416, 1207.00
1417, 1207.00
1418, 1206.00
1419, 1206.00
1420, 1207.00
1421, 1207.00
1422, 1206.00
1423, 1208.00
1424, 1207.00
1425, 1208.00
1426, 1208.00
1427, 1208.00
1428, 1208.00
1429, 1208.00
1430, 1209.00
1431, 1208.00
1432, 1210.00
1433, 1209.00
1434, 1209.00
1435, 1210.00
1436, 1209.00
1437, 1210.00
1438, 1211.00
1439, 1211.00
1440, 1211.00
1441, 1212.00
1442, 1214.00
1443, 1213.00
1444, 1213.00
1445, 1212.00
1446, 1214.00
1447, 1213.00
1448, 1214.00
1449, 1215.00
1450, 1215.00
1451, 1216.00
1452, 1216.00
1453, 1217.00
1454, 1217.00
1455, 1218.00
1456, 1218.00
1457, 1218.00
1458, 1218.00
1459, 1219.00
1460, 1219.00
1461, 1220.00
1462, 1220.00
1463, 1221.00
1464, 1221.00
1465, 1222.00
1466, 1223.00
1467, 1223.00
1468, 1224.00
1469, 1224.00
1470, 1225.00
1471, 1225.00
1472, 1226.00
1473, 1227.00
1474, 1228.00
1475, 1227.00
1476, 1229.00
1477, 1229.00
1478, 1230.00
1479, 1231.00
1480, 1231.00
1481, 1232.00
1482, 1232.00
1483, 1233.00
1484, 1234.00
1485, 1235.00
1486, 1236.00
1487, 1236.00
1488, 1237.00
1489, 1237.00
1490, 1239.00
1491, 1239.00
1492, 1240.00
1493, 1241.00
1494, 1241.00
1495, 1242.00
1496, 1243.00
1497, 1244.00
1498, 1244.00
1499, 1244.00
1500, 1246.00
1501, 1245.00
1502, 1246.00
1503, 1247.00
1504, 1248.00
1505, 1250.00
1506, 1249.00
1507, 1251.00
1508, 1251.00
1509, 1252.00
1510, 1252.00
1511, 1252.00
1512, 1253.00
1513, 1254.00
1514, 1255.00
1515, 1256.00
1516, 1257.00
1517, 1258.00
1518, 1259.00
1519, 1259.00
1520, 1259.00
1521, 1261.00
1522, 1261.00
1523, 1262.00
1524, 1263.00
1525, 1264.00
1526, 1265.00
1527, 1266.00
1528, 1265.00
1529, 1267.00
1530, 1269.00
1531, 1270.00
1532, 1270.00
1533, 1271.00
1534, 1272.00
1535, 1271.00
1536, 1273.00
1537, 1273.00
1538, 1274.00
1539, 1275.00
1540, 1276.00
1541, 1277.00
1542, 1277.00
1543, 1279.00
1544, 1280.00
1545, 1281.00
1546, 1281.00
1547, 1282.00
1548, 1282.00
1549, 1282.00
1550, 1283.00
1551, 1284.00
1552, 1285.00
1553, 1286.00
1554, 1287.00
1555, 1288.00
1556, 1289.00
1557, 1290.00
1558, 1289.00
1559, 1291.00
1560, 1292.00
1561, 1293.00
1562, 1294.00
1563, 1294.00
1564, 1296.00
1565, 1297.00
1566, 1296.00
1567, 1299.00
1568, 1300.00
1569, 1300.00
1570, 1302.00
1571, 1302.00
1572, 1303.00
1573, 1304.00
1574, 1304.00
1575, 1305.00
1576, 1307.00
1577, 1308.00
1578, 1308.00
1579, 1309.00
1580, 1310.00
1581, 1310.00
1582, 1311.00
1583, 1312.00
1584, 1314.00
1585, 1315.00
1586, 1315.00
1587, 1316.00
1588, 1316.00
1589, 1317.00
1590, 1317.00
1591, 1319.00
1592, 1320.00
1593, 1320.00
1594, 1321.00
1595, 1323.00
1596, 1323.00
1597, 1324.00
1598, 1325.00
1599, 1326.00
1600, 1326.00
1601, 1327.00
1602, 1328.00
1603, 1328.00
1604, 1329.00
1605, 1331.00
1606, 1331.00
1607, 1333.00
1608, 1334.00
1609, 1335.00
1610, 1335.00
1611, 1336.00
1612, 1337.00
1613, 1340.00
1614, 1339.00
1615, 1341.00
1616, 1342.00
1617, 1343.00
1618, 1344.00
1619, 1345.00
1620, 1346.00
1621, 1346.00
1622, 1348.00
1623, 1350.00
1624, 1350.00
1625, 1351.00
1626, 1354.00
1627, 1354.00
1628, 1355.00
1629, 1356.00
1630, 1357.00
1631, 1358.00
1632, 1358.00
1633, 1360.00
1634, 1362.00
1635, 1362.00
1636, 1363.00
1637, 1364.00
1638, 1365.00
1639, 1365.00
1640, 1367.00
1641, 1367.00
1642, 1369.00
1643, 1369.00
1644, 1370.00
1645, 1371.00
1646, 1371.00
1647, 1372.00
1648, 1374.00
1649, 1374.00
1650, 1375.00

1750, 1874.00
1751, 1876.00
1752, 1877.00
1753, 1876.00
1754, 1874.00
1755, 1875.00
1756, 1876.00
1757, 1878.00
1758, 1877.00
1759, 1876.00
1760, 1876.00
1761, 1875.00
1762, 1875.00
1763, 1877.00
1764, 1877.00
1765, 1874.00
1766, 1875.00
1767, 1875.00
1768, 1874.00
1769, 1876.00
1770, 1876.00
1771, 1874.00
1772, 1873.00
1773, 1873.00
1774, 1873.00
1775, 1874.00
1776, 1873.00
1777, 1873.00
1778, 1872.00
1779, 1869.00
1780, 1873.00
1781, 1871.00
1782, 1871.00
1783, 1870.00
1784, 1872.00
1785, 1869.00
1786, 1868.00
1787, 1870.00
1788, 1867.00
1789, 1869.00
1790, 1869.00
1791, 1868.00
1792, 1869.00
1793, 1868.00
1794, 1868.00
1795, 1867.00
1796, 1869.00
1797, 1866.00
1798, 1865.00
1799, 1866.00
1800, 1865.00
1801, 1866.00
1802, 1866.00
1803, 1864.00
1804, 1864.00
1805, 1863.00
1806, 1864.00
1807, 1865.00
1808, 1864.00
1809, 1863.00
1810, 1863.00
1811, 1863.00
1812, 1863.00
1813, 1863.00
1814, 1864.00
1815, 1862.00
1816, 1863.00
1817, 1862.00
1818, 1861.00
1819, 1860.00
1820, 1860.00
1821, 1860.00
1822, 1861.00
1823, 1859.00
1824, 1859.00
1825, 1859.00
1826, 1857.00
1827, 1858.00
1828, 1858.00
1829, 1855.00
1830, 1854.00
1831, 1853.00
1832, 1855.00
1833, 1851.00
1834, 1852.00
1835, 1853.00
1836, 1849.00
1837, 1848.00
1838, 1846.00
1839, 1847.00
1840, 1844.00
1841, 1844.00
1842, 1841.00
1843, 1842.00
1844, 1841.00
1845, 1838.00
1846, 1837.00
1847, 1833.00
1848, 1833.00
1849, 1832.00
1850, 1829.00
1851, 1830.00
1852, 1828.00
1853, 1825.00
1854, 1825.00
1855, 1822.00
1856, 1821.00
1857, 1821.00
1858, 1815.00
1859, 1815.00
1860, 1813.00
1861, 1810.00
1862, 1812.00
1863, 1810.00
1864, 1808.00
1865, 1806.00
1866, 1804.00
1867, 1804.00
1868, 1803.00
1869, 1802.00
1870, 1799.00
1871, 1798.00
1872, 1798.00
1873, 1796.00
1874, 1797.00
1875, 1794.00
1876, 1793.00
1877, 1793.00
1878, 1791.00
1879, 1791.00
1880, 1788.00
1881, 1789.00
1882, 1788.00
1883, 1787.00
1884, 1787.00
1885, 1787.00
1886, 1784.00
1887, 1787.00
1888, 1785.00
1889, 1785.00
1890, 1784.00
1891, 1785.00
1892, 1784.00
1893, 1783.00
1894, 1783.00
1895, 1781.00
1896, 1781.00
1897, 1782.00
1898, 1781.00
1899, 1782.00
1900, 1781.00
1901, 1780.00
1902, 1781.00
1903, 1781.00
1904, 1781.00
1905, 1781.00
1906, 1779.00
1907, 1780.00
1908, 1779.00
1909, 1781.00
1910, 1779.00
1911, 1778.00
1912, 1779.00
1913, 1779.00
1914, 1781.00
1915, 1777.00
1916, 1778.00
1917, 1780.00
1918, 1779.00
1919, 1779.00
1920, 1779.00
1921, 1777.00
1922, 1778.00
1923, 1778.00
1924, 1778.00
1925, 1779.00
1926, 1778.00
1927, 1779.00
1928, 1777.00
1929, 1779.00
1930, 1779.00
1931, 1779.00
1932, 1778.00
1933, 1779.00
1934, 1781.00
1935, 1778.00
1936, 1779.00
1937, 1779.00
1938, 1779.00
1939, 1781.00
1940, 1781.00
1941, 1781.00
1942, 1781.00
1943, 1782.00
1944, 1781.00
1945, 1782.00
1946, 1783.00
1947, 1782.00
1948, 1783.00
1949, 1782.00
1950, 1784.00
1951, 1784.00
1952, 1784.00
1953, 1785.00
1954, 1784.00
1955, 1784.00
1956, 1784.00
1957, 1786.00
1958, 1786.00
1959, 1788.00
1960, 1786.00
1961, 1787.00
1962, 1785.00
1963, 1788.00
1964, 1787.00
1965, 1789.00
1966, 1790.00
1967, 1791.00
1968, 1792.00
1969, 1791.00
1970, 1791.00
1971, 1791.00
1972, 1791.00
1973, 1793.00
1974, 1794.00
1975, 1794.00
1976, 1795.00
1977, 1795.00
1978, 1795.00
1979, 1797.00
1980, 1796.00
1981, 1799.00
1982, 1798.00
1983, 1797.00
1984, 1797.00
1985, 1800.00
1986, 1799.00
1987, 1800.00
1988, 1800.00
1989, 1801.00
1990, 1801.00
1991, 1802.00
1992, 1802.00
1993, 1803.00
1994, 1804.00
1995, 1804.00
1996, 1804.00
1997, 1805.00
1998, 1806.00
1999, 1806.00
2000, 1808.00
2001, 1806.00
2002, 1808.00
2003, 1809.00
2004, 1808.00
2005, 1809.00
2006, 1810.00
2007, 1811.00
2008, 1811.00
2009, 1811.00
2010, 1809.00
2011, 1812.00
2012, 1813.00
2013, 1813.00
2014, 1814.00
2015, 1814.00
2016, 1815.00
2017, 1814.00
2018, 1817.00
2019, 1818.00
2020, 1815.00
2021, 1817.00
2022, 1817.00
2023, 1818.00
2024, 1817.00
2025, 1818.00
2026, 1819.00
2027, 1818.00
2028, 1821.00
2029, 1821.00
2030, 1823.00
2031, 1821.00
2032, 1823.00
2033, 1822.00
2034, 1824.00
2035, 1825.00
2036, 1825.00
2037, 1827.00
2038, 1825.00
2039, 1827.00
2040, 1826.00
2041, 1828.00
2042, 1829.00
2043, 1829.00
2044, 1829.00
2045, 1831.00
2046, 1831.00
2047, 1832.00
2048, 1834.00
2049, 1832.00
2050, 1834.00
2051, 1833.00
2052, 1835.00
2053, 1835.00
2054, 1836.00
2055, 1838.00
2056, 1839.00
2057, 1839.00
2058, 1841.00
2059, 1840.00
2060, 1841.00
2061, 1843.00
2062, 1843.00
2063, 1844.00
2064, 1842.00
2065, 1845.00
2066, 1844.00
2067, 1846.00
2068, 1845.00
2069, 1847.00
2070, 1849.00
2071, 1849.00
2072, 1851.00
2073, 1849.00
2074, 1850.00
2075, 1852.00
2076, 1852.00
2077, 1854.00
2078, 1853.00
2079, 1853.00
2080, 1853.00
2081, 1855.00
2082, 1858.00
2083, 1857.00
2084, 1857.00
2085, 1857.00
2086, 1858.00
2087, 1858.00
2088, 1858.00
2089, 1860.00
2090, 1861.00
2091, 1860.00
2092, 1861.00
2093, 1862.00
2094, 1862.00
2095, 1864.00
2096, 1863.00
2097, 1864.00
2098, 1863.00
2099, 1863.00
2100, 1865.00
2101, 1866.00
2102, 1865.00
2103, 1866.00
2104, 1867.00
2105, 1866.00
2106, 1866.00
2107, 1869.00
2108, 1866.00
2109, 1867.00
2110, 1866.00
2111, 1868.00
2112, 1868.00
2113, 1869.00
2114, 1868.00
2115, 1869.00
2116, 1870.00
2117, 1868.00
2118, 1870.00
2119, 1869.00
2120, 1870.00
2121, 1869.00
2122, 1871.00
2123, 1871.00
2124, 1870.00
2125, 1872.00
2126, 1871.00
2127, 1873.00
2128, 1872.00
2129, 1870.00
2130, 1871.00
2131, 1873.00
2132, 1872.00
2133, 1871.00
2134, 1872.00
2135, 1873.00
2136, 1873.00
2137, 1873.00
2138, 1873.00
2139, 1873.00
2140, 1874.00
2141, 1874.00
2142, 1873.00
2143, 1874.00
2144, 1874.00
2145, 1875.00
2146, 1875.00
2147, 1875.00
2148, 1874.00
2149, 1876.00
2150, 1873.00
