FW version: 24
Log Version: 3.0.3

General Info:
       Command/Macro Performed,            Timestamp,             Device ID, COM Port, UART/I2C, Test Name, Host Major, Host Minor, Host Revision, Host Git Commit
            Single_measurement,  2023_06_30_12_28_48,       Insight2_F4_xxx,    USB-C,      USB,          ,          0,          1,             1,      4031237645

Show Spectrometer Status:
l0_version, f4_version, battery_perc, battery_mVolt, accelerometer_temp, accelerometer_x, accelerometer_y, accelerometer_z, compass_temp, compass_x, compass_y, compass_z, lamp_0, lamp_1, gain_0, gain_1
        17,         24,           95,          2079,               5808,           65236,              72,           18496,            0,     65524,     65359,     65479,   2866,   2866,      1,      1

Temperature Statistic Info:
NTC AVG [°C], NTC2 AVG [°C]
      37.897,        37.583

Statistic Info:
M1:  num,      min,      max,   median,      AVG,      STD,M2:  num,      min,      max,   median,      AVG,      STD
     301,  1624.00,  1843.00,  1675.00,  1696.86,  68.2016,     401,  2297.00,  2426.00,  2368.00,  2364.30,  44.9507,

Measurements:
Wavelength, Data Amplitude
1350, 1647.00
1351, 1647.00
1352, 1647.00
1353, 1646.00
1354, 1646.00
1355, 1645.00
1356, 1647.00
1357, 1645.00
1358, 1646.00
1359, 1645.00
1360, 1643.00
1361, 1643.00
1362, 1643.00
1363, 1642.00
1364, 1641.00
1365, 1641.00
1366, 1642.00
1367, 1641.00
1368, 1639.00
1369, 1639.00
1370, 1638.00
1371, 1638.00
1372, 1637.00
1373, 1636.00
1374, 1636.00
1375, 1635.00
1376, 1634.00
1377, 1633.00
1378, 1632.00
1379, 1632.00
1380, 1633.00
1381, 1631.00
1382, 1631.00
1383, 1631.00
1384, 1630.00
1385, 1629.00
1386, 1628.00
1387, 1628.00
1388, 1629.00
1389, 1629.00
1390, 1627.00
1391, 1628.00
1392, 1627.00
1393, 1627.00
1394, 1627.00
1395, 1628.00
1396, 1627.00
1397, 1625.00
1398, 1627.00
1399, 1626.00
1400, 1626.00
1401, 1626.00
1402, 1626.00
1403, 1625.00
1404, 1626.00
1405, 1626.00
1406, 1625.00
1407, 1625.00
1408, 1624.00
1409, 1625.00
1410, 1626.00
1411, 1626.00
1412, 1625.00
1413, 1625.00
1414, 1625.00
1415, 1625.00
1416, 1625.00
1417, 1625.00
1418, 1626.00
1419, 1625.00
1420, 1626.00
1421, 1626.00
1422, 1626.00
1423, 1625.00
1424, 1626.00
1425, 1626.00
1426, 1627.00
1427, 1627.00
1428, 1627.00
1429, 1628.00
1430, 1629.00
1431, 1628.00
1432, 1628.00
1433, 1629.00
1434, 1629.00
1435, 1629.00
1436, 1630.00
1437, 1631.00
1438, 1629.00
1439, 1632.00
1440, 1631.00
1441, 1632.00
1442, 1632.00
1443, 1633.00
1444, 1633.00
1445, 1633.00
1446, 1634.00
1447, 1635.00
1448, 1636.00
1449, 1635.00
1450, 1636.00
1451, 1637.00
1452, 1637.00
1453, 1638.00
1454, 1639.00
1455, 1638.00
1456, 1640.00
1457, 1641.00
1458, 1641.00
1459, 1640.00
1460, 1641.00
1461, 1642.00
1462, 1643.00
1463, 1645.00
1464, 1644.00
1465, 1645.00
1466, 1646.00
1467, 1647.00
1468, 1647.00
1469, 1648.00
1470, 1648.00
1471, 1649.00
1472, 1649.00
1473, 1653.00
1474, 1652.00
1475, 1652.00
1476, 1654.00
1477, 1654.00
1478, 1656.00
1479, 1656.00
1480, 1657.00
1481, 1658.00
1482, 1658.00
1483, 1660.00
1484, 1660.00
1485, 1662.00
1486, 1663.00
1487, 1663.00
1488, 1664.00
1489, 1665.00
1490, 1665.00
1491, 1667.00
1492, 1667.00
1493, 1668.00
1494, 1668.00
1495, 1671.00
1496, 1671.00
1497, 1671.00
1498, 1673.00
1499, 1673.00
1500, 1675.00
1501, 1675.00
1502, 1675.00
1503, 1678.00
1504, 1678.00
1505, 1679.00
1506, 1680.00
1507, 1681.00
1508, 1682.00
1509, 1683.00
1510, 1683.00
1511, 1684.00
1512, 1686.00
1513, 1687.00
1514, 1687.00
1515, 1688.00
1516, 1690.00
1517, 1689.00
1518, 1691.00
1519, 1691.00
1520, 1693.00
1521, 1693.00
1522, 1696.00
1523, 1697.00
1524, 1697.00
1525, 1698.00
1526, 1699.00
1527, 1700.00
1528, 1701.00
1529, 1703.00
1530, 1704.00
1531, 1705.00
1532, 1705.00
1533, 1705.00
1534, 1707.00
1535, 1708.00
1536, 1710.00
1537, 1711.00
1538, 1712.00
1539, 1713.00
1540, 1714.00
1541, 1715.00
1542, 1715.00
1543, 1717.00
1544, 1719.00
1545, 1719.00
1546, 1719.00
1547, 1721.00
1548, 1723.00
1549, 1724.00
1550, 1724.00
1551, 1725.00
1552, 1727.00
1553, 1728.00
1554, 1729.00
1555, 1730.00
1556, 1731.00
1557, 1733.00
1558, 1732.00
1559, 1734.00
1560, 1736.00
1561, 1736.00
1562, 1738.00
1563, 1740.00
1564, 1741.00
1565, 1741.00
1566, 1742.00
1567, 1743.00
1568, 1744.00
1569, 1746.00
1570, 1747.00
1571, 1748.00
1572, 1749.00
1573, 1750.00
1574, 1752.00
1575, 1753.00
1576, 1754.00
1577, 1755.00
1578, 1757.00
1579, 1757.00
1580, 1759.00
1581, 1759.00
1582, 1761.00
1583, 1762.00
1584, 1763.00
1585, 1764.00
1586, 1764.00
1587, 1766.00
1588, 1767.00
1589, 1768.00
1590, 1769.00
1591, 1770.00
1592, 1770.00
1593, 1773.00
1594, 1774.00
1595, 1773.00
1596, 1775.00
1597, 1776.00
1598, 1778.00
1599, 1778.00
1600, 1779.00
1601, 1780.00
1602, 1781.00
1603, 1783.00
1604, 1785.00
1605, 1785.00
1606, 1787.00
1607, 1789.00
1608, 1789.00
1609, 1790.00
1610, 1792.00
1611, 1794.00
1612, 1795.00
1613, 1795.00
1614, 1797.00
1615, 1799.00
1616, 1800.00
1617, 1801.00
1618, 1803.00
1619, 1803.00
1620, 1805.00
1621, 1807.00
1622, 1809.00
1623, 1810.00
1624, 1811.00
1625, 1813.00
1626, 1815.00
1627, 1815.00
1628, 1817.00
1629, 1818.00
1630, 1820.00
1631, 1821.00
1632, 1823.00
1633, 1823.00
1634, 1824.00
1635, 1826.00
1636, 1827.00
1637, 1827.00
1638, 1829.00
1639, 1831.00
1640, 1832.00
1641, 1833.00
1642, 1834.00
1643, 1835.00
1644, 1836.00
1645, 1837.00
1646, 1838.00
1647, 1839.00
1648, 1839.00
1649, 1841.00
1650, 1843.00

1750, 2426.00
1751, 2424.00
1752, 2424.00
1753, 2425.00
1754, 2426.00
1755, 2425.00
1756, 2425.00
1757, 2424.00
1758, 2425.00
1759, 2426.00
1760, 2426.00
1761, 2426.00
1762, 2425.00
1763, 2424.00
1764, 2424.00
1765, 2425.00
1766, 2425.00
1767, 2425.00
1768, 2423.00
1769, 2425.00
1770, 2424.00
1771, 2424.00
1772, 2422.00
1773, 2422.00
1774, 2421.00
1775, 2423.00
1776, 2421.00
1777, 2419.00
1778, 2421.00
1779, 2420.00
1780, 2420.00
1781, 2418.00
1782, 2420.00
1783, 2418.00
1784, 2417.00
1785, 2417.00
1786, 2418.00
1787, 2418.00
1788, 2416.00
1789, 2416.00
1790, 2415.00
1791, 2413.00
1792, 2414.00
1793, 2415.00
1794, 2412.00
1795, 2413.00
1796, 2411.00
1797, 2413.00
1798, 2412.00
1799, 2413.00
1800, 2411.00
1801, 2410.00
1802, 2410.00
1803, 2410.00
1804, 2409.00
1805, 2411.00
1806, 2411.00
1807, 2410.00
1808, 2409.00
1809, 2407.00
1810, 2410.00
1811, 2407.00
1812, 2408.00
1813, 2407.00
1814, 2407.00
1815, 2406.00
1816, 2407.00
1817, 2405.00
1818, 2405.00
1819, 2406.00
1820, 2404.00
1821, 2403.00
1822, 2405.00
1823, 2403.00
1824, 2403.00
1825, 2400.00
1826, 2400.00
1827, 2399.00
1828, 2399.00
1829, 2399.00
1830, 2397.00
1831, 2397.00
1832, 2395.00
1833, 2392.00
1834, 2394.00
1835, 2393.00
1836, 2391.00
1837, 2389.00
1838, 2390.00
1839, 2387.00
1840, 2384.00
1841, 2385.00
1842, 2379.00
1843, 2378.00
1844, 2378.00
1845, 2375.00
1846, 2374.00
1847, 2372.00
1848, 2369.00
1849, 2367.00
1850, 2365.00
1851, 2362.00
1852, 2360.00
1853, 2359.00
1854, 2357.00
1855, 2355.00
1856, 2353.00
1857, 2352.00
1858, 2348.00
1859, 2345.00
1860, 2345.00
1861, 2340.00
1862, 2341.00
1863, 2337.00
1864, 2337.00
1865, 2335.00
1866, 2333.00
1867, 2331.00
1868, 2330.00
1869, 2327.00
1870, 2328.00
1871, 2325.00
1872, 2324.00
1873, 2321.00
1874, 2319.00
1875, 2319.00
1876, 2319.00
1877, 2317.00
1878, 2316.00
1879, 2314.00
1880, 2312.00
1881, 2313.00
1882, 2312.00
1883, 2310.00
1884, 2311.00
1885, 2312.00
1886, 2309.00
1887, 2310.00
1888, 2308.00
1889, 2306.00
1890, 2306.00
1891, 2306.00
1892, 2304.00
1893, 2305.00
1894, 2305.00
1895, 2304.00
1896, 2304.00
1897, 2303.00
1898, 2303.00
1899, 2302.00
1900, 2301.00
1901, 2304.00
1902, 2302.00
1903, 2300.00
1904, 2301.00
1905, 2301.00
1906, 2301.00
1907, 2302.00
1908, 2298.00
1909, 2300.00
1910, 2300.00
1911, 2299.00
1912, 2298.00
1913, 2299.00
1914, 2299.00
1915, 2299.00
1916, 2298.00
1917, 2299.00
1918, 2299.00
1919, 2298.00
1920, 2297.00
1921, 2299.00
1922, 2297.00
1923, 2298.00
1924, 2298.00
1925, 2297.00
1926, 2299.00
1927, 2299.00
1928, 2299.00
1929, 2297.00
1930, 2300.00
1931, 2298.00
1932, 2299.00
1933, 2300.00
1934, 2300.00
1935, 2299.00
1936, 2301.00
1937, 2299.00
1938, 2302.00
1939, 2302.00
1940, 2302.00
1941, 2301.00
1942, 2302.00
1943, 2302.00
1944, 2301.00
1945, 2300.00
1946, 2303.00
1947, 2303.00
1948, 2305.00
1949, 2303.00
1950, 2302.00
1951, 2306.00
1952, 2305.00
1953, 2306.00
1954, 2305.00
1955, 2304.00
1956, 2306.00
1957, 2308.00
1958, 2308.00
1959, 2308.00
1960, 2311.00
1961, 2309.00
1962, 2311.00
1963, 2311.00
1964, 2312.00
1965, 2312.00
1966, 2313.00
1967, 2311.00
1968, 2313.00
1969, 2314.00
1970, 2315.00
1971, 2318.00
1972, 2317.00
1973, 2316.00
1974, 2315.00
1975, 2320.00
1976, 2320.00
1977, 2319.00
1978, 2322.00
1979, 2321.00
1980, 2321.00
1981, 2320.00
1982, 2324.00
1983, 2324.00
1984, 2324.00
1985, 2327.00
1986, 2326.00
1987, 2327.00
1988, 2326.00
1989, 2328.00
1990, 2329.00
1991, 2329.00
1992, 2332.00
1993, 2329.00
1994, 2331.00
1995, 2332.00
1996, 2333.00
1997, 2332.00
1998, 2334.00
1999, 2333.00
2000, 2334.00
2001, 2335.00
2002, 2336.00
2003, 2335.00
2004, 2337.00
2005, 2339.00
2006, 2338.00
2007, 2340.00
2008, 2339.00
2009, 2340.00
2010, 2341.00
2011, 2343.00
2012, 2341.00
2013, 2342.00
2014, 2341.00
2015, 2345.00
2016, 2345.00
2017, 2344.00
2018, 2346.00
2019, 2346.00
2020, 2347.00
2021, 2347.00
2022, 2348.00
2023, 2350.00
2024, 2348.00
2025, 2348.00
2026, 2350.00
2027, 2351.00
2028, 2352.00
2029, 2350.00
2030, 2353.00
2031, 2353.00
2032, 2354.00
2033, 2355.00
2034, 2356.00
2035, 2357.00
2036, 2359.00
2037, 2357.00
2038, 2357.00
2039, 2359.00
2040, 2360.00
2041, 2359.00
2042, 2359.00
2043, 2362.00
2044, 2363.00
2045, 2363.00
2046, 2365.00
2047, 2364.00
2048, 2366.00
2049, 2368.00
2050, 2368.00
2051, 2369.00
2052, 2369.00
2053, 2371.00
2054, 2372.00
2055, 2373.00
2056, 2375.00
2057, 2375.00
2058, 2373.00
2059, 2376.00
2060, 2375.00
2061, 2377.00
2062, 2380.00
2063, 2381.00
2064, 2382.00
2065, 2382.00
2066, 2383.00
2067, 2384.00
2068, 2386.00
2069, 2385.00
2070, 2385.00
2071, 2388.00
2072, 2388.00
2073, 2387.00
2074, 2391.00
2075, 2389.00
2076, 2391.00
2077, 2392.00
2078, 2391.00
2079, 2393.00
2080, 2395.00
2081, 2395.00
2082, 2395.00
2083, 2396.00
2084, 2398.00
2085, 2397.00
2086, 2399.00
2087, 2400.00
2088, 2399.00
2089, 2400.00
2090, 2402.00
2091, 2403.00
2092, 2403.00
2093, 2404.00
2094, 2403.00
2095, 2405.00
2096, 2405.00
2097, 2404.00
2098, 2405.00
2099, 2406.00
2100, 2406.00
2101, 2407.00
2102, 2408.00
2103, 2409.00
2104, 2405.00
2105, 2407.00
2106, 2407.00
2107, 2409.00
2108, 2407.00
2109, 2409.00
2110, 2411.00
2111, 2409.00
2112, 2411.00
2113, 2412.00
2114, 2409.00
2115, 2412.00
2116, 2413.00
2117, 2413.00
2118, 2413.00
2119, 2412.00
2120, 2412.00
2121, 2413.00
2122, 2412.00
2123, 2414.00
2124, 2411.00
2125, 2414.00
2126, 2415.00
2127, 2416.00
2128, 2415.00
2129, 2413.00
2130, 2415.00
2131, 2415.00
2132, 2414.00
2133, 2418.00
2134, 2414.00
2135, 2416.00
2136, 2416.00
2137, 2417.00
2138, 2417.00
2139, 2417.00
2140, 2418.00
2141, 2417.00
2142, 2419.00
2143, 2419.00
2144, 2418.00
2145, 2418.00
2146, 2418.00
2147, 2419.00
2148, 2419.00
2149, 2418.00
2150, 2418.00
