FW version: 24
Log Version: 3.0.3

General Info:
       Command/Macro Performed,            Timestamp,             Device ID, COM Port, UART/I2C, Test Name, Host Major, Host Minor, Host Revision, Host Git Commit
            Single_measurement,  2023_07_04_12_00_12,       Insight2_F4_xxx,    USB-C,      USB,          ,          0,          1,             1,      4031237645

Show Spectrometer Status:
l0_version, f4_version, battery_perc, battery_mVolt, accelerometer_temp, accelerometer_x, accelerometer_y, accelerometer_z, compass_temp, compass_x, compass_y, compass_z, lamp_0, lamp_1, gain_0, gain_1
        17,         24,           39,          1884,               6192,           64888,            1540,           19324,            0,     65401,     65356,     19324,   3276,   3276,      1,      1

Temperature Statistic Info:
NTC AVG [°C], NTC2 AVG [°C]
      38.940,        38.595

Statistic Info:
M1:  num,      min,      max,   median,      AVG,      STD,M2:  num,      min,      max,   median,      AVG,      STD
     301,  1902.00,  2150.00,  1957.00,  1984.00,  77.1822,     401,  2612.00,  2753.00,  2687.00,  2684.37,  48.5671,

Measurements:
Wavelength, Data Amplitude
1350, 1930.00
1351, 1929.00
1352, 1929.00
1353, 1929.00
1354, 1929.00
1355, 1928.00
1356, 1928.00
1357, 1927.00
1358, 1927.00
1359, 1925.00
1360, 1925.00
1361, 1925.00
1362, 1923.00
1363, 1923.00
1364, 1923.00
1365, 1922.00
1366, 1920.00
1367, 1919.00
1368, 1921.00
1369, 1919.00
1370, 1919.00
1371, 1918.00
1372, 1916.00
1373, 1915.00
1374, 1915.00
1375, 1915.00
1376, 1914.00
1377, 1913.00
1378, 1912.00
1379, 1912.00
1380, 1911.00
1381, 1910.00
1382, 1909.00
1383, 1909.00
1384, 1908.00
1385, 1907.00
1386, 1909.00
1387, 1908.00
1388, 1907.00
1389, 1907.00
1390, 1907.00
1391, 1906.00
1392, 1906.00
1393, 1905.00
1394, 1906.00
1395, 1905.00
1396, 1906.00
1397, 1904.00
1398, 1905.00
1399, 1905.00
1400, 1904.00
1401, 1905.00
1402, 1904.00
1403, 1903.00
1404, 1903.00
1405, 1903.00
1406, 1903.00
1407, 1903.00
1408, 1903.00
1409, 1904.00
1410, 1904.00
1411, 1903.00
1412, 1904.00
1413, 1903.00
1414, 1903.00
1415, 1904.00
1416, 1902.00
1417, 1904.00
1418, 1903.00
1419, 1903.00
1420, 1903.00
1421, 1904.00
1422, 1904.00
1423, 1903.00
1424, 1904.00
1425, 1905.00
1426, 1905.00
1427, 1904.00
1428, 1905.00
1429, 1905.00
1430, 1906.00
1431, 1905.00
1432, 1906.00
1433, 1906.00
1434, 1907.00
1435, 1907.00
1436, 1909.00
1437, 1907.00
1438, 1909.00
1439, 1910.00
1440, 1909.00
1441, 1911.00
1442, 1911.00
1443, 1911.00
1444, 1911.00
1445, 1911.00
1446, 1914.00
1447, 1915.00
1448, 1913.00
1449, 1915.00
1450, 1915.00
1451, 1915.00
1452, 1917.00
1453, 1917.00
1454, 1918.00
1455, 1919.00
1456, 1918.00
1457, 1919.00
1458, 1920.00
1459, 1919.00
1460, 1921.00
1461, 1923.00
1462, 1923.00
1463, 1923.00
1464, 1924.00
1465, 1924.00
1466, 1926.00
1467, 1925.00
1468, 1928.00
1469, 1928.00
1470, 1928.00
1471, 1931.00
1472, 1930.00
1473, 1931.00
1474, 1932.00
1475, 1934.00
1476, 1935.00
1477, 1935.00
1478, 1936.00
1479, 1938.00
1480, 1938.00
1481, 1940.00
1482, 1940.00
1483, 1942.00
1484, 1942.00
1485, 1943.00
1486, 1944.00
1487, 1945.00
1488, 1946.00
1489, 1948.00
1490, 1949.00
1491, 1949.00
1492, 1950.00
1493, 1952.00
1494, 1951.00
1495, 1954.00
1496, 1955.00
1497, 1955.00
1498, 1955.00
1499, 1956.00
1500, 1957.00
1501, 1959.00
1502, 1960.00
1503, 1961.00
1504, 1962.00
1505, 1964.00
1506, 1965.00
1507, 1965.00
1508, 1967.00
1509, 1966.00
1510, 1969.00
1511, 1969.00
1512, 1971.00
1513, 1972.00
1514, 1973.00
1515, 1973.00
1516, 1975.00
1517, 1976.00
1518, 1977.00
1519, 1978.00
1520, 1979.00
1521, 1979.00
1522, 1981.00
1523, 1982.00
1524, 1983.00
1525, 1985.00
1526, 1986.00
1527, 1987.00
1528, 1989.00
1529, 1989.00
1530, 1991.00
1531, 1991.00
1532, 1993.00
1533, 1994.00
1534, 1997.00
1535, 1997.00
1536, 1996.00
1537, 1999.00
1538, 1999.00
1539, 2002.00
1540, 2002.00
1541, 2004.00
1542, 2005.00
1543, 2006.00
1544, 2008.00
1545, 2009.00
1546, 2010.00
1547, 2010.00
1548, 2012.00
1549, 2013.00
1550, 2015.00
1551, 2015.00
1552, 2016.00
1553, 2017.00
1554, 2020.00
1555, 2021.00
1556, 2022.00
1557, 2023.00
1558, 2025.00
1559, 2026.00
1560, 2028.00
1561, 2029.00
1562, 2030.00
1563, 2031.00
1564, 2033.00
1565, 2035.00
1566, 2036.00
1567, 2037.00
1568, 2039.00
1569, 2040.00
1570, 2043.00
1571, 2043.00
1572, 2045.00
1573, 2045.00
1574, 2047.00
1575, 2049.00
1576, 2049.00
1577, 2050.00
1578, 2052.00
1579, 2053.00
1580, 2054.00
1581, 2056.00
1582, 2057.00
1583, 2058.00
1584, 2058.00
1585, 2060.00
1586, 2061.00
1587, 2063.00
1588, 2064.00
1589, 2065.00
1590, 2066.00
1591, 2067.00
1592, 2068.00
1593, 2070.00
1594, 2071.00
1595, 2072.00
1596, 2073.00
1597, 2074.00
1598, 2076.00
1599, 2078.00
1600, 2077.00
1601, 2080.00
1602, 2081.00
1603, 2082.00
1604, 2084.00
1605, 2085.00
1606, 2086.00
1607, 2087.00
1608, 2088.00
1609, 2090.00
1610, 2091.00
1611, 2093.00
1612, 2095.00
1613, 2096.00
1614, 2098.00
1615, 2099.00
1616, 2100.00
1617, 2102.00
1618, 2105.00
1619, 2105.00
1620, 2108.00
1621, 2109.00
1622, 2110.00
1623, 2112.00
1624, 2112.00
1625, 2116.00
1626, 2116.00
1627, 2119.00
1628, 2120.00
1629, 2121.00
1630, 2121.00
1631, 2124.00
1632, 2126.00
1633, 2126.00
1634, 2129.00
1635, 2130.00
1636, 2131.00
1637, 2133.00
1638, 2133.00
1639, 2135.00
1640, 2137.00
1641, 2138.00
1642, 2139.00
1643, 2139.00
1644, 2142.00
1645, 2142.00
1646, 2144.00
1647, 2145.00
1648, 2146.00
1649, 2147.00
1650, 2150.00

1750, 2753.00
1751, 2750.00
1752, 2751.00
1753, 2751.00
1754, 2752.00
1755, 2752.00
1756, 2752.00
1757, 2752.00
1758, 2751.00
1759, 2753.00
1760, 2751.00
1761, 2751.00
1762, 2751.00
1763, 2750.00
1764, 2752.00
1765, 2751.00
1766, 2750.00
1767, 2750.00
1768, 2748.00
1769, 2751.00
1770, 2750.00
1771, 2749.00
1772, 2749.00
1773, 2748.00
1774, 2747.00
1775, 2747.00
1776, 2747.00
1777, 2747.00
1778, 2746.00
1779, 2746.00
1780, 2746.00
1781, 2745.00
1782, 2743.00
1783, 2744.00
1784, 2744.00
1785, 2741.00
1786, 2743.00
1787, 2741.00
1788, 2739.00
1789, 2740.00
1790, 2740.00
1791, 2740.00
1792, 2740.00
1793, 2738.00
1794, 2738.00
1795, 2737.00
1796, 2737.00
1797, 2736.00
1798, 2735.00
1799, 2735.00
1800, 2734.00
1801, 2734.00
1802, 2733.00
1803, 2733.00
1804, 2734.00
1805, 2732.00
1806, 2730.00
1807, 2732.00
1808, 2733.00
1809, 2732.00
1810, 2733.00
1811, 2733.00
1812, 2731.00
1813, 2733.00
1814, 2732.00
1815, 2729.00
1816, 2730.00
1817, 2731.00
1818, 2729.00
1819, 2729.00
1820, 2727.00
1821, 2727.00
1822, 2727.00
1823, 2726.00
1824, 2725.00
1825, 2726.00
1826, 2724.00
1827, 2722.00
1828, 2722.00
1829, 2722.00
1830, 2720.00
1831, 2720.00
1832, 2716.00
1833, 2716.00
1834, 2716.00
1835, 2713.00
1836, 2714.00
1837, 2713.00
1838, 2710.00
1839, 2709.00
1840, 2707.00
1841, 2705.00
1842, 2703.00
1843, 2700.00
1844, 2698.00
1845, 2697.00
1846, 2694.00
1847, 2693.00
1848, 2691.00
1849, 2687.00
1850, 2686.00
1851, 2684.00
1852, 2682.00
1853, 2680.00
1854, 2678.00
1855, 2675.00
1856, 2673.00
1857, 2670.00
1858, 2668.00
1859, 2666.00
1860, 2663.00
1861, 2660.00
1862, 2659.00
1863, 2654.00
1864, 2653.00
1865, 2653.00
1866, 2651.00
1867, 2650.00
1868, 2647.00
1869, 2645.00
1870, 2644.00
1871, 2642.00
1872, 2640.00
1873, 2639.00
1874, 2636.00
1875, 2634.00
1876, 2634.00
1877, 2633.00
1878, 2632.00
1879, 2631.00
1880, 2630.00
1881, 2628.00
1882, 2627.00
1883, 2627.00
1884, 2625.00
1885, 2625.00
1886, 2624.00
1887, 2621.00
1888, 2622.00
1889, 2623.00
1890, 2621.00
1891, 2621.00
1892, 2620.00
1893, 2620.00
1894, 2620.00
1895, 2618.00
1896, 2619.00
1897, 2618.00
1898, 2617.00
1899, 2618.00
1900, 2618.00
1901, 2616.00
1902, 2616.00
1903, 2617.00
1904, 2616.00
1905, 2615.00
1906, 2614.00
1907, 2613.00
1908, 2614.00
1909, 2615.00
1910, 2613.00
1911, 2615.00
1912, 2615.00
1913, 2615.00
1914, 2613.00
1915, 2612.00
1916, 2612.00
1917, 2613.00
1918, 2613.00
1919, 2613.00
1920, 2613.00
1921, 2613.00
1922, 2613.00
1923, 2615.00
1924, 2614.00
1925, 2613.00
1926, 2612.00
1927, 2614.00
1928, 2613.00
1929, 2614.00
1930, 2613.00
1931, 2613.00
1932, 2614.00
1933, 2614.00
1934, 2613.00
1935, 2616.00
1936, 2617.00
1937, 2616.00
1938, 2616.00
1939, 2617.00
1940, 2616.00
1941, 2615.00
1942, 2617.00
1943, 2617.00
1944, 2616.00
1945, 2618.00
1946, 2619.00
1947, 2618.00
1948, 2619.00
1949, 2618.00
1950, 2619.00
1951, 2619.00
1952, 2620.00
1953, 2621.00
1954, 2622.00
1955, 2622.00
1956, 2623.00
1957, 2623.00
1958, 2625.00
1959, 2624.00
1960, 2626.00
1961, 2625.00
1962, 2625.00
1963, 2627.00
1964, 2627.00
1965, 2627.00
1966, 2629.00
1967, 2630.00
1968, 2630.00
1969, 2631.00
1970, 2631.00
1971, 2632.00
1972, 2633.00
1973, 2631.00
1974, 2634.00
1975, 2636.00
1976, 2634.00
1977, 2638.00
1978, 2638.00
1979, 2638.00
1980, 2640.00
1981, 2641.00
1982, 2639.00
1983, 2640.00
1984, 2640.00
1985, 2643.00
1986, 2642.00
1987, 2645.00
1988, 2646.00
1989, 2645.00
1990, 2645.00
1991, 2648.00
1992, 2647.00
1993, 2647.00
1994, 2649.00
1995, 2649.00
1996, 2650.00
1997, 2651.00
1998, 2653.00
1999, 2651.00
2000, 2653.00
2001, 2654.00
2002, 2653.00
2003, 2655.00
2004, 2655.00
2005, 2656.00
2006, 2656.00
2007, 2656.00
2008, 2656.00
2009, 2657.00
2010, 2659.00
2011, 2660.00
2012, 2658.00
2013, 2663.00
2014, 2662.00
2015, 2662.00
2016, 2664.00
2017, 2663.00
2018, 2663.00
2019, 2664.00
2020, 2665.00
2021, 2665.00
2022, 2667.00
2023, 2665.00
2024, 2667.00
2025, 2669.00
2026, 2669.00
2027, 2671.00
2028, 2670.00
2029, 2672.00
2030, 2671.00
2031, 2672.00
2032, 2674.00
2033, 2674.00
2034, 2675.00
2035, 2675.00
2036, 2676.00
2037, 2678.00
2038, 2678.00
2039, 2678.00
2040, 2679.00
2041, 2682.00
2042, 2682.00
2043, 2683.00
2044, 2683.00
2045, 2683.00
2046, 2686.00
2047, 2685.00
2048, 2687.00
2049, 2689.00
2050, 2688.00
2051, 2688.00
2052, 2687.00
2053, 2691.00
2054, 2691.00
2055, 2694.00
2056, 2696.00
2057, 2696.00
2058, 2697.00
2059, 2697.00
2060, 2699.00
2061, 2700.00
2062, 2700.00
2063, 2699.00
2064, 2701.00
2065, 2704.00
2066, 2701.00
2067, 2704.00
2068, 2706.00
2069, 2706.00
2070, 2707.00
2071, 2707.00
2072, 2709.00
2073, 2711.00
2074, 2711.00
2075, 2711.00
2076, 2713.00
2077, 2714.00
2078, 2715.00
2079, 2715.00
2080, 2717.00
2081, 2716.00
2082, 2718.00
2083, 2719.00
2084, 2719.00
2085, 2721.00
2086, 2721.00
2087, 2722.00
2088, 2721.00
2089, 2722.00
2090, 2722.00
2091, 2724.00
2092, 2724.00
2093, 2726.00
2094, 2725.00
2095, 2727.00
2096, 2728.00
2097, 2729.00
2098, 2727.00
2099, 2729.00
2100, 2730.00
2101, 2729.00
2102, 2732.00
2103, 2733.00
2104, 2730.00
2105, 2731.00
2106, 2732.00
2107, 2731.00
2108, 2732.00
2109, 2732.00
2110, 2732.00
2111, 2733.00
2112, 2732.00
2113, 2733.00
2114, 2734.00
2115, 2733.00
2116, 2736.00
2117, 2734.00
2118, 2733.00
2119, 2735.00
2120, 2735.00
2121, 2738.00
2122, 2737.00
2123, 2736.00
2124, 2737.00
2125, 2737.00
2126, 2738.00
2127, 2739.00
2128, 2739.00
2129, 2738.00
2130, 2739.00
2131, 2739.00
2132, 2739.00
2133, 2739.00
2134, 2740.00
2135, 2740.00
2136, 2741.00
2137, 2741.00
2138, 2739.00
2139, 2739.00
2140, 2739.00
2141, 2740.00
2142, 2742.00
2143, 2743.00
2144, 2740.00
2145, 2741.00
2146, 2743.00
2147, 2741.00
2148, 2741.00
2149, 2742.00
2150, 2743.00
