FW version: 24
Log Version: 3.0.3

General Info:
       Command/Macro Performed,            Timestamp,             Device ID, COM Port, UART/I2C, Test Name, Host Major, Host Minor, Host Revision, Host Git Commit
            Single_measurement,  2023_07_04_11_59_45,       Insight2_F4_xxx,    USB-C,      USB,          ,          0,          1,             1,      4031237645

Show Spectrometer Status:
l0_version, f4_version, battery_perc, battery_mVolt, accelerometer_temp, accelerometer_x, accelerometer_y, accelerometer_z, compass_temp, compass_x, compass_y, compass_z, lamp_0, lamp_1, gain_0, gain_1
        17,         24,           39,          1886,               6144,           64848,            1500,           19256,            0,     65366,     65502,     19257,   2866,   2866,      1,      1

Temperature Statistic Info:
NTC AVG [°C], NTC2 AVG [°C]
      38.768,        38.450

Statistic Info:
M1:  num,      min,      max,   median,      AVG,      STD,M2:  num,      min,      max,   median,      AVG,      STD
     301,  1481.00,  1681.00,  1527.00,  1547.18,  62.2766,     401,  2105.00,  2219.00,  2170.00,  2165.18,  39.6027,

Measurements:
Wavelength, Data Amplitude
1350, 1501.00
1351, 1502.00
1352, 1501.00
1353, 1501.00
1354, 1501.00
1355, 1501.00
1356, 1500.00
1357, 1499.00
1358, 1499.00
1359, 1498.00
1360, 1498.00
1361, 1498.00
1362, 1498.00
1363, 1498.00
1364, 1497.00
1365, 1497.00
1366, 1495.00
1367, 1495.00
1368, 1494.00
1369, 1495.00
1370, 1493.00
1371, 1493.00
1372, 1492.00
1373, 1491.00
1374, 1492.00
1375, 1490.00
1376, 1490.00
1377, 1489.00
1378, 1489.00
1379, 1488.00
1380, 1488.00
1381, 1487.00
1382, 1487.00
1383, 1486.00
1384, 1485.00
1385, 1486.00
1386, 1485.00
1387, 1485.00
1388, 1485.00
1389, 1485.00
1390, 1484.00
1391, 1483.00
1392, 1484.00
1393, 1483.00
1394, 1483.00
1395, 1482.00
1396, 1483.00
1397, 1483.00
1398, 1482.00
1399, 1481.00
1400, 1483.00
1401, 1484.00
1402, 1483.00
1403, 1482.00
1404, 1483.00
1405, 1483.00
1406, 1482.00
1407, 1482.00
1408, 1481.00
1409, 1483.00
1410, 1482.00
1411, 1481.00
1412, 1483.00
1413, 1481.00
1414, 1482.00
1415, 1482.00
1416, 1481.00
1417, 1482.00
1418, 1481.00
1419, 1482.00
1420, 1482.00
1421, 1481.00
1422, 1482.00
1423, 1483.00
1424, 1483.00
1425, 1483.00
1426, 1483.00
1427, 1484.00
1428, 1483.00
1429, 1484.00
1430, 1484.00
1431, 1485.00
1432, 1484.00
1433, 1485.00
1434, 1486.00
1435, 1486.00
1436, 1486.00
1437, 1486.00
1438, 1486.00
1439, 1487.00
1440, 1487.00
1441, 1488.00
1442, 1489.00
1443, 1489.00
1444, 1489.00
1445, 1489.00
1446, 1489.00
1447, 1492.00
1448, 1491.00
1449, 1490.00
1450, 1491.00
1451, 1492.00
1452, 1493.00
1453, 1494.00
1454, 1494.00
1455, 1494.00
1456, 1495.00
1457, 1495.00
1458, 1496.00
1459, 1496.00
1460, 1497.00
1461, 1497.00
1462, 1498.00
1463, 1498.00
1464, 1499.00
1465, 1500.00
1466, 1500.00
1467, 1501.00
1468, 1502.00
1469, 1503.00
1470, 1504.00
1471, 1505.00
1472, 1504.00
1473, 1506.00
1474, 1506.00
1475, 1507.00
1476, 1507.00
1477, 1509.00
1478, 1509.00
1479, 1510.00
1480, 1511.00
1481, 1511.00
1482, 1512.00
1483, 1513.00
1484, 1514.00
1485, 1515.00
1486, 1517.00
1487, 1517.00
1488, 1516.00
1489, 1518.00
1490, 1517.00
1491, 1520.00
1492, 1521.00
1493, 1521.00
1494, 1521.00
1495, 1523.00
1496, 1524.00
1497, 1524.00
1498, 1526.00
1499, 1526.00
1500, 1527.00
1501, 1527.00
1502, 1528.00
1503, 1529.00
1504, 1529.00
1505, 1531.00
1506, 1531.00
1507, 1533.00
1508, 1533.00
1509, 1534.00
1510, 1535.00
1511, 1535.00
1512, 1536.00
1513, 1538.00
1514, 1538.00
1515, 1540.00
1516, 1542.00
1517, 1541.00
1518, 1542.00
1519, 1543.00
1520, 1544.00
1521, 1545.00
1522, 1546.00
1523, 1547.00
1524, 1547.00
1525, 1549.00
1526, 1550.00
1527, 1551.00
1528, 1552.00
1529, 1552.00
1530, 1553.00
1531, 1554.00
1532, 1556.00
1533, 1556.00
1534, 1557.00
1535, 1558.00
1536, 1559.00
1537, 1560.00
1538, 1561.00
1539, 1562.00
1540, 1562.00
1541, 1564.00
1542, 1564.00
1543, 1565.00
1544, 1567.00
1545, 1568.00
1546, 1568.00
1547, 1569.00
1548, 1570.00
1549, 1572.00
1550, 1572.00
1551, 1573.00
1552, 1575.00
1553, 1576.00
1554, 1576.00
1555, 1577.00
1556, 1578.00
1557, 1579.00
1558, 1581.00
1559, 1581.00
1560, 1583.00
1561, 1584.00
1562, 1585.00
1563, 1586.00
1564, 1587.00
1565, 1588.00
1566, 1589.00
1567, 1590.00
1568, 1591.00
1569, 1593.00
1570, 1594.00
1571, 1594.00
1572, 1595.00
1573, 1597.00
1574, 1597.00
1575, 1599.00
1576, 1599.00
1577, 1601.00
1578, 1602.00
1579, 1602.00
1580, 1604.00
1581, 1605.00
1582, 1606.00
1583, 1606.00
1584, 1608.00
1585, 1609.00
1586, 1609.00
1587, 1609.00
1588, 1611.00
1589, 1612.00
1590, 1614.00
1591, 1614.00
1592, 1615.00
1593, 1617.00
1594, 1616.00
1595, 1617.00
1596, 1619.00
1597, 1620.00
1598, 1621.00
1599, 1621.00
1600, 1622.00
1601, 1624.00
1602, 1624.00
1603, 1625.00
1604, 1628.00
1605, 1627.00
1606, 1628.00
1607, 1631.00
1608, 1632.00
1609, 1631.00
1610, 1633.00
1611, 1635.00
1612, 1637.00
1613, 1638.00
1614, 1639.00
1615, 1641.00
1616, 1643.00
1617, 1642.00
1618, 1644.00
1619, 1645.00
1620, 1647.00
1621, 1648.00
1622, 1650.00
1623, 1651.00
1624, 1652.00
1625, 1652.00
1626, 1654.00
1627, 1655.00
1628, 1656.00
1629, 1657.00
1630, 1659.00
1631, 1659.00
1632, 1661.00
1633, 1663.00
1634, 1663.00
1635, 1665.00
1636, 1665.00
1637, 1667.00
1638, 1667.00
1639, 1668.00
1640, 1670.00
1641, 1671.00
1642, 1672.00
1643, 1672.00
1644, 1674.00
1645, 1675.00
1646, 1675.00
1647, 1677.00
1648, 1679.00
1649, 1680.00
1650, 1681.00

1750, 2217.00
1751, 2218.00
1752, 2218.00
1753, 2217.00
1754, 2218.00
1755, 2218.00
1756, 2217.00
1757, 2217.00
1758, 2218.00
1759, 2219.00
1760, 2218.00
1761, 2218.00
1762, 2217.00
1763, 2216.00
1764, 2217.00
1765, 2218.00
1766, 2216.00
1767, 2217.00
1768, 2216.00
1769, 2217.00
1770, 2216.00
1771, 2214.00
1772, 2214.00
1773, 2214.00
1774, 2214.00
1775, 2214.00
1776, 2215.00
1777, 2212.00
1778, 2215.00
1779, 2215.00
1780, 2214.00
1781, 2210.00
1782, 2211.00
1783, 2212.00
1784, 2211.00
1785, 2210.00
1786, 2212.00
1787, 2210.00
1788, 2209.00
1789, 2211.00
1790, 2208.00
1791, 2208.00
1792, 2209.00
1793, 2208.00
1794, 2209.00
1795, 2208.00
1796, 2206.00
1797, 2206.00
1798, 2206.00
1799, 2206.00
1800, 2206.00
1801, 2204.00
1802, 2205.00
1803, 2205.00
1804, 2204.00
1805, 2203.00
1806, 2204.00
1807, 2205.00
1808, 2202.00
1809, 2203.00
1810, 2203.00
1811, 2203.00
1812, 2202.00
1813, 2203.00
1814, 2201.00
1815, 2201.00
1816, 2201.00
1817, 2201.00
1818, 2202.00
1819, 2198.00
1820, 2199.00
1821, 2200.00
1822, 2199.00
1823, 2199.00
1824, 2197.00
1825, 2197.00
1826, 2196.00
1827, 2195.00
1828, 2193.00
1829, 2194.00
1830, 2193.00
1831, 2193.00
1832, 2193.00
1833, 2192.00
1834, 2190.00
1835, 2188.00
1836, 2186.00
1837, 2185.00
1838, 2185.00
1839, 2183.00
1840, 2181.00
1841, 2179.00
1842, 2180.00
1843, 2179.00
1844, 2176.00
1845, 2173.00
1846, 2172.00
1847, 2172.00
1848, 2170.00
1849, 2169.00
1850, 2167.00
1851, 2164.00
1852, 2161.00
1853, 2160.00
1854, 2159.00
1855, 2157.00
1856, 2155.00
1857, 2154.00
1858, 2152.00
1859, 2151.00
1860, 2147.00
1861, 2145.00
1862, 2144.00
1863, 2141.00
1864, 2141.00
1865, 2138.00
1866, 2136.00
1867, 2137.00
1868, 2135.00
1869, 2133.00
1870, 2131.00
1871, 2127.00
1872, 2130.00
1873, 2129.00
1874, 2127.00
1875, 2124.00
1876, 2124.00
1877, 2123.00
1878, 2121.00
1879, 2122.00
1880, 2120.00
1881, 2119.00
1882, 2120.00
1883, 2116.00
1884, 2117.00
1885, 2117.00
1886, 2116.00
1887, 2116.00
1888, 2115.00
1889, 2115.00
1890, 2116.00
1891, 2114.00
1892, 2113.00
1893, 2114.00
1894, 2112.00
1895, 2113.00
1896, 2109.00
1897, 2109.00
1898, 2109.00
1899, 2111.00
1900, 2109.00
1901, 2109.00
1902, 2109.00
1903, 2111.00
1904, 2109.00
1905, 2110.00
1906, 2109.00
1907, 2108.00
1908, 2107.00
1909, 2107.00
1910, 2109.00
1911, 2108.00
1912, 2108.00
1913, 2106.00
1914, 2106.00
1915, 2107.00
1916, 2105.00
1917, 2107.00
1918, 2105.00
1919, 2105.00
1920, 2107.00
1921, 2106.00
1922, 2106.00
1923, 2106.00
1924, 2105.00
1925, 2107.00
1926, 2106.00
1927, 2107.00
1928, 2107.00
1929, 2107.00
1930, 2108.00
1931, 2108.00
1932, 2109.00
1933, 2106.00
1934, 2107.00
1935, 2108.00
1936, 2107.00
1937, 2109.00
1938, 2109.00
1939, 2109.00
1940, 2109.00
1941, 2110.00
1942, 2110.00
1943, 2110.00
1944, 2111.00
1945, 2110.00
1946, 2112.00
1947, 2110.00
1948, 2112.00
1949, 2112.00
1950, 2113.00
1951, 2112.00
1952, 2114.00
1953, 2113.00
1954, 2115.00
1955, 2113.00
1956, 2113.00
1957, 2115.00
1958, 2116.00
1959, 2116.00
1960, 2116.00
1961, 2117.00
1962, 2118.00
1963, 2118.00
1964, 2119.00
1965, 2119.00
1966, 2118.00
1967, 2120.00
1968, 2122.00
1969, 2124.00
1970, 2122.00
1971, 2123.00
1972, 2122.00
1973, 2123.00
1974, 2124.00
1975, 2126.00
1976, 2126.00
1977, 2127.00
1978, 2127.00
1979, 2128.00
1980, 2128.00
1981, 2131.00
1982, 2130.00
1983, 2129.00
1984, 2131.00
1985, 2132.00
1986, 2131.00
1987, 2133.00
1988, 2133.00
1989, 2132.00
1990, 2134.00
1991, 2135.00
1992, 2136.00
1993, 2135.00
1994, 2137.00
1995, 2134.00
1996, 2136.00
1997, 2138.00
1998, 2137.00
1999, 2137.00
2000, 2140.00
2001, 2139.00
2002, 2140.00
2003, 2141.00
2004, 2143.00
2005, 2142.00
2006, 2143.00
2007, 2141.00
2008, 2144.00
2009, 2145.00
2010, 2145.00
2011, 2145.00
2012, 2145.00
2013, 2147.00
2014, 2145.00
2015, 2147.00
2016, 2146.00
2017, 2148.00
2018, 2149.00
2019, 2152.00
2020, 2151.00
2021, 2153.00
2022, 2150.00
2023, 2153.00
2024, 2152.00
2025, 2152.00
2026, 2153.00
2027, 2153.00
2028, 2153.00
2029, 2155.00
2030, 2155.00
2031, 2156.00
2032, 2156.00
2033, 2158.00
2034, 2157.00
2035, 2156.00
2036, 2160.00
2037, 2160.00
2038, 2161.00
2039, 2162.00
2040, 2160.00
2041, 2161.00
2042, 2164.00
2043, 2164.00
2044, 2164.00
2045, 2165.00
2046, 2168.00
2047, 2167.00
2048, 2167.00
2049, 2170.00
2050, 2170.00
2051, 2170.00
2052, 2171.00
2053, 2172.00
2054, 2173.00
2055, 2174.00
2056, 2175.00
2057, 2175.00
2058, 2176.00
2059, 2177.00
2060, 2178.00
2061, 2179.00
2062, 2179.00
2063, 2180.00
2064, 2180.00
2065, 2180.00
2066, 2183.00
2067, 2183.00
2068, 2184.00
2069, 2185.00
2070, 2187.00
2071, 2188.00
2072, 2187.00
2073, 2188.00
2074, 2189.00
2075, 2189.00
2076, 2191.00
2077, 2191.00
2078, 2190.00
2079, 2192.00
2080, 2194.00
2081, 2193.00
2082, 2193.00
2083, 2193.00
2084, 2195.00
2085, 2197.00
2086, 2196.00
2087, 2197.00
2088, 2197.00
2089, 2199.00
2090, 2197.00
2091, 2199.00
2092, 2197.00
2093, 2200.00
2094, 2199.00
2095, 2201.00
2096, 2202.00
2097, 2203.00
2098, 2201.00
2099, 2203.00
2100, 2202.00
2101, 2204.00
2102, 2203.00
2103, 2205.00
2104, 2203.00
2105, 2205.00
2106, 2203.00
2107, 2206.00
2108, 2203.00
2109, 2206.00
2110, 2204.00
2111, 2208.00
2112, 2206.00
2113, 2207.00
2114, 2207.00
2115, 2209.00
2116, 2208.00
2117, 2207.00
2118, 2209.00
2119, 2208.00
2120, 2210.00
2121, 2211.00
2122, 2208.00
2123, 2209.00
2124, 2210.00
2125, 2211.00
2126, 2211.00
2127, 2211.00
2128, 2210.00
2129, 2211.00
2130, 2211.00
2131, 2209.00
2132, 2213.00
2133, 2213.00
2134, 2212.00
2135, 2210.00
2136, 2211.00
2137, 2212.00
2138, 2213.00
2139, 2213.00
2140, 2211.00
2141, 2211.00
2142, 2214.00
2143, 2214.00
2144, 2216.00
2145, 2215.00
2146, 2214.00
2147, 2214.00
2148, 2214.00
2149, 2215.00
2150, 2215.00
