FW version: 24
Log Version: 3.0.3

General Info:
       Command/Macro Performed,            Timestamp,             Device ID, COM Port, UART/I2C, Test Name, Host Major, Host Minor, Host Revision, Host Git Commit
            Single_measurement,  2023_07_04_11_59_25,       Insight2_F4_xxx,    USB-C,      USB,          ,          0,          1,             1,      4031237645

Show Spectrometer Status:
l0_version, f4_version, battery_perc, battery_mVolt, accelerometer_temp, accelerometer_x, accelerometer_y, accelerometer_z, compass_temp, compass_x, compass_y, compass_z, lamp_0, lamp_1, gain_0, gain_1
        17,         24,           39,          1888,               6192,           64892,            1504,           19220,            0,     65404,     65519,     19261,   2457,   2457,      1,      1

Temperature Statistic Info:
NTC AVG [°C], NTC2 AVG [°C]
      38.681,        38.362

Statistic Info:
M1:  num,      min,      max,   median,      AVG,      STD,M2:  num,      min,      max,   median,      AVG,      STD
     301,  1099.00,  1253.00,  1136.00,  1150.36,  48.2477,     401,  1628.00,  1717.00,  1678.00,  1675.22,  30.8539,

Measurements:
Wavelength, Data Amplitude
1350, 1114.00
1351, 1113.00
1352, 1113.00
1353, 1112.00
1354, 1112.00
1355, 1112.00
1356, 1113.00
1357, 1112.00
1358, 1111.00
1359, 1111.00
1360, 1111.00
1361, 1109.00
1362, 1111.00
1363, 1110.00
1364, 1109.00
1365, 1109.00
1366, 1108.00
1367, 1109.00
1368, 1108.00
1369, 1108.00
1370, 1108.00
1371, 1106.00
1372, 1106.00
1373, 1106.00
1374, 1105.00
1375, 1105.00
1376, 1104.00
1377, 1104.00
1378, 1105.00
1379, 1104.00
1380, 1104.00
1381, 1104.00
1382, 1103.00
1383, 1103.00
1384, 1102.00
1385, 1102.00
1386, 1102.00
1387, 1101.00
1388, 1102.00
1389, 1102.00
1390, 1100.00
1391, 1101.00
1392, 1101.00
1393, 1101.00
1394, 1101.00
1395, 1100.00
1396, 1100.00
1397, 1100.00
1398, 1101.00
1399, 1099.00
1400, 1100.00
1401, 1100.00
1402, 1100.00
1403, 1100.00
1404, 1099.00
1405, 1100.00
1406, 1100.00
1407, 1100.00
1408, 1100.00
1409, 1100.00
1410, 1101.00
1411, 1100.00
1412, 1100.00
1413, 1100.00
1414, 1101.00
1415, 1100.00
1416, 1100.00
1417, 1100.00
1418, 1101.00
1419, 1100.00
1420, 1100.00
1421, 1101.00
1422, 1101.00
1423, 1100.00
1424, 1101.00
1425, 1101.00
1426, 1100.00
1427, 1101.00
1428, 1101.00
1429, 1101.00
1430, 1102.00
1431, 1102.00
1432, 1102.00
1433, 1102.00
1434, 1102.00
1435, 1104.00
1436, 1102.00
1437, 1103.00
1438, 1103.00
1439, 1104.00
1440, 1104.00
1441, 1104.00
1442, 1105.00
1443, 1104.00
1444, 1106.00
1445, 1106.00
1446, 1106.00
1447, 1107.00
1448, 1107.00
1449, 1107.00
1450, 1108.00
1451, 1108.00
1452, 1109.00
1453, 1109.00
1454, 1110.00
1455, 1110.00
1456, 1110.00
1457, 1111.00
1458, 1111.00
1459, 1111.00
1460, 1112.00
1461, 1113.00
1462, 1113.00
1463, 1114.00
1464, 1114.00
1465, 1114.00
1466, 1115.00
1467, 1115.00
1468, 1116.00
1469, 1116.00
1470, 1117.00
1471, 1118.00
1472, 1117.00
1473, 1118.00
1474, 1119.00
1475, 1119.00
1476, 1120.00
1477, 1121.00
1478, 1121.00
1479, 1122.00
1480, 1122.00
1481, 1124.00
1482, 1124.00
1483, 1124.00
1484, 1125.00
1485, 1126.00
1486, 1126.00
1487, 1126.00
1488, 1128.00
1489, 1128.00
1490, 1130.00
1491, 1129.00
1492, 1130.00
1493, 1132.00
1494, 1131.00
1495, 1132.00
1496, 1132.00
1497, 1134.00
1498, 1135.00
1499, 1133.00
1500, 1136.00
1501, 1136.00
1502, 1136.00
1503, 1137.00
1504, 1138.00
1505, 1137.00
1506, 1139.00
1507, 1139.00
1508, 1141.00
1509, 1141.00
1510, 1142.00
1511, 1142.00
1512, 1144.00
1513, 1144.00
1514, 1145.00
1515, 1145.00
1516, 1145.00
1517, 1147.00
1518, 1146.00
1519, 1147.00
1520, 1148.00
1521, 1150.00
1522, 1150.00
1523, 1151.00
1524, 1151.00
1525, 1153.00
1526, 1153.00
1527, 1154.00
1528, 1154.00
1529, 1155.00
1530, 1156.00
1531, 1156.00
1532, 1157.00
1533, 1158.00
1534, 1159.00
1535, 1161.00
1536, 1160.00
1537, 1161.00
1538, 1162.00
1539, 1163.00
1540, 1163.00
1541, 1164.00
1542, 1166.00
1543, 1166.00
1544, 1166.00
1545, 1167.00
1546, 1167.00
1547, 1169.00
1548, 1169.00
1549, 1169.00
1550, 1170.00
1551, 1171.00
1552, 1172.00
1553, 1173.00
1554, 1173.00
1555, 1174.00
1556, 1175.00
1557, 1176.00
1558, 1177.00
1559, 1177.00
1560, 1178.00
1561, 1178.00
1562, 1179.00
1563, 1180.00
1564, 1181.00
1565, 1182.00
1566, 1183.00
1567, 1184.00
1568, 1185.00
1569, 1186.00
1570, 1186.00
1571, 1187.00
1572, 1188.00
1573, 1189.00
1574, 1189.00
1575, 1190.00
1576, 1191.00
1577, 1191.00
1578, 1192.00
1579, 1193.00
1580, 1193.00
1581, 1194.00
1582, 1196.00
1583, 1196.00
1584, 1197.00
1585, 1197.00
1586, 1198.00
1587, 1199.00
1588, 1200.00
1589, 1201.00
1590, 1201.00
1591, 1201.00
1592, 1202.00
1593, 1205.00
1594, 1204.00
1595, 1205.00
1596, 1206.00
1597, 1206.00
1598, 1207.00
1599, 1208.00
1600, 1209.00
1601, 1209.00
1602, 1210.00
1603, 1210.00
1604, 1212.00
1605, 1212.00
1606, 1214.00
1607, 1214.00
1608, 1215.00
1609, 1217.00
1610, 1217.00
1611, 1218.00
1612, 1219.00
1613, 1220.00
1614, 1220.00
1615, 1223.00
1616, 1223.00
1617, 1224.00
1618, 1224.00
1619, 1225.00
1620, 1228.00
1621, 1228.00
1622, 1229.00
1623, 1229.00
1624, 1230.00
1625, 1232.00
1626, 1233.00
1627, 1233.00
1628, 1235.00
1629, 1235.00
1630, 1237.00
1631, 1237.00
1632, 1239.00
1633, 1239.00
1634, 1240.00
1635, 1241.00
1636, 1242.00
1637, 1243.00
1638, 1244.00
1639, 1245.00
1640, 1245.00
1641, 1247.00
1642, 1247.00
1643, 1248.00
1644, 1248.00
1645, 1250.00
1646, 1251.00
1647, 1251.00
1648, 1252.00
1649, 1252.00
1650, 1253.00

1750, 1713.00
1751, 1713.00
1752, 1714.00
1753, 1715.00
1754, 1715.00
1755, 1715.00
1756, 1715.00
1757, 1716.00
1758, 1714.00
1759, 1714.00
1760, 1713.00
1761, 1716.00
1762, 1715.00
1763, 1716.00
1764, 1713.00
1765, 1712.00
1766, 1713.00
1767, 1714.00
1768, 1713.00
1769, 1715.00
1770, 1714.00
1771, 1713.00
1772, 1713.00
1773, 1714.00
1774, 1711.00
1775, 1712.00
1776, 1713.00
1777, 1712.00
1778, 1712.00
1779, 1710.00
1780, 1709.00
1781, 1710.00
1782, 1712.00
1783, 1710.00
1784, 1709.00
1785, 1709.00
1786, 1709.00
1787, 1709.00
1788, 1708.00
1789, 1707.00
1790, 1709.00
1791, 1708.00
1792, 1708.00
1793, 1705.00
1794, 1706.00
1795, 1706.00
1796, 1706.00
1797, 1709.00
1798, 1706.00
1799, 1705.00
1800, 1706.00
1801, 1706.00
1802, 1705.00
1803, 1704.00
1804, 1702.00
1805, 1703.00
1806, 1703.00
1807, 1704.00
1808, 1705.00
1809, 1703.00
1810, 1703.00
1811, 1702.00
1812, 1701.00
1813, 1705.00
1814, 1703.00
1815, 1704.00
1816, 1700.00
1817, 1701.00
1818, 1701.00
1819, 1701.00
1820, 1700.00
1821, 1700.00
1822, 1700.00
1823, 1701.00
1824, 1699.00
1825, 1700.00
1826, 1700.00
1827, 1699.00
1828, 1697.00
1829, 1697.00
1830, 1697.00
1831, 1697.00
1832, 1696.00
1833, 1696.00
1834, 1694.00
1835, 1692.00
1836, 1692.00
1837, 1691.00
1838, 1689.00
1839, 1688.00
1840, 1688.00
1841, 1687.00
1842, 1686.00
1843, 1685.00
1844, 1684.00
1845, 1681.00
1846, 1680.00
1847, 1680.00
1848, 1678.00
1849, 1675.00
1850, 1675.00
1851, 1674.00
1852, 1673.00
1853, 1671.00
1854, 1669.00
1855, 1667.00
1856, 1667.00
1857, 1666.00
1858, 1662.00
1859, 1663.00
1860, 1662.00
1861, 1659.00
1862, 1658.00
1863, 1657.00
1864, 1654.00
1865, 1656.00
1866, 1652.00
1867, 1652.00
1868, 1650.00
1869, 1651.00
1870, 1648.00
1871, 1648.00
1872, 1648.00
1873, 1644.00
1874, 1644.00
1875, 1644.00
1876, 1643.00
1877, 1642.00
1878, 1641.00
1879, 1640.00
1880, 1639.00
1881, 1639.00
1882, 1638.00
1883, 1639.00
1884, 1639.00
1885, 1636.00
1886, 1637.00
1887, 1638.00
1888, 1635.00
1889, 1636.00
1890, 1634.00
1891, 1635.00
1892, 1634.00
1893, 1635.00
1894, 1633.00
1895, 1632.00
1896, 1635.00
1897, 1634.00
1898, 1631.00
1899, 1632.00
1900, 1632.00
1901, 1631.00
1902, 1632.00
1903, 1632.00
1904, 1632.00
1905, 1631.00
1906, 1629.00
1907, 1630.00
1908, 1631.00
1909, 1629.00
1910, 1630.00
1911, 1630.00
1912, 1630.00
1913, 1630.00
1914, 1631.00
1915, 1630.00
1916, 1629.00
1917, 1631.00
1918, 1630.00
1919, 1629.00
1920, 1628.00
1921, 1631.00
1922, 1632.00
1923, 1629.00
1924, 1631.00
1925, 1628.00
1926, 1630.00
1927, 1630.00
1928, 1631.00
1929, 1631.00
1930, 1630.00
1931, 1630.00
1932, 1631.00
1933, 1629.00
1934, 1632.00
1935, 1630.00
1936, 1632.00
1937, 1631.00
1938, 1631.00
1939, 1631.00
1940, 1632.00
1941, 1631.00
1942, 1633.00
1943, 1630.00
1944, 1633.00
1945, 1632.00
1946, 1633.00
1947, 1632.00
1948, 1634.00
1949, 1634.00
1950, 1632.00
1951, 1633.00
1952, 1638.00
1953, 1633.00
1954, 1636.00
1955, 1635.00
1956, 1637.00
1957, 1636.00
1958, 1637.00
1959, 1636.00
1960, 1638.00
1961, 1638.00
1962, 1638.00
1963, 1637.00
1964, 1639.00
1965, 1641.00
1966, 1639.00
1967, 1641.00
1968, 1640.00
1969, 1642.00
1970, 1642.00
1971, 1642.00
1972, 1644.00
1973, 1642.00
1974, 1644.00
1975, 1646.00
1976, 1644.00
1977, 1644.00
1978, 1645.00
1979, 1646.00
1980, 1647.00
1981, 1646.00
1982, 1647.00
1983, 1647.00
1984, 1647.00
1985, 1648.00
1986, 1649.00
1987, 1651.00
1988, 1652.00
1989, 1651.00
1990, 1651.00
1991, 1650.00
1992, 1652.00
1993, 1654.00
1994, 1651.00
1995, 1655.00
1996, 1652.00
1997, 1654.00
1998, 1654.00
1999, 1655.00
2000, 1656.00
2001, 1655.00
2002, 1656.00
2003, 1657.00
2004, 1657.00
2005, 1660.00
2006, 1658.00
2007, 1657.00
2008, 1658.00
2009, 1660.00
2010, 1660.00
2011, 1659.00
2012, 1661.00
2013, 1661.00
2014, 1662.00
2015, 1661.00
2016, 1662.00
2017, 1662.00
2018, 1661.00
2019, 1663.00
2020, 1663.00
2021, 1663.00
2022, 1662.00
2023, 1665.00
2024, 1665.00
2025, 1667.00
2026, 1667.00
2027, 1667.00
2028, 1666.00
2029, 1666.00
2030, 1670.00
2031, 1667.00
2032, 1669.00
2033, 1670.00
2034, 1670.00
2035, 1670.00
2036, 1670.00
2037, 1672.00
2038, 1669.00
2039, 1675.00
2040, 1672.00
2041, 1673.00
2042, 1673.00
2043, 1673.00
2044, 1675.00
2045, 1676.00
2046, 1679.00
2047, 1678.00
2048, 1677.00
2049, 1678.00
2050, 1679.00
2051, 1680.00
2052, 1679.00
2053, 1680.00
2054, 1681.00
2055, 1681.00
2056, 1683.00
2057, 1686.00
2058, 1685.00
2059, 1685.00
2060, 1688.00
2061, 1685.00
2062, 1686.00
2063, 1688.00
2064, 1687.00
2065, 1689.00
2066, 1689.00
2067, 1689.00
2068, 1690.00
2069, 1692.00
2070, 1691.00
2071, 1693.00
2072, 1695.00
2073, 1694.00
2074, 1694.00
2075, 1695.00
2076, 1694.00
2077, 1696.00
2078, 1696.00
2079, 1696.00
2080, 1698.00
2081, 1699.00
2082, 1700.00
2083, 1700.00
2084, 1700.00
2085, 1700.00
2086, 1702.00
2087, 1699.00
2088, 1701.00
2089, 1702.00
2090, 1702.00
2091, 1703.00
2092, 1703.00
2093, 1705.00
2094, 1703.00
2095, 1705.00
2096, 1706.00
2097, 1702.00
2098, 1707.00
2099, 1707.00
2100, 1706.00
2101, 1706.00
2102, 1707.00
2103, 1708.00
2104, 1706.00
2105, 1706.00
2106, 1706.00
2107, 1706.00
2108, 1708.00
2109, 1708.00
2110, 1709.00
2111, 1709.00
2112, 1707.00
2113, 1709.00
2114, 1709.00
2115, 1709.00
2116, 1710.00
2117, 1709.00
2118, 1709.00
2119, 1710.00
2120, 1711.00
2121, 1710.00
2122, 1711.00
2123, 1711.00
2124, 1711.00
2125, 1713.00
2126, 1710.00
2127, 1713.00
2128, 1712.00
2129, 1712.00
2130, 1712.00
2131, 1712.00
2132, 1714.00
2133, 1714.00
2134, 1713.00
2135, 1714.00
2136, 1715.00
2137, 1714.00
2138, 1713.00
2139, 1714.00
2140, 1714.00
2141, 1715.00
2142, 1715.00
2143, 1714.00
2144, 1716.00
2145, 1715.00
2146, 1715.00
2147, 1715.00
2148, 1717.00
2149, 1714.00
2150, 1716.00
