FW version: 24
Log Version: 3.0.3

General Info:
       Command/Macro Performed,            Timestamp,             Device ID, COM Port, UART/I2C, Test Name, Host Major, Host Minor, Host Revision, Host Git Commit
            Single_measurement,  2023_06_28_11_20_35,       Insight2_F4_xxx,    USB-C,      USB,          ,          0,          1,             1,      4031237645

Show Spectrometer Status:
l0_version, f4_version, battery_perc, battery_mVolt, accelerometer_temp, accelerometer_x, accelerometer_y, accelerometer_z, compass_temp, compass_x, compass_y, compass_z, lamp_0, lamp_1, gain_0, gain_1
        17,         24,           39,          1891,               6368,           65456,             604,           18736,            0,     65463,     65501,     18744,   2866,   2866,      1,      1

Temperature Statistic Info:
NTC AVG [°C], NTC2 AVG [°C]
      39.470,        39.116

Statistic Info:
M1:  num,      min,      max,   median,      AVG,      STD,M2:  num,      min,      max,   median,      AVG,      STD
     301,  1296.00,  1490.00,  1335.00,  1359.60,  59.9855,     401,  1766.00,  1881.00,  1812.00,  1816.13,  37.1250,

Measurements:
Wavelength, Data Amplitude
1350, 1331.00
1351, 1330.00
1352, 1329.00
1353, 1329.00
1354, 1328.00
1355, 1327.00
1356, 1327.00
1357, 1326.00
1358, 1326.00
1359, 1325.00
1360, 1324.00
1361, 1323.00
1362, 1322.00
1363, 1321.00
1364, 1320.00
1365, 1319.00
1366, 1319.00
1367, 1318.00
1368, 1317.00
1369, 1316.00
1370, 1315.00
1371, 1314.00
1372, 1314.00
1373, 1313.00
1374, 1311.00
1375, 1311.00
1376, 1309.00
1377, 1308.00
1378, 1308.00
1379, 1307.00
1380, 1307.00
1381, 1306.00
1382, 1305.00
1383, 1305.00
1384, 1304.00
1385, 1303.00
1386, 1303.00
1387, 1303.00
1388, 1303.00
1389, 1302.00
1390, 1302.00
1391, 1301.00
1392, 1301.00
1393, 1302.00
1394, 1300.00
1395, 1299.00
1396, 1300.00
1397, 1300.00
1398, 1300.00
1399, 1299.00
1400, 1298.00
1401, 1298.00
1402, 1298.00
1403, 1297.00
1404, 1297.00
1405, 1297.00
1406, 1297.00
1407, 1297.00
1408, 1297.00
1409, 1298.00
1410, 1297.00
1411, 1297.00
1412, 1298.00
1413, 1297.00
1414, 1297.00
1415, 1296.00
1416, 1297.00
1417, 1297.00
1418, 1297.00
1419, 1297.00
1420, 1298.00
1421, 1297.00
1422, 1296.00
1423, 1297.00
1424, 1297.00
1425, 1297.00
1426, 1297.00
1427, 1297.00
1428, 1297.00
1429, 1298.00
1430, 1298.00
1431, 1298.00
1432, 1298.00
1433, 1298.00
1434, 1299.00
1435, 1299.00
1436, 1299.00
1437, 1299.00
1438, 1300.00
1439, 1299.00
1440, 1300.00
1441, 1300.00
1442, 1301.00
1443, 1301.00
1444, 1301.00
1445, 1301.00
1446, 1301.00
1447, 1301.00
1448, 1302.00
1449, 1303.00
1450, 1304.00
1451, 1304.00
1452, 1304.00
1453, 1305.00
1454, 1306.00
1455, 1306.00
1456, 1306.00
1457, 1306.00
1458, 1308.00
1459, 1307.00
1460, 1309.00
1461, 1308.00
1462, 1309.00
1463, 1310.00
1464, 1311.00
1465, 1311.00
1466, 1312.00
1467, 1312.00
1468, 1312.00
1469, 1313.00
1470, 1312.00
1471, 1314.00
1472, 1314.00
1473, 1315.00
1474, 1316.00
1475, 1317.00
1476, 1317.00
1477, 1318.00
1478, 1318.00
1479, 1319.00
1480, 1320.00
1481, 1320.00
1482, 1322.00
1483, 1322.00
1484, 1323.00
1485, 1323.00
1486, 1325.00
1487, 1325.00
1488, 1326.00
1489, 1327.00
1490, 1328.00
1491, 1329.00
1492, 1329.00
1493, 1331.00
1494, 1331.00
1495, 1332.00
1496, 1332.00
1497, 1333.00
1498, 1335.00
1499, 1335.00
1500, 1335.00
1501, 1337.00
1502, 1337.00
1503, 1339.00
1504, 1339.00
1505, 1339.00
1506, 1341.00
1507, 1342.00
1508, 1343.00
1509, 1344.00
1510, 1344.00
1511, 1345.00
1512, 1346.00
1513, 1347.00
1514, 1347.00
1515, 1349.00
1516, 1349.00
1517, 1351.00
1518, 1352.00
1519, 1352.00
1520, 1353.00
1521, 1353.00
1522, 1356.00
1523, 1356.00
1524, 1357.00
1525, 1358.00
1526, 1358.00
1527, 1360.00
1528, 1361.00
1529, 1362.00
1530, 1364.00
1531, 1364.00
1532, 1365.00
1533, 1365.00
1534, 1367.00
1535, 1368.00
1536, 1369.00
1537, 1370.00
1538, 1371.00
1539, 1371.00
1540, 1373.00
1541, 1374.00
1542, 1375.00
1543, 1376.00
1544, 1376.00
1545, 1377.00
1546, 1378.00
1547, 1379.00
1548, 1380.00
1549, 1381.00
1550, 1383.00
1551, 1383.00
1552, 1384.00
1553, 1385.00
1554, 1386.00
1555, 1386.00
1556, 1387.00
1557, 1389.00
1558, 1390.00
1559, 1392.00
1560, 1393.00
1561, 1394.00
1562, 1395.00
1563, 1396.00
1564, 1397.00
1565, 1399.00
1566, 1399.00
1567, 1400.00
1568, 1402.00
1569, 1402.00
1570, 1403.00
1571, 1405.00
1572, 1406.00
1573, 1407.00
1574, 1408.00
1575, 1409.00
1576, 1410.00
1577, 1410.00
1578, 1411.00
1579, 1413.00
1580, 1413.00
1581, 1414.00
1582, 1416.00
1583, 1416.00
1584, 1417.00
1585, 1419.00
1586, 1420.00
1587, 1420.00
1588, 1420.00
1589, 1422.00
1590, 1424.00
1591, 1424.00
1592, 1425.00
1593, 1427.00
1594, 1427.00
1595, 1428.00
1596, 1429.00
1597, 1430.00
1598, 1431.00
1599, 1432.00
1600, 1433.00
1601, 1435.00
1602, 1435.00
1603, 1436.00
1604, 1438.00
1605, 1439.00
1606, 1439.00
1607, 1440.00
1608, 1442.00
1609, 1443.00
1610, 1444.00
1611, 1446.00
1612, 1446.00
1613, 1448.00
1614, 1449.00
1615, 1450.00
1616, 1451.00
1617, 1452.00
1618, 1454.00
1619, 1455.00
1620, 1456.00
1621, 1457.00
1622, 1459.00
1623, 1460.00
1624, 1461.00
1625, 1463.00
1626, 1463.00
1627, 1464.00
1628, 1466.00
1629, 1468.00
1630, 1469.00
1631, 1469.00
1632, 1470.00
1633, 1472.00
1634, 1473.00
1635, 1474.00
1636, 1475.00
1637, 1477.00
1638, 1477.00
1639, 1477.00
1640, 1479.00
1641, 1480.00
1642, 1482.00
1643, 1482.00
1644, 1482.00
1645, 1484.00
1646, 1485.00
1647, 1486.00
1648, 1487.00
1649, 1489.00
1650, 1490.00

1750, 1881.00
1751, 1879.00
1752, 1879.00
1753, 1880.00
1754, 1879.00
1755, 1879.00
1756, 1880.00
1757, 1879.00
1758, 1879.00
1759, 1879.00
1760, 1879.00
1761, 1878.00
1762, 1877.00
1763, 1879.00
1764, 1878.00
1765, 1879.00
1766, 1877.00
1767, 1878.00
1768, 1877.00
1769, 1878.00
1770, 1879.00
1771, 1876.00
1772, 1878.00
1773, 1876.00
1774, 1878.00
1775, 1875.00
1776, 1876.00
1777, 1875.00
1778, 1874.00
1779, 1874.00
1780, 1877.00
1781, 1874.00
1782, 1872.00
1783, 1874.00
1784, 1873.00
1785, 1873.00
1786, 1872.00
1787, 1874.00
1788, 1871.00
1789, 1871.00
1790, 1870.00
1791, 1869.00
1792, 1870.00
1793, 1869.00
1794, 1870.00
1795, 1869.00
1796, 1868.00
1797, 1868.00
1798, 1867.00
1799, 1867.00
1800, 1865.00
1801, 1866.00
1802, 1866.00
1803, 1866.00
1804, 1866.00
1805, 1863.00
1806, 1864.00
1807, 1865.00
1808, 1863.00
1809, 1863.00
1810, 1861.00
1811, 1862.00
1812, 1862.00
1813, 1861.00
1814, 1861.00
1815, 1861.00
1816, 1860.00
1817, 1861.00
1818, 1857.00
1819, 1857.00
1820, 1858.00
1821, 1856.00
1822, 1856.00
1823, 1853.00
1824, 1853.00
1825, 1853.00
1826, 1852.00
1827, 1851.00
1828, 1849.00
1829, 1851.00
1830, 1848.00
1831, 1846.00
1832, 1845.00
1833, 1845.00
1834, 1844.00
1835, 1842.00
1836, 1840.00
1837, 1838.00
1838, 1838.00
1839, 1836.00
1840, 1832.00
1841, 1833.00
1842, 1832.00
1843, 1828.00
1844, 1827.00
1845, 1824.00
1846, 1824.00
1847, 1821.00
1848, 1820.00
1849, 1819.00
1850, 1817.00
1851, 1814.00
1852, 1813.00
1853, 1812.00
1854, 1810.00
1855, 1808.00
1856, 1807.00
1857, 1805.00
1858, 1805.00
1859, 1800.00
1860, 1799.00
1861, 1799.00
1862, 1797.00
1863, 1796.00
1864, 1795.00
1865, 1795.00
1866, 1791.00
1867, 1790.00
1868, 1791.00
1869, 1790.00
1870, 1785.00
1871, 1785.00
1872, 1785.00
1873, 1783.00
1874, 1783.00
1875, 1782.00
1876, 1783.00
1877, 1782.00
1878, 1779.00
1879, 1780.00
1880, 1780.00
1881, 1781.00
1882, 1778.00
1883, 1778.00
1884, 1779.00
1885, 1777.00
1886, 1774.00
1887, 1777.00
1888, 1775.00
1889, 1775.00
1890, 1774.00
1891, 1775.00
1892, 1774.00
1893, 1775.00
1894, 1774.00
1895, 1772.00
1896, 1774.00
1897, 1773.00
1898, 1774.00
1899, 1773.00
1900, 1773.00
1901, 1772.00
1902, 1770.00
1903, 1774.00
1904, 1772.00
1905, 1771.00
1906, 1771.00
1907, 1771.00
1908, 1771.00
1909, 1770.00
1910, 1769.00
1911, 1768.00
1912, 1768.00
1913, 1769.00
1914, 1769.00
1915, 1770.00
1916, 1766.00
1917, 1769.00
1918, 1769.00
1919, 1767.00
1920, 1767.00
1921, 1767.00
1922, 1769.00
1923, 1767.00
1924, 1769.00
1925, 1767.00
1926, 1769.00
1927, 1767.00
1928, 1766.00
1929, 1767.00
1930, 1769.00
1931, 1769.00
1932, 1768.00
1933, 1769.00
1934, 1769.00
1935, 1768.00
1936, 1768.00
1937, 1768.00
1938, 1769.00
1939, 1768.00
1940, 1768.00
1941, 1770.00
1942, 1768.00
1943, 1769.00
1944, 1769.00
1945, 1769.00
1946, 1770.00
1947, 1769.00
1948, 1771.00
1949, 1770.00
1950, 1768.00
1951, 1769.00
1952, 1770.00
1953, 1771.00
1954, 1772.00
1955, 1770.00
1956, 1771.00
1957, 1772.00
1958, 1772.00
1959, 1772.00
1960, 1773.00
1961, 1774.00
1962, 1774.00
1963, 1772.00
1964, 1774.00
1965, 1774.00
1966, 1775.00
1967, 1775.00
1968, 1774.00
1969, 1776.00
1970, 1775.00
1971, 1778.00
1972, 1778.00
1973, 1778.00
1974, 1777.00
1975, 1777.00
1976, 1778.00
1977, 1777.00
1978, 1779.00
1979, 1778.00
1980, 1779.00
1981, 1780.00
1982, 1778.00
1983, 1781.00
1984, 1780.00
1985, 1781.00
1986, 1782.00
1987, 1783.00
1988, 1783.00
1989, 1783.00
1990, 1783.00
1991, 1784.00
1992, 1785.00
1993, 1784.00
1994, 1784.00
1995, 1788.00
1996, 1786.00
1997, 1787.00
1998, 1786.00
1999, 1786.00
2000, 1786.00
2001, 1790.00
2002, 1790.00
2003, 1789.00
2004, 1790.00
2005, 1790.00
2006, 1792.00
2007, 1789.00
2008, 1789.00
2009, 1791.00
2010, 1790.00
2011, 1792.00
2012, 1791.00
2013, 1791.00
2014, 1794.00
2015, 1793.00
2016, 1794.00
2017, 1794.00
2018, 1792.00
2019, 1795.00
2020, 1795.00
2021, 1796.00
2022, 1795.00
2023, 1796.00
2024, 1797.00
2025, 1798.00
2026, 1796.00
2027, 1799.00
2028, 1800.00
2029, 1800.00
2030, 1799.00
2031, 1802.00
2032, 1801.00
2033, 1800.00
2034, 1803.00
2035, 1801.00
2036, 1803.00
2037, 1805.00
2038, 1803.00
2039, 1804.00
2040, 1806.00
2041, 1803.00
2042, 1806.00
2043, 1805.00
2044, 1808.00
2045, 1807.00
2046, 1808.00
2047, 1809.00
2048, 1811.00
2049, 1809.00
2050, 1811.00
2051, 1811.00
2052, 1812.00
2053, 1812.00
2054, 1812.00
2055, 1814.00
2056, 1816.00
2057, 1815.00
2058, 1815.00
2059, 1816.00
2060, 1817.00
2061, 1819.00
2062, 1818.00
2063, 1818.00
2064, 1820.00
2065, 1820.00
2066, 1820.00
2067, 1822.00
2068, 1820.00
2069, 1822.00
2070, 1822.00
2071, 1825.00
2072, 1825.00
2073, 1826.00
2074, 1826.00
2075, 1827.00
2076, 1827.00
2077, 1827.00
2078, 1828.00
2079, 1828.00
2080, 1829.00
2081, 1829.00
2082, 1828.00
2083, 1831.00
2084, 1831.00
2085, 1831.00
2086, 1832.00
2087, 1832.00
2088, 1833.00
2089, 1834.00
2090, 1834.00
2091, 1835.00
2092, 1836.00
2093, 1837.00
2094, 1838.00
2095, 1837.00
2096, 1837.00
2097, 1839.00
2098, 1838.00
2099, 1837.00
2100, 1839.00
2101, 1839.00
2102, 1841.00
2103, 1839.00
2104, 1842.00
2105, 1842.00
2106, 1842.00
2107, 1843.00
2108, 1841.00
2109, 1841.00
2110, 1842.00
2111, 1845.00
2112, 1842.00
2113, 1843.00
2114, 1842.00
2115, 1843.00
2116, 1844.00
2117, 1845.00
2118, 1843.00
2119, 1846.00
2120, 1846.00
2121, 1846.00
2122, 1848.00
2123, 1847.00
2124, 1847.00
2125, 1846.00
2126, 1847.00
2127, 1848.00
2128, 1847.00
2129, 1847.00
2130, 1848.00
2131, 1849.00
2132, 1849.00
2133, 1850.00
2134, 1848.00
2135, 1850.00
2136, 1851.00
2137, 1849.00
2138, 1850.00
2139, 1852.00
2140, 1852.00
2141, 1852.00
2142, 1853.00
2143, 1850.00
2144, 1852.00
2145, 1852.00
2146, 1853.00
2147, 1853.00
2148, 1852.00
2149, 1854.00
2150, 1854.00
