FW version: 24
Log Version: 3.0.3

General Info:
       Command/Macro Performed,            Timestamp,             Device ID, COM Port, UART/I2C, Test Name, Host Major, Host Minor, Host Revision, Host Git Commit
            Single_measurement,  2023_06_28_11_20_51,       Insight2_F4_xxx,    USB-C,      USB,          ,          0,          1,             1,      4031237645

Show Spectrometer Status:
l0_version, f4_version, battery_perc, battery_mVolt, accelerometer_temp, accelerometer_x, accelerometer_y, accelerometer_z, compass_temp, compass_x, compass_y, compass_z, lamp_0, lamp_1, gain_0, gain_1
        17,         24,           40,          1888,               6400,           65464,             836,           18728,            0,     65467,     65495,     18746,   3276,   3276,      1,      1

Temperature Statistic Info:
NTC AVG [°C], NTC2 AVG [°C]
      39.558,        39.264

Statistic Info:
M1:  num,      min,      max,   median,      AVG,      STD,M2:  num,      min,      max,   median,      AVG,      STD
     301,  1664.00,  1907.00,  1715.00,  1744.39,  74.5597,     401,  2192.00,  2334.00,  2248.00,  2253.28,  45.7137,

Measurements:
Wavelength, Data Amplitude
1350, 1710.00
1351, 1710.00
1352, 1709.00
1353, 1708.00
1354, 1706.00
1355, 1707.00
1356, 1705.00
1357, 1705.00
1358, 1704.00
1359, 1703.00
1360, 1703.00
1361, 1701.00
1362, 1701.00
1363, 1699.00
1364, 1696.00
1365, 1697.00
1366, 1695.00
1367, 1694.00
1368, 1693.00
1369, 1691.00
1370, 1690.00
1371, 1689.00
1372, 1688.00
1373, 1686.00
1374, 1685.00
1375, 1685.00
1376, 1684.00
1377, 1683.00
1378, 1682.00
1379, 1681.00
1380, 1679.00
1381, 1679.00
1382, 1678.00
1383, 1677.00
1384, 1676.00
1385, 1676.00
1386, 1674.00
1387, 1674.00
1388, 1674.00
1389, 1674.00
1390, 1672.00
1391, 1673.00
1392, 1672.00
1393, 1671.00
1394, 1671.00
1395, 1670.00
1396, 1670.00
1397, 1669.00
1398, 1670.00
1399, 1669.00
1400, 1669.00
1401, 1669.00
1402, 1668.00
1403, 1668.00
1404, 1668.00
1405, 1669.00
1406, 1668.00
1407, 1668.00
1408, 1666.00
1409, 1667.00
1410, 1666.00
1411, 1666.00
1412, 1668.00
1413, 1667.00
1414, 1666.00
1415, 1666.00
1416, 1666.00
1417, 1666.00
1418, 1665.00
1419, 1666.00
1420, 1666.00
1421, 1665.00
1422, 1664.00
1423, 1665.00
1424, 1666.00
1425, 1666.00
1426, 1665.00
1427, 1666.00
1428, 1667.00
1429, 1666.00
1430, 1667.00
1431, 1668.00
1432, 1668.00
1433, 1669.00
1434, 1668.00
1435, 1668.00
1436, 1669.00
1437, 1670.00
1438, 1669.00
1439, 1670.00
1440, 1669.00
1441, 1670.00
1442, 1671.00
1443, 1672.00
1444, 1671.00
1445, 1672.00
1446, 1674.00
1447, 1673.00
1448, 1673.00
1449, 1674.00
1450, 1675.00
1451, 1674.00
1452, 1675.00
1453, 1675.00
1454, 1676.00
1455, 1677.00
1456, 1675.00
1457, 1679.00
1458, 1678.00
1459, 1678.00
1460, 1680.00
1461, 1680.00
1462, 1681.00
1463, 1681.00
1464, 1683.00
1465, 1683.00
1466, 1683.00
1467, 1684.00
1468, 1684.00
1469, 1685.00
1470, 1686.00
1471, 1686.00
1472, 1688.00
1473, 1690.00
1474, 1690.00
1475, 1691.00
1476, 1692.00
1477, 1692.00
1478, 1694.00
1479, 1694.00
1480, 1695.00
1481, 1696.00
1482, 1697.00
1483, 1699.00
1484, 1698.00
1485, 1700.00
1486, 1701.00
1487, 1703.00
1488, 1703.00
1489, 1704.00
1490, 1705.00
1491, 1706.00
1492, 1706.00
1493, 1708.00
1494, 1708.00
1495, 1709.00
1496, 1710.00
1497, 1711.00
1498, 1712.00
1499, 1713.00
1500, 1715.00
1501, 1716.00
1502, 1716.00
1503, 1717.00
1504, 1719.00
1505, 1719.00
1506, 1720.00
1507, 1721.00
1508, 1722.00
1509, 1724.00
1510, 1725.00
1511, 1726.00
1512, 1727.00
1513, 1728.00
1514, 1728.00
1515, 1730.00
1516, 1731.00
1517, 1733.00
1518, 1734.00
1519, 1735.00
1520, 1736.00
1521, 1737.00
1522, 1739.00
1523, 1740.00
1524, 1741.00
1525, 1741.00
1526, 1743.00
1527, 1744.00
1528, 1745.00
1529, 1747.00
1530, 1749.00
1531, 1748.00
1532, 1749.00
1533, 1751.00
1534, 1751.00
1535, 1753.00
1536, 1756.00
1537, 1755.00
1538, 1757.00
1539, 1758.00
1540, 1759.00
1541, 1761.00
1542, 1761.00
1543, 1763.00
1544, 1765.00
1545, 1767.00
1546, 1767.00
1547, 1768.00
1548, 1769.00
1549, 1771.00
1550, 1772.00
1551, 1773.00
1552, 1775.00
1553, 1776.00
1554, 1778.00
1555, 1779.00
1556, 1779.00
1557, 1783.00
1558, 1782.00
1559, 1784.00
1560, 1785.00
1561, 1787.00
1562, 1788.00
1563, 1789.00
1564, 1790.00
1565, 1791.00
1566, 1793.00
1567, 1794.00
1568, 1795.00
1569, 1797.00
1570, 1799.00
1571, 1799.00
1572, 1801.00
1573, 1804.00
1574, 1804.00
1575, 1805.00
1576, 1806.00
1577, 1807.00
1578, 1810.00
1579, 1810.00
1580, 1813.00
1581, 1813.00
1582, 1815.00
1583, 1815.00
1584, 1818.00
1585, 1819.00
1586, 1819.00
1587, 1820.00
1588, 1822.00
1589, 1823.00
1590, 1825.00
1591, 1826.00
1592, 1826.00
1593, 1827.00
1594, 1829.00
1595, 1830.00
1596, 1830.00
1597, 1832.00
1598, 1833.00
1599, 1834.00
1600, 1835.00
1601, 1837.00
1602, 1838.00
1603, 1839.00
1604, 1841.00
1605, 1843.00
1606, 1845.00
1607, 1846.00
1608, 1847.00
1609, 1849.00
1610, 1850.00
1611, 1851.00
1612, 1853.00
1613, 1855.00
1614, 1856.00
1615, 1857.00
1616, 1858.00
1617, 1860.00
1618, 1861.00
1619, 1863.00
1620, 1865.00
1621, 1867.00
1622, 1868.00
1623, 1870.00
1624, 1871.00
1625, 1872.00
1626, 1874.00
1627, 1875.00
1628, 1876.00
1629, 1878.00
1630, 1879.00
1631, 1881.00
1632, 1882.00
1633, 1884.00
1634, 1885.00
1635, 1886.00
1636, 1888.00
1637, 1890.00
1638, 1890.00
1639, 1892.00
1640, 1893.00
1641, 1894.00
1642, 1895.00
1643, 1897.00
1644, 1898.00
1645, 1899.00
1646, 1900.00
1647, 1901.00
1648, 1902.00
1649, 1904.00
1650, 1907.00

1750, 2333.00
1751, 2332.00
1752, 2332.00
1753, 2334.00
1754, 2333.00
1755, 2333.00
1756, 2331.00
1757, 2334.00
1758, 2332.00
1759, 2331.00
1760, 2331.00
1761, 2331.00
1762, 2332.00
1763, 2333.00
1764, 2331.00
1765, 2333.00
1766, 2331.00
1767, 2330.00
1768, 2331.00
1769, 2331.00
1770, 2331.00
1771, 2330.00
1772, 2329.00
1773, 2329.00
1774, 2329.00
1775, 2329.00
1776, 2327.00
1777, 2327.00
1778, 2325.00
1779, 2329.00
1780, 2326.00
1781, 2326.00
1782, 2325.00
1783, 2324.00
1784, 2324.00
1785, 2323.00
1786, 2324.00
1787, 2323.00
1788, 2321.00
1789, 2320.00
1790, 2322.00
1791, 2320.00
1792, 2320.00
1793, 2318.00
1794, 2319.00
1795, 2317.00
1796, 2317.00
1797, 2317.00
1798, 2316.00
1799, 2317.00
1800, 2318.00
1801, 2318.00
1802, 2315.00
1803, 2315.00
1804, 2315.00
1805, 2314.00
1806, 2314.00
1807, 2313.00
1808, 2312.00
1809, 2313.00
1810, 2312.00
1811, 2311.00
1812, 2313.00
1813, 2311.00
1814, 2309.00
1815, 2311.00
1816, 2309.00
1817, 2307.00
1818, 2306.00
1819, 2306.00
1820, 2305.00
1821, 2305.00
1822, 2302.00
1823, 2301.00
1824, 2299.00
1825, 2298.00
1826, 2297.00
1827, 2297.00
1828, 2295.00
1829, 2291.00
1830, 2292.00
1831, 2291.00
1832, 2291.00
1833, 2288.00
1834, 2287.00
1835, 2285.00
1836, 2283.00
1837, 2281.00
1838, 2279.00
1839, 2277.00
1840, 2274.00
1841, 2274.00
1842, 2272.00
1843, 2269.00
1844, 2268.00
1845, 2265.00
1846, 2264.00
1847, 2259.00
1848, 2261.00
1849, 2256.00
1850, 2254.00
1851, 2253.00
1852, 2251.00
1853, 2248.00
1854, 2245.00
1855, 2243.00
1856, 2241.00
1857, 2241.00
1858, 2236.00
1859, 2235.00
1860, 2234.00
1861, 2231.00
1862, 2230.00
1863, 2227.00
1864, 2227.00
1865, 2225.00
1866, 2223.00
1867, 2223.00
1868, 2221.00
1869, 2219.00
1870, 2216.00
1871, 2217.00
1872, 2216.00
1873, 2213.00
1874, 2213.00
1875, 2212.00
1876, 2211.00
1877, 2212.00
1878, 2208.00
1879, 2208.00
1880, 2209.00
1881, 2208.00
1882, 2207.00
1883, 2206.00
1884, 2206.00
1885, 2207.00
1886, 2203.00
1887, 2205.00
1888, 2205.00
1889, 2205.00
1890, 2201.00
1891, 2201.00
1892, 2202.00
1893, 2203.00
1894, 2202.00
1895, 2201.00
1896, 2201.00
1897, 2201.00
1898, 2199.00
1899, 2199.00
1900, 2197.00
1901, 2197.00
1902, 2199.00
1903, 2198.00
1904, 2197.00
1905, 2195.00
1906, 2196.00
1907, 2196.00
1908, 2194.00
1909, 2197.00
1910, 2196.00
1911, 2197.00
1912, 2195.00
1913, 2194.00
1914, 2197.00
1915, 2194.00
1916, 2195.00
1917, 2195.00
1918, 2195.00
1919, 2195.00
1920, 2195.00
1921, 2195.00
1922, 2195.00
1923, 2195.00
1924, 2195.00
1925, 2195.00
1926, 2195.00
1927, 2196.00
1928, 2195.00
1929, 2194.00
1930, 2195.00
1931, 2196.00
1932, 2195.00
1933, 2196.00
1934, 2195.00
1935, 2192.00
1936, 2192.00
1937, 2195.00
1938, 2197.00
1939, 2195.00
1940, 2195.00
1941, 2195.00
1942, 2195.00
1943, 2197.00
1944, 2196.00
1945, 2196.00
1946, 2195.00
1947, 2197.00
1948, 2195.00
1949, 2196.00
1950, 2197.00
1951, 2198.00
1952, 2197.00
1953, 2198.00
1954, 2199.00
1955, 2198.00
1956, 2199.00
1957, 2199.00
1958, 2199.00
1959, 2200.00
1960, 2203.00
1961, 2200.00
1962, 2200.00
1963, 2202.00
1964, 2201.00
1965, 2203.00
1966, 2202.00
1967, 2203.00
1968, 2203.00
1969, 2203.00
1970, 2205.00
1971, 2204.00
1972, 2205.00
1973, 2205.00
1974, 2204.00
1975, 2207.00
1976, 2208.00
1977, 2208.00
1978, 2208.00
1979, 2208.00
1980, 2211.00
1981, 2207.00
1982, 2209.00
1983, 2211.00
1984, 2211.00
1985, 2214.00
1986, 2212.00
1987, 2212.00
1988, 2213.00
1989, 2213.00
1990, 2213.00
1991, 2215.00
1992, 2216.00
1993, 2214.00
1994, 2216.00
1995, 2215.00
1996, 2217.00
1997, 2216.00
1998, 2217.00
1999, 2217.00
2000, 2218.00
2001, 2217.00
2002, 2219.00
2003, 2218.00
2004, 2219.00
2005, 2220.00
2006, 2221.00
2007, 2221.00
2008, 2221.00
2009, 2223.00
2010, 2222.00
2011, 2224.00
2012, 2224.00
2013, 2224.00
2014, 2225.00
2015, 2225.00
2016, 2225.00
2017, 2225.00
2018, 2228.00
2019, 2228.00
2020, 2228.00
2021, 2229.00
2022, 2228.00
2023, 2229.00
2024, 2231.00
2025, 2231.00
2026, 2230.00
2027, 2231.00
2028, 2231.00
2029, 2231.00
2030, 2232.00
2031, 2232.00
2032, 2233.00
2033, 2237.00
2034, 2234.00
2035, 2236.00
2036, 2236.00
2037, 2236.00
2038, 2237.00
2039, 2239.00
2040, 2240.00
2041, 2240.00
2042, 2237.00
2043, 2242.00
2044, 2242.00
2045, 2242.00
2046, 2242.00
2047, 2243.00
2048, 2243.00
2049, 2245.00
2050, 2245.00
2051, 2247.00
2052, 2247.00
2053, 2249.00
2054, 2248.00
2055, 2251.00
2056, 2251.00
2057, 2251.00
2058, 2253.00
2059, 2253.00
2060, 2252.00
2061, 2255.00
2062, 2253.00
2063, 2256.00
2064, 2256.00
2065, 2257.00
2066, 2257.00
2067, 2258.00
2068, 2259.00
2069, 2260.00
2070, 2261.00
2071, 2264.00
2072, 2262.00
2073, 2263.00
2074, 2265.00
2075, 2264.00
2076, 2265.00
2077, 2268.00
2078, 2266.00
2079, 2267.00
2080, 2269.00
2081, 2270.00
2082, 2269.00
2083, 2269.00
2084, 2271.00
2085, 2271.00
2086, 2274.00
2087, 2272.00
2088, 2275.00
2089, 2275.00
2090, 2276.00
2091, 2274.00
2092, 2275.00
2093, 2278.00
2094, 2279.00
2095, 2278.00
2096, 2279.00
2097, 2279.00
2098, 2278.00
2099, 2280.00
2100, 2278.00
2101, 2282.00
2102, 2281.00
2103, 2281.00
2104, 2281.00
2105, 2282.00
2106, 2283.00
2107, 2282.00
2108, 2284.00
2109, 2284.00
2110, 2283.00
2111, 2284.00
2112, 2285.00
2113, 2285.00
2114, 2286.00
2115, 2287.00
2116, 2287.00
2117, 2286.00
2118, 2285.00
2119, 2288.00
2120, 2287.00
2121, 2288.00
2122, 2289.00
2123, 2289.00
2124, 2290.00
2125, 2290.00
2126, 2291.00
2127, 2291.00
2128, 2289.00
2129, 2291.00
2130, 2291.00
2131, 2292.00
2132, 2292.00
2133, 2292.00
2134, 2296.00
2135, 2290.00
2136, 2294.00
2137, 2295.00
2138, 2295.00
2139, 2293.00
2140, 2295.00
2141, 2296.00
2142, 2296.00
2143, 2296.00
2144, 2296.00
2145, 2295.00
2146, 2296.00
2147, 2295.00
2148, 2296.00
2149, 2297.00
2150, 2295.00
