FW version: 24
Log Version: 3.0.3

General Info:
       Command/Macro Performed,            Timestamp,             Device ID, COM Port, UART/I2C, Test Name, Host Major, Host Minor, Host Revision, Host Git Commit
            Single_measurement,  2023_06_28_11_19_37,       Insight2_F4_xxx,    USB-C,      USB,          ,          0,          1,             1,      4031237645

Show Spectrometer Status:
l0_version, f4_version, battery_perc, battery_mVolt, accelerometer_temp, accelerometer_x, accelerometer_y, accelerometer_z, compass_temp, compass_x, compass_y, compass_z, lamp_0, lamp_1, gain_0, gain_1
        17,         24,           39,          1887,               6352,           65288,             932,           18800,            0,     65420,     65460,     18808,   3276,   3276,      0,      0

Temperature Statistic Info:
NTC AVG [°C], NTC2 AVG [°C]
      39.056,        38.739

Statistic Info:
M1:  num,      min,      max,   median,      AVG,      STD,M2:  num,      min,      max,   median,      AVG,      STD
     301,   577.00,   660.00,   594.00,   603.80,  25.6850,     401,   759.00,   809.00,   779.00,   780.56,  15.9392,

Measurements:
Wavelength, Data Amplitude
1350, 592.00
1351, 592.00
1352, 592.00
1353, 592.00
1354, 592.00
1355, 591.00
1356, 591.00
1357, 590.00
1358, 590.00
1359, 589.00
1360, 590.00
1361, 589.00
1362, 589.00
1363, 588.00
1364, 588.00
1365, 587.00
1366, 587.00
1367, 587.00
1368, 586.00
1369, 586.00
1370, 586.00
1371, 585.00
1372, 585.00
1373, 584.00
1374, 584.00
1375, 584.00
1376, 584.00
1377, 583.00
1378, 582.00
1379, 582.00
1380, 582.00
1381, 582.00
1382, 581.00
1383, 581.00
1384, 580.00
1385, 580.00
1386, 580.00
1387, 580.00
1388, 580.00
1389, 580.00
1390, 579.00
1391, 578.00
1392, 579.00
1393, 579.00
1394, 579.00
1395, 578.00
1396, 579.00
1397, 578.00
1398, 578.00
1399, 578.00
1400, 578.00
1401, 578.00
1402, 578.00
1403, 578.00
1404, 577.00
1405, 577.00
1406, 577.00
1407, 578.00
1408, 577.00
1409, 577.00
1410, 577.00
1411, 577.00
1412, 577.00
1413, 577.00
1414, 577.00
1415, 577.00
1416, 577.00
1417, 577.00
1418, 577.00
1419, 577.00
1420, 577.00
1421, 577.00
1422, 577.00
1423, 577.00
1424, 577.00
1425, 577.00
1426, 577.00
1427, 577.00
1428, 577.00
1429, 577.00
1430, 577.00
1431, 577.00
1432, 577.00
1433, 577.00
1434, 577.00
1435, 577.00
1436, 578.00
1437, 578.00
1438, 577.00
1439, 578.00
1440, 578.00
1441, 578.00
1442, 578.00
1443, 578.00
1444, 578.00
1445, 578.00
1446, 579.00
1447, 579.00
1448, 579.00
1449, 579.00
1450, 579.00
1451, 579.00
1452, 580.00
1453, 580.00
1454, 581.00
1455, 581.00
1456, 581.00
1457, 581.00
1458, 581.00
1459, 581.00
1460, 581.00
1461, 582.00
1462, 582.00
1463, 582.00
1464, 582.00
1465, 582.00
1466, 583.00
1467, 583.00
1468, 583.00
1469, 584.00
1470, 583.00
1471, 584.00
1472, 584.00
1473, 584.00
1474, 585.00
1475, 585.00
1476, 585.00
1477, 586.00
1478, 586.00
1479, 586.00
1480, 586.00
1481, 587.00
1482, 587.00
1483, 588.00
1484, 588.00
1485, 588.00
1486, 589.00
1487, 589.00
1488, 589.00
1489, 590.00
1490, 590.00
1491, 591.00
1492, 591.00
1493, 591.00
1494, 591.00
1495, 592.00
1496, 592.00
1497, 592.00
1498, 593.00
1499, 593.00
1500, 594.00
1501, 594.00
1502, 594.00
1503, 594.00
1504, 594.00
1505, 595.00
1506, 595.00
1507, 595.00
1508, 596.00
1509, 596.00
1510, 597.00
1511, 597.00
1512, 597.00
1513, 598.00
1514, 598.00
1515, 599.00
1516, 599.00
1517, 599.00
1518, 599.00
1519, 600.00
1520, 600.00
1521, 601.00
1522, 602.00
1523, 602.00
1524, 603.00
1525, 603.00
1526, 603.00
1527, 604.00
1528, 604.00
1529, 604.00
1530, 605.00
1531, 605.00
1532, 606.00
1533, 606.00
1534, 607.00
1535, 607.00
1536, 607.00
1537, 608.00
1538, 608.00
1539, 609.00
1540, 610.00
1541, 609.00
1542, 610.00
1543, 610.00
1544, 611.00
1545, 611.00
1546, 612.00
1547, 612.00
1548, 612.00
1549, 613.00
1550, 613.00
1551, 614.00
1552, 614.00
1553, 614.00
1554, 615.00
1555, 615.00
1556, 616.00
1557, 616.00
1558, 617.00
1559, 618.00
1560, 618.00
1561, 619.00
1562, 619.00
1563, 620.00
1564, 620.00
1565, 621.00
1566, 620.00
1567, 621.00
1568, 621.00
1569, 622.00
1570, 623.00
1571, 623.00
1572, 624.00
1573, 624.00
1574, 625.00
1575, 625.00
1576, 625.00
1577, 626.00
1578, 626.00
1579, 626.00
1580, 627.00
1581, 627.00
1582, 628.00
1583, 628.00
1584, 629.00
1585, 629.00
1586, 629.00
1587, 630.00
1588, 630.00
1589, 631.00
1590, 631.00
1591, 632.00
1592, 632.00
1593, 633.00
1594, 633.00
1595, 634.00
1596, 634.00
1597, 634.00
1598, 635.00
1599, 635.00
1600, 636.00
1601, 636.00
1602, 637.00
1603, 637.00
1604, 637.00
1605, 638.00
1606, 638.00
1607, 638.00
1608, 639.00
1609, 639.00
1610, 640.00
1611, 641.00
1612, 641.00
1613, 641.00
1614, 642.00
1615, 642.00
1616, 643.00
1617, 644.00
1618, 644.00
1619, 644.00
1620, 646.00
1621, 646.00
1622, 647.00
1623, 647.00
1624, 648.00
1625, 648.00
1626, 648.00
1627, 649.00
1628, 649.00
1629, 650.00
1630, 650.00
1631, 651.00
1632, 651.00
1633, 652.00
1634, 652.00
1635, 652.00
1636, 653.00
1637, 653.00
1638, 654.00
1639, 654.00
1640, 655.00
1641, 655.00
1642, 656.00
1643, 656.00
1644, 657.00
1645, 657.00
1646, 658.00
1647, 658.00
1648, 658.00
1649, 659.00
1650, 660.00

1750, 809.00
1751, 808.00
1752, 808.00
1753, 809.00
1754, 808.00
1755, 807.00
1756, 808.00
1757, 808.00
1758, 808.00
1759, 808.00
1760, 807.00
1761, 808.00
1762, 807.00
1763, 808.00
1764, 808.00
1765, 808.00
1766, 808.00
1767, 808.00
1768, 808.00
1769, 807.00
1770, 808.00
1771, 807.00
1772, 807.00
1773, 807.00
1774, 806.00
1775, 807.00
1776, 807.00
1777, 806.00
1778, 807.00
1779, 806.00
1780, 806.00
1781, 805.00
1782, 805.00
1783, 806.00
1784, 805.00
1785, 805.00
1786, 805.00
1787, 805.00
1788, 805.00
1789, 805.00
1790, 804.00
1791, 804.00
1792, 804.00
1793, 803.00
1794, 804.00
1795, 804.00
1796, 802.00
1797, 803.00
1798, 802.00
1799, 802.00
1800, 803.00
1801, 803.00
1802, 802.00
1803, 803.00
1804, 802.00
1805, 802.00
1806, 801.00
1807, 802.00
1808, 802.00
1809, 802.00
1810, 801.00
1811, 800.00
1812, 801.00
1813, 800.00
1814, 801.00
1815, 800.00
1816, 801.00
1817, 800.00
1818, 799.00
1819, 799.00
1820, 799.00
1821, 799.00
1822, 798.00
1823, 797.00
1824, 797.00
1825, 797.00
1826, 796.00
1827, 796.00
1828, 796.00
1829, 795.00
1830, 795.00
1831, 794.00
1832, 794.00
1833, 793.00
1834, 792.00
1835, 792.00
1836, 791.00
1837, 790.00
1838, 790.00
1839, 789.00
1840, 789.00
1841, 787.00
1842, 787.00
1843, 786.00
1844, 786.00
1845, 785.00
1846, 784.00
1847, 784.00
1848, 783.00
1849, 782.00
1850, 781.00
1851, 780.00
1852, 780.00
1853, 779.00
1854, 778.00
1855, 778.00
1856, 777.00
1857, 776.00
1858, 776.00
1859, 775.00
1860, 774.00
1861, 774.00
1862, 773.00
1863, 772.00
1864, 771.00
1865, 771.00
1866, 771.00
1867, 770.00
1868, 769.00
1869, 769.00
1870, 769.00
1871, 768.00
1872, 767.00
1873, 767.00
1874, 766.00
1875, 766.00
1876, 766.00
1877, 766.00
1878, 765.00
1879, 765.00
1880, 764.00
1881, 764.00
1882, 764.00
1883, 764.00
1884, 763.00
1885, 763.00
1886, 764.00
1887, 764.00
1888, 763.00
1889, 764.00
1890, 763.00
1891, 764.00
1892, 763.00
1893, 763.00
1894, 763.00
1895, 762.00
1896, 763.00
1897, 762.00
1898, 762.00
1899, 762.00
1900, 762.00
1901, 761.00
1902, 762.00
1903, 761.00
1904, 761.00
1905, 762.00
1906, 761.00
1907, 761.00
1908, 761.00
1909, 760.00
1910, 760.00
1911, 760.00
1912, 761.00
1913, 761.00
1914, 760.00
1915, 760.00
1916, 760.00
1917, 760.00
1918, 760.00
1919, 760.00
1920, 760.00
1921, 761.00
1922, 759.00
1923, 760.00
1924, 759.00
1925, 760.00
1926, 760.00
1927, 760.00
1928, 760.00
1929, 760.00
1930, 760.00
1931, 761.00
1932, 760.00
1933, 760.00
1934, 760.00
1935, 760.00
1936, 761.00
1937, 760.00
1938, 760.00
1939, 761.00
1940, 760.00
1941, 761.00
1942, 761.00
1943, 760.00
1944, 761.00
1945, 761.00
1946, 760.00
1947, 760.00
1948, 761.00
1949, 760.00
1950, 761.00
1951, 761.00
1952, 761.00
1953, 761.00
1954, 761.00
1955, 761.00
1956, 762.00
1957, 762.00
1958, 762.00
1959, 762.00
1960, 762.00
1961, 762.00
1962, 763.00
1963, 763.00
1964, 763.00
1965, 763.00
1966, 763.00
1967, 763.00
1968, 763.00
1969, 763.00
1970, 764.00
1971, 764.00
1972, 764.00
1973, 763.00
1974, 764.00
1975, 764.00
1976, 764.00
1977, 764.00
1978, 765.00
1979, 764.00
1980, 765.00
1981, 765.00
1982, 765.00
1983, 765.00
1984, 765.00
1985, 766.00
1986, 766.00
1987, 765.00
1988, 766.00
1989, 766.00
1990, 767.00
1991, 767.00
1992, 768.00
1993, 767.00
1994, 767.00
1995, 768.00
1996, 767.00
1997, 769.00
1998, 768.00
1999, 768.00
2000, 768.00
2001, 769.00
2002, 768.00
2003, 769.00
2004, 769.00
2005, 769.00
2006, 769.00
2007, 769.00
2008, 769.00
2009, 770.00
2010, 770.00
2011, 770.00
2012, 770.00
2013, 770.00
2014, 770.00
2015, 771.00
2016, 771.00
2017, 771.00
2018, 771.00
2019, 772.00
2020, 771.00
2021, 772.00
2022, 772.00
2023, 772.00
2024, 773.00
2025, 773.00
2026, 773.00
2027, 772.00
2028, 773.00
2029, 773.00
2030, 773.00
2031, 774.00
2032, 774.00
2033, 774.00
2034, 774.00
2035, 774.00
2036, 774.00
2037, 775.00
2038, 774.00
2039, 775.00
2040, 775.00
2041, 775.00
2042, 776.00
2043, 777.00
2044, 777.00
2045, 777.00
2046, 777.00
2047, 777.00
2048, 778.00
2049, 777.00
2050, 778.00
2051, 778.00
2052, 779.00
2053, 779.00
2054, 779.00
2055, 779.00
2056, 779.00
2057, 779.00
2058, 781.00
2059, 781.00
2060, 780.00
2061, 780.00
2062, 781.00
2063, 781.00
2064, 781.00
2065, 782.00
2066, 783.00
2067, 782.00
2068, 783.00
2069, 783.00
2070, 784.00
2071, 783.00
2072, 783.00
2073, 784.00
2074, 784.00
2075, 784.00
2076, 785.00
2077, 785.00
2078, 785.00
2079, 785.00
2080, 786.00
2081, 786.00
2082, 786.00
2083, 786.00
2084, 786.00
2085, 787.00
2086, 787.00
2087, 787.00
2088, 788.00
2089, 788.00
2090, 788.00
2091, 789.00
2092, 788.00
2093, 788.00
2094, 788.00
2095, 789.00
2096, 789.00
2097, 789.00
2098, 790.00
2099, 789.00
2100, 790.00
2101, 791.00
2102, 790.00
2103, 790.00
2104, 790.00
2105, 790.00
2106, 791.00
2107, 791.00
2108, 791.00
2109, 791.00
2110, 791.00
2111, 791.00
2112, 791.00
2113, 791.00
2114, 792.00
2115, 792.00
2116, 792.00
2117, 792.00
2118, 792.00
2119, 793.00
2120, 793.00
2121, 792.00
2122, 793.00
2123, 793.00
2124, 793.00
2125, 793.00
2126, 794.00
2127, 794.00
2128, 793.00
2129, 794.00
2130, 793.00
2131, 793.00
2132, 794.00
2133, 793.00
2134, 794.00
2135, 794.00
2136, 794.00
2137, 795.00
2138, 794.00
2139, 794.00
2140, 795.00
2141, 795.00
2142, 794.00
2143, 795.00
2144, 795.00
2145, 796.00
2146, 796.00
2147, 796.00
2148, 795.00
2149, 795.00
2150, 796.00
