FW version: 24
Log Version: 3.0.3

General Info:
       Command/Macro Performed,            Timestamp,             Device ID, COM Port, UART/I2C, Test Name, Host Major, Host Minor, Host Revision, Host Git Commit
            Single_measurement,  2023_06_28_11_20_16,       Insight2_F4_xxx,    USB-C,      USB,          ,          0,          1,             1,      4031237645

Show Spectrometer Status:
l0_version, f4_version, battery_perc, battery_mVolt, accelerometer_temp, accelerometer_x, accelerometer_y, accelerometer_z, compass_temp, compass_x, compass_y, compass_z, lamp_0, lamp_1, gain_0, gain_1
        17,         24,           39,          1888,               6384,           65304,             704,           18760,            0,     65436,     65487,     18797,   2457,   2457,      1,      1

Temperature Statistic Info:
NTC AVG [°C], NTC2 AVG [°C]
      39.293,        38.940

Statistic Info:
M1:  num,      min,      max,   median,      AVG,      STD,M2:  num,      min,      max,   median,      AVG,      STD
     301,   961.00,  1113.00,   993.00,  1010.74,  46.5299,     401,  1366.00,  1455.00,  1403.00,  1405.45,  28.9148,

Measurements:
Wavelength, Data Amplitude
1350, 986.00
1351, 986.00
1352, 986.00
1353, 984.00
1354, 984.00
1355, 984.00
1356, 983.00
1357, 982.00
1358, 982.00
1359, 982.00
1360, 981.00
1361, 981.00
1362, 981.00
1363, 979.00
1364, 978.00
1365, 979.00
1366, 977.00
1367, 977.00
1368, 976.00
1369, 975.00
1370, 974.00
1371, 974.00
1372, 973.00
1373, 973.00
1374, 972.00
1375, 972.00
1376, 971.00
1377, 971.00
1378, 970.00
1379, 970.00
1380, 969.00
1381, 968.00
1382, 968.00
1383, 968.00
1384, 967.00
1385, 967.00
1386, 966.00
1387, 966.00
1388, 965.00
1389, 966.00
1390, 965.00
1391, 964.00
1392, 965.00
1393, 964.00
1394, 963.00
1395, 965.00
1396, 965.00
1397, 965.00
1398, 963.00
1399, 963.00
1400, 963.00
1401, 963.00
1402, 964.00
1403, 963.00
1404, 962.00
1405, 963.00
1406, 963.00
1407, 963.00
1408, 963.00
1409, 963.00
1410, 963.00
1411, 962.00
1412, 962.00
1413, 962.00
1414, 962.00
1415, 962.00
1416, 962.00
1417, 963.00
1418, 961.00
1419, 962.00
1420, 962.00
1421, 962.00
1422, 962.00
1423, 962.00
1424, 963.00
1425, 961.00
1426, 962.00
1427, 962.00
1428, 962.00
1429, 963.00
1430, 963.00
1431, 962.00
1432, 963.00
1433, 963.00
1434, 964.00
1435, 964.00
1436, 963.00
1437, 965.00
1438, 965.00
1439, 964.00
1440, 965.00
1441, 965.00
1442, 966.00
1443, 966.00
1444, 967.00
1445, 966.00
1446, 967.00
1447, 966.00
1448, 967.00
1449, 968.00
1450, 966.00
1451, 968.00
1452, 968.00
1453, 969.00
1454, 969.00
1455, 969.00
1456, 970.00
1457, 970.00
1458, 970.00
1459, 970.00
1460, 971.00
1461, 971.00
1462, 971.00
1463, 971.00
1464, 973.00
1465, 973.00
1466, 973.00
1467, 974.00
1468, 973.00
1469, 975.00
1470, 975.00
1471, 975.00
1472, 977.00
1473, 976.00
1474, 978.00
1475, 977.00
1476, 978.00
1477, 979.00
1478, 980.00
1479, 980.00
1480, 980.00
1481, 981.00
1482, 982.00
1483, 981.00
1484, 983.00
1485, 984.00
1486, 985.00
1487, 985.00
1488, 987.00
1489, 985.00
1490, 987.00
1491, 989.00
1492, 989.00
1493, 989.00
1494, 989.00
1495, 990.00
1496, 989.00
1497, 991.00
1498, 992.00
1499, 992.00
1500, 994.00
1501, 993.00
1502, 994.00
1503, 995.00
1504, 997.00
1505, 996.00
1506, 997.00
1507, 997.00
1508, 998.00
1509, 999.00
1510, 999.00
1511, 999.00
1512, 1001.00
1513, 1001.00
1514, 1002.00
1515, 1002.00
1516, 1004.00
1517, 1004.00
1518, 1006.00
1519, 1006.00
1520, 1006.00
1521, 1007.00
1522, 1009.00
1523, 1009.00
1524, 1009.00
1525, 1010.00
1526, 1011.00
1527, 1012.00
1528, 1013.00
1529, 1013.00
1530, 1015.00
1531, 1015.00
1532, 1015.00
1533, 1017.00
1534, 1016.00
1535, 1018.00
1536, 1019.00
1537, 1019.00
1538, 1020.00
1539, 1020.00
1540, 1021.00
1541, 1021.00
1542, 1023.00
1543, 1023.00
1544, 1024.00
1545, 1025.00
1546, 1026.00
1547, 1027.00
1548, 1028.00
1549, 1029.00
1550, 1029.00
1551, 1030.00
1552, 1032.00
1553, 1031.00
1554, 1032.00
1555, 1033.00
1556, 1033.00
1557, 1034.00
1558, 1035.00
1559, 1037.00
1560, 1036.00
1561, 1037.00
1562, 1039.00
1563, 1040.00
1564, 1041.00
1565, 1042.00
1566, 1041.00
1567, 1043.00
1568, 1044.00
1569, 1044.00
1570, 1045.00
1571, 1046.00
1572, 1045.00
1573, 1047.00
1574, 1048.00
1575, 1048.00
1576, 1049.00
1577, 1050.00
1578, 1051.00
1579, 1052.00
1580, 1053.00
1581, 1054.00
1582, 1054.00
1583, 1056.00
1584, 1056.00
1585, 1056.00
1586, 1056.00
1587, 1058.00
1588, 1058.00
1589, 1059.00
1590, 1059.00
1591, 1061.00
1592, 1061.00
1593, 1063.00
1594, 1063.00
1595, 1064.00
1596, 1065.00
1597, 1065.00
1598, 1065.00
1599, 1067.00
1600, 1068.00
1601, 1069.00
1602, 1068.00
1603, 1069.00
1604, 1070.00
1605, 1072.00
1606, 1073.00
1607, 1073.00
1608, 1074.00
1609, 1075.00
1610, 1076.00
1611, 1077.00
1612, 1078.00
1613, 1078.00
1614, 1079.00
1615, 1081.00
1616, 1082.00
1617, 1083.00
1618, 1084.00
1619, 1085.00
1620, 1085.00
1621, 1087.00
1622, 1088.00
1623, 1089.00
1624, 1089.00
1625, 1090.00
1626, 1091.00
1627, 1092.00
1628, 1093.00
1629, 1095.00
1630, 1095.00
1631, 1096.00
1632, 1097.00
1633, 1098.00
1634, 1098.00
1635, 1099.00
1636, 1100.00
1637, 1101.00
1638, 1101.00
1639, 1102.00
1640, 1102.00
1641, 1104.00
1642, 1104.00
1643, 1105.00
1644, 1105.00
1645, 1107.00
1646, 1108.00
1647, 1108.00
1648, 1109.00
1649, 1111.00
1650, 1113.00

1750, 1453.00
1751, 1452.00
1752, 1454.00
1753, 1454.00
1754, 1453.00
1755, 1455.00
1756, 1453.00
1757, 1455.00
1758, 1454.00
1759, 1455.00
1760, 1453.00
1761, 1454.00
1762, 1452.00
1763, 1452.00
1764, 1452.00
1765, 1453.00
1766, 1452.00
1767, 1452.00
1768, 1453.00
1769, 1453.00
1770, 1454.00
1771, 1452.00
1772, 1450.00
1773, 1453.00
1774, 1450.00
1775, 1452.00
1776, 1449.00
1777, 1453.00
1778, 1451.00
1779, 1450.00
1780, 1451.00
1781, 1450.00
1782, 1448.00
1783, 1448.00
1784, 1449.00
1785, 1447.00
1786, 1447.00
1787, 1447.00
1788, 1449.00
1789, 1446.00
1790, 1447.00
1791, 1445.00
1792, 1445.00
1793, 1445.00
1794, 1445.00
1795, 1445.00
1796, 1444.00
1797, 1446.00
1798, 1445.00
1799, 1445.00
1800, 1444.00
1801, 1445.00
1802, 1444.00
1803, 1444.00
1804, 1443.00
1805, 1441.00
1806, 1441.00
1807, 1442.00
1808, 1444.00
1809, 1441.00
1810, 1443.00
1811, 1441.00
1812, 1440.00
1813, 1441.00
1814, 1441.00
1815, 1441.00
1816, 1438.00
1817, 1438.00
1818, 1437.00
1819, 1438.00
1820, 1436.00
1821, 1437.00
1822, 1435.00
1823, 1434.00
1824, 1433.00
1825, 1435.00
1826, 1433.00
1827, 1431.00
1828, 1433.00
1829, 1429.00
1830, 1430.00
1831, 1429.00
1832, 1428.00
1833, 1428.00
1834, 1427.00
1835, 1424.00
1836, 1424.00
1837, 1422.00
1838, 1421.00
1839, 1420.00
1840, 1419.00
1841, 1419.00
1842, 1416.00
1843, 1416.00
1844, 1414.00
1845, 1413.00
1846, 1412.00
1847, 1410.00
1848, 1409.00
1849, 1409.00
1850, 1405.00
1851, 1404.00
1852, 1403.00
1853, 1402.00
1854, 1401.00
1855, 1399.00
1856, 1397.00
1857, 1396.00
1858, 1394.00
1859, 1395.00
1860, 1393.00
1861, 1391.00
1862, 1391.00
1863, 1389.00
1864, 1389.00
1865, 1388.00
1866, 1386.00
1867, 1383.00
1868, 1385.00
1869, 1385.00
1870, 1384.00
1871, 1381.00
1872, 1381.00
1873, 1381.00
1874, 1381.00
1875, 1378.00
1876, 1381.00
1877, 1377.00
1878, 1376.00
1879, 1376.00
1880, 1376.00
1881, 1375.00
1882, 1376.00
1883, 1375.00
1884, 1376.00
1885, 1374.00
1886, 1374.00
1887, 1373.00
1888, 1374.00
1889, 1374.00
1890, 1373.00
1891, 1372.00
1892, 1374.00
1893, 1372.00
1894, 1372.00
1895, 1372.00
1896, 1371.00
1897, 1372.00
1898, 1368.00
1899, 1369.00
1900, 1369.00
1901, 1370.00
1902, 1369.00
1903, 1371.00
1904, 1370.00
1905, 1369.00
1906, 1369.00
1907, 1368.00
1908, 1369.00
1909, 1369.00
1910, 1368.00
1911, 1369.00
1912, 1369.00
1913, 1369.00
1914, 1367.00
1915, 1369.00
1916, 1366.00
1917, 1369.00
1918, 1367.00
1919, 1368.00
1920, 1369.00
1921, 1368.00
1922, 1367.00
1923, 1367.00
1924, 1367.00
1925, 1367.00
1926, 1368.00
1927, 1367.00
1928, 1368.00
1929, 1368.00
1930, 1368.00
1931, 1369.00
1932, 1368.00
1933, 1368.00
1934, 1367.00
1935, 1368.00
1936, 1367.00
1937, 1369.00
1938, 1367.00
1939, 1367.00
1940, 1369.00
1941, 1368.00
1942, 1368.00
1943, 1368.00
1944, 1369.00
1945, 1370.00
1946, 1367.00
1947, 1370.00
1948, 1369.00
1949, 1369.00
1950, 1370.00
1951, 1371.00
1952, 1369.00
1953, 1369.00
1954, 1372.00
1955, 1370.00
1956, 1371.00
1957, 1369.00
1958, 1371.00
1959, 1371.00
1960, 1371.00
1961, 1372.00
1962, 1373.00
1963, 1373.00
1964, 1373.00
1965, 1373.00
1966, 1373.00
1967, 1372.00
1968, 1375.00
1969, 1375.00
1970, 1375.00
1971, 1375.00
1972, 1375.00
1973, 1374.00
1974, 1375.00
1975, 1376.00
1976, 1375.00
1977, 1375.00
1978, 1375.00
1979, 1374.00
1980, 1375.00
1981, 1377.00
1982, 1377.00
1983, 1378.00
1984, 1379.00
1985, 1379.00
1986, 1379.00
1987, 1379.00
1988, 1380.00
1989, 1380.00
1990, 1380.00
1991, 1382.00
1992, 1381.00
1993, 1381.00
1994, 1380.00
1995, 1383.00
1996, 1381.00
1997, 1382.00
1998, 1384.00
1999, 1384.00
2000, 1382.00
2001, 1383.00
2002, 1384.00
2003, 1384.00
2004, 1386.00
2005, 1385.00
2006, 1385.00
2007, 1385.00
2008, 1387.00
2009, 1387.00
2010, 1385.00
2011, 1387.00
2012, 1387.00
2013, 1386.00
2014, 1387.00
2015, 1386.00
2016, 1387.00
2017, 1389.00
2018, 1389.00
2019, 1389.00
2020, 1390.00
2021, 1389.00
2022, 1390.00
2023, 1390.00
2024, 1391.00
2025, 1393.00
2026, 1392.00
2027, 1392.00
2028, 1393.00
2029, 1394.00
2030, 1393.00
2031, 1394.00
2032, 1393.00
2033, 1395.00
2034, 1394.00
2035, 1394.00
2036, 1395.00
2037, 1396.00
2038, 1395.00
2039, 1395.00
2040, 1397.00
2041, 1396.00
2042, 1399.00
2043, 1397.00
2044, 1399.00
2045, 1398.00
2046, 1399.00
2047, 1399.00
2048, 1401.00
2049, 1401.00
2050, 1401.00
2051, 1401.00
2052, 1403.00
2053, 1402.00
2054, 1405.00
2055, 1405.00
2056, 1404.00
2057, 1405.00
2058, 1406.00
2059, 1406.00
2060, 1407.00
2061, 1407.00
2062, 1408.00
2063, 1408.00
2064, 1410.00
2065, 1409.00
2066, 1410.00
2067, 1411.00
2068, 1412.00
2069, 1411.00
2070, 1412.00
2071, 1412.00
2072, 1413.00
2073, 1414.00
2074, 1413.00
2075, 1412.00
2076, 1415.00
2077, 1416.00
2078, 1416.00
2079, 1416.00
2080, 1415.00
2081, 1416.00
2082, 1417.00
2083, 1417.00
2084, 1418.00
2085, 1418.00
2086, 1419.00
2087, 1418.00
2088, 1421.00
2089, 1421.00
2090, 1420.00
2091, 1422.00
2092, 1422.00
2093, 1420.00
2094, 1421.00
2095, 1423.00
2096, 1423.00
2097, 1424.00
2098, 1423.00
2099, 1423.00
2100, 1425.00
2101, 1424.00
2102, 1425.00
2103, 1425.00
2104, 1425.00
2105, 1425.00
2106, 1426.00
2107, 1425.00
2108, 1427.00
2109, 1428.00
2110, 1428.00
2111, 1428.00
2112, 1429.00
2113, 1428.00
2114, 1427.00
2115, 1428.00
2116, 1428.00
2117, 1428.00
2118, 1429.00
2119, 1430.00
2120, 1431.00
2121, 1429.00
2122, 1432.00
2123, 1429.00
2124, 1433.00
2125, 1431.00
2126, 1431.00
2127, 1431.00
2128, 1432.00
2129, 1432.00
2130, 1432.00
2131, 1430.00
2132, 1432.00
2133, 1432.00
2134, 1431.00
2135, 1432.00
2136, 1433.00
2137, 1433.00
2138, 1433.00
2139, 1434.00
2140, 1433.00
2141, 1432.00
2142, 1435.00
2143, 1435.00
2144, 1435.00
2145, 1433.00
2146, 1437.00
2147, 1435.00
2148, 1436.00
2149, 1436.00
2150, 1434.00
