FW version: 24
Log Version: 3.0.3

General Info:
       Command/Macro Performed,            Timestamp,             Device ID, COM Port, UART/I2C, Test Name, Host Major, Host Minor, Host Revision, Host Git Commit
            Single_measurement,  2023_06_29_11_29_39,       Insight2_F4_xxx,    USB-C,      USB,          ,          0,          1,             1,      4031237645

Show Spectrometer Status:
l0_version, f4_version, battery_perc, battery_mVolt, accelerometer_temp, accelerometer_x, accelerometer_y, accelerometer_z, compass_temp, compass_x, compass_y, compass_z, lamp_0, lamp_1, gain_0, gain_1
        17,         24,           94,          2077,               5648,           65452,             188,           18384,            0,     65517,     65533,     65497,   2047,   2047,      1,      1

Temperature Statistic Info:
NTC AVG [°C], NTC2 AVG [°C]
      36.722,        36.380

Statistic Info:
M1:  num,      min,      max,   median,      AVG,      STD,M2:  num,      min,      max,   median,      AVG,      STD
     301,   761.00,   879.00,   787.00,   801.13,  37.3980,     401,  1128.00,  1204.00,  1162.00,  1164.12,  25.2202,

Measurements:
Wavelength, Data Amplitude
1350, 779.00
1351, 778.00
1352, 777.00
1353, 779.00
1354, 776.00
1355, 777.00
1356, 778.00
1357, 776.00
1358, 776.00
1359, 776.00
1360, 776.00
1361, 775.00
1362, 775.00
1363, 775.00
1364, 774.00
1365, 773.00
1366, 773.00
1367, 773.00
1368, 772.00
1369, 772.00
1370, 771.00
1371, 771.00
1372, 770.00
1373, 769.00
1374, 769.00
1375, 769.00
1376, 768.00
1377, 767.00
1378, 767.00
1379, 767.00
1380, 767.00
1381, 766.00
1382, 765.00
1383, 765.00
1384, 765.00
1385, 765.00
1386, 765.00
1387, 765.00
1388, 765.00
1389, 763.00
1390, 764.00
1391, 764.00
1392, 763.00
1393, 763.00
1394, 764.00
1395, 763.00
1396, 762.00
1397, 763.00
1398, 763.00
1399, 762.00
1400, 763.00
1401, 762.00
1402, 763.00
1403, 763.00
1404, 761.00
1405, 762.00
1406, 763.00
1407, 762.00
1408, 762.00
1409, 763.00
1410, 761.00
1411, 762.00
1412, 762.00
1413, 762.00
1414, 762.00
1415, 761.00
1416, 762.00
1417, 762.00
1418, 761.00
1419, 762.00
1420, 763.00
1421, 762.00
1422, 761.00
1423, 763.00
1424, 763.00
1425, 762.00
1426, 762.00
1427, 762.00
1428, 762.00
1429, 762.00
1430, 762.00
1431, 762.00
1432, 763.00
1433, 763.00
1434, 763.00
1435, 764.00
1436, 763.00
1437, 764.00
1438, 764.00
1439, 763.00
1440, 764.00
1441, 764.00
1442, 765.00
1443, 764.00
1444, 765.00
1445, 765.00
1446, 765.00
1447, 766.00
1448, 766.00
1449, 766.00
1450, 767.00
1451, 766.00
1452, 768.00
1453, 768.00
1454, 767.00
1455, 768.00
1456, 768.00
1457, 768.00
1458, 769.00
1459, 768.00
1460, 769.00
1461, 769.00
1462, 770.00
1463, 771.00
1464, 771.00
1465, 771.00
1466, 772.00
1467, 771.00
1468, 773.00
1469, 772.00
1470, 773.00
1471, 774.00
1472, 774.00
1473, 774.00
1474, 775.00
1475, 775.00
1476, 776.00
1477, 776.00
1478, 776.00
1479, 777.00
1480, 777.00
1481, 777.00
1482, 778.00
1483, 778.00
1484, 779.00
1485, 780.00
1486, 781.00
1487, 781.00
1488, 781.00
1489, 782.00
1490, 782.00
1491, 783.00
1492, 783.00
1493, 785.00
1494, 784.00
1495, 786.00
1496, 786.00
1497, 786.00
1498, 787.00
1499, 787.00
1500, 787.00
1501, 788.00
1502, 789.00
1503, 789.00
1504, 790.00
1505, 791.00
1506, 792.00
1507, 792.00
1508, 792.00
1509, 793.00
1510, 793.00
1511, 794.00
1512, 795.00
1513, 795.00
1514, 795.00
1515, 796.00
1516, 797.00
1517, 798.00
1518, 798.00
1519, 799.00
1520, 800.00
1521, 799.00
1522, 801.00
1523, 801.00
1524, 801.00
1525, 803.00
1526, 803.00
1527, 802.00
1528, 803.00
1529, 805.00
1530, 805.00
1531, 806.00
1532, 807.00
1533, 807.00
1534, 807.00
1535, 808.00
1536, 809.00
1537, 809.00
1538, 810.00
1539, 811.00
1540, 812.00
1541, 812.00
1542, 812.00
1543, 812.00
1544, 813.00
1545, 814.00
1546, 814.00
1547, 815.00
1548, 816.00
1549, 815.00
1550, 817.00
1551, 817.00
1552, 817.00
1553, 818.00
1554, 819.00
1555, 819.00
1556, 820.00
1557, 821.00
1558, 821.00
1559, 822.00
1560, 823.00
1561, 823.00
1562, 824.00
1563, 825.00
1564, 825.00
1565, 825.00
1566, 826.00
1567, 827.00
1568, 827.00
1569, 829.00
1570, 828.00
1571, 830.00
1572, 831.00
1573, 830.00
1574, 832.00
1575, 832.00
1576, 833.00
1577, 833.00
1578, 834.00
1579, 834.00
1580, 835.00
1581, 835.00
1582, 837.00
1583, 837.00
1584, 837.00
1585, 837.00
1586, 839.00
1587, 839.00
1588, 840.00
1589, 841.00
1590, 841.00
1591, 842.00
1592, 842.00
1593, 843.00
1594, 844.00
1595, 843.00
1596, 844.00
1597, 845.00
1598, 845.00
1599, 846.00
1600, 846.00
1601, 848.00
1602, 848.00
1603, 849.00
1604, 850.00
1605, 850.00
1606, 851.00
1607, 852.00
1608, 852.00
1609, 853.00
1610, 853.00
1611, 854.00
1612, 855.00
1613, 856.00
1614, 857.00
1615, 858.00
1616, 859.00
1617, 860.00
1618, 859.00
1619, 861.00
1620, 861.00
1621, 862.00
1622, 863.00
1623, 864.00
1624, 865.00
1625, 865.00
1626, 866.00
1627, 866.00
1628, 867.00
1629, 867.00
1630, 869.00
1631, 869.00
1632, 870.00
1633, 870.00
1634, 871.00
1635, 871.00
1636, 872.00
1637, 873.00
1638, 873.00
1639, 874.00
1640, 874.00
1641, 874.00
1642, 875.00
1643, 876.00
1644, 876.00
1645, 876.00
1646, 877.00
1647, 877.00
1648, 878.00
1649, 878.00
1650, 879.00

1750, 1204.00
1751, 1203.00
1752, 1203.00
1753, 1204.00
1754, 1204.00
1755, 1203.00
1756, 1202.00
1757, 1203.00
1758, 1204.00
1759, 1204.00
1760, 1203.00
1761, 1203.00
1762, 1204.00
1763, 1204.00
1764, 1204.00
1765, 1204.00
1766, 1203.00
1767, 1202.00
1768, 1202.00
1769, 1202.00
1770, 1203.00
1771, 1204.00
1772, 1202.00
1773, 1200.00
1774, 1201.00
1775, 1203.00
1776, 1201.00
1777, 1201.00
1778, 1202.00
1779, 1199.00
1780, 1198.00
1781, 1200.00
1782, 1199.00
1783, 1198.00
1784, 1199.00
1785, 1198.00
1786, 1200.00
1787, 1200.00
1788, 1198.00
1789, 1197.00
1790, 1197.00
1791, 1197.00
1792, 1196.00
1793, 1198.00
1794, 1197.00
1795, 1198.00
1796, 1197.00
1797, 1197.00
1798, 1198.00
1799, 1197.00
1800, 1195.00
1801, 1196.00
1802, 1194.00
1803, 1196.00
1804, 1194.00
1805, 1195.00
1806, 1195.00
1807, 1195.00
1808, 1195.00
1809, 1196.00
1810, 1193.00
1811, 1195.00
1812, 1194.00
1813, 1194.00
1814, 1192.00
1815, 1193.00
1816, 1195.00
1817, 1191.00
1818, 1192.00
1819, 1190.00
1820, 1192.00
1821, 1190.00
1822, 1191.00
1823, 1189.00
1824, 1190.00
1825, 1188.00
1826, 1188.00
1827, 1188.00
1828, 1186.00
1829, 1186.00
1830, 1187.00
1831, 1185.00
1832, 1185.00
1833, 1183.00
1834, 1184.00
1835, 1180.00
1836, 1180.00
1837, 1179.00
1838, 1178.00
1839, 1177.00
1840, 1176.00
1841, 1176.00
1842, 1174.00
1843, 1172.00
1844, 1172.00
1845, 1172.00
1846, 1168.00
1847, 1169.00
1848, 1168.00
1849, 1167.00
1850, 1166.00
1851, 1163.00
1852, 1162.00
1853, 1162.00
1854, 1160.00
1855, 1159.00
1856, 1159.00
1857, 1157.00
1858, 1157.00
1859, 1156.00
1860, 1155.00
1861, 1152.00
1862, 1151.00
1863, 1150.00
1864, 1151.00
1865, 1149.00
1866, 1147.00
1867, 1147.00
1868, 1146.00
1869, 1145.00
1870, 1144.00
1871, 1143.00
1872, 1142.00
1873, 1142.00
1874, 1142.00
1875, 1141.00
1876, 1141.00
1877, 1138.00
1878, 1138.00
1879, 1139.00
1880, 1139.00
1881, 1139.00
1882, 1137.00
1883, 1139.00
1884, 1136.00
1885, 1138.00
1886, 1136.00
1887, 1136.00
1888, 1135.00
1889, 1136.00
1890, 1135.00
1891, 1134.00
1892, 1134.00
1893, 1135.00
1894, 1133.00
1895, 1133.00
1896, 1132.00
1897, 1134.00
1898, 1133.00
1899, 1132.00
1900, 1133.00
1901, 1131.00
1902, 1132.00
1903, 1132.00
1904, 1131.00
1905, 1132.00
1906, 1131.00
1907, 1132.00
1908, 1130.00
1909, 1131.00
1910, 1132.00
1911, 1131.00
1912, 1130.00
1913, 1131.00
1914, 1132.00
1915, 1130.00
1916, 1131.00
1917, 1131.00
1918, 1128.00
1919, 1130.00
1920, 1130.00
1921, 1130.00
1922, 1130.00
1923, 1131.00
1924, 1130.00
1925, 1131.00
1926, 1130.00
1927, 1129.00
1928, 1129.00
1929, 1130.00
1930, 1130.00
1931, 1131.00
1932, 1131.00
1933, 1131.00
1934, 1131.00
1935, 1131.00
1936, 1130.00
1937, 1130.00
1938, 1131.00
1939, 1130.00
1940, 1131.00
1941, 1131.00
1942, 1131.00
1943, 1131.00
1944, 1133.00
1945, 1130.00
1946, 1132.00
1947, 1131.00
1948, 1131.00
1949, 1132.00
1950, 1133.00
1951, 1133.00
1952, 1131.00
1953, 1133.00
1954, 1132.00
1955, 1132.00
1956, 1134.00
1957, 1132.00
1958, 1134.00
1959, 1135.00
1960, 1135.00
1961, 1134.00
1962, 1134.00
1963, 1136.00
1964, 1135.00
1965, 1134.00
1966, 1135.00
1967, 1135.00
1968, 1137.00
1969, 1137.00
1970, 1136.00
1971, 1136.00
1972, 1138.00
1973, 1136.00
1974, 1139.00
1975, 1138.00
1976, 1138.00
1977, 1140.00
1978, 1138.00
1979, 1139.00
1980, 1139.00
1981, 1140.00
1982, 1139.00
1983, 1141.00
1984, 1140.00
1985, 1141.00
1986, 1141.00
1987, 1141.00
1988, 1141.00
1989, 1140.00
1990, 1141.00
1991, 1140.00
1992, 1144.00
1993, 1143.00
1994, 1142.00
1995, 1141.00
1996, 1145.00
1997, 1144.00
1998, 1146.00
1999, 1145.00
2000, 1145.00
2001, 1144.00
2002, 1145.00
2003, 1146.00
2004, 1146.00
2005, 1146.00
2006, 1146.00
2007, 1145.00
2008, 1146.00
2009, 1148.00
2010, 1147.00
2011, 1147.00
2012, 1147.00
2013, 1148.00
2014, 1150.00
2015, 1150.00
2016, 1149.00
2017, 1149.00
2018, 1150.00
2019, 1150.00
2020, 1150.00
2021, 1151.00
2022, 1151.00
2023, 1153.00
2024, 1153.00
2025, 1152.00
2026, 1153.00
2027, 1152.00
2028, 1153.00
2029, 1154.00
2030, 1153.00
2031, 1154.00
2032, 1155.00
2033, 1154.00
2034, 1154.00
2035, 1155.00
2036, 1156.00
2037, 1157.00
2038, 1156.00
2039, 1157.00
2040, 1157.00
2041, 1158.00
2042, 1157.00
2043, 1160.00
2044, 1158.00
2045, 1160.00
2046, 1160.00
2047, 1161.00
2048, 1161.00
2049, 1162.00
2050, 1162.00
2051, 1162.00
2052, 1161.00
2053, 1162.00
2054, 1163.00
2055, 1164.00
2056, 1165.00
2057, 1165.00
2058, 1165.00
2059, 1167.00
2060, 1168.00
2061, 1166.00
2062, 1166.00
2063, 1168.00
2064, 1169.00
2065, 1169.00
2066, 1170.00
2067, 1169.00
2068, 1169.00
2069, 1171.00
2070, 1171.00
2071, 1172.00
2072, 1172.00
2073, 1172.00
2074, 1172.00
2075, 1173.00
2076, 1173.00
2077, 1174.00
2078, 1174.00
2079, 1174.00
2080, 1177.00
2081, 1176.00
2082, 1176.00
2083, 1176.00
2084, 1178.00
2085, 1177.00
2086, 1176.00
2087, 1178.00
2088, 1179.00
2089, 1180.00
2090, 1177.00
2091, 1179.00
2092, 1180.00
2093, 1180.00
2094, 1180.00
2095, 1181.00
2096, 1180.00
2097, 1182.00
2098, 1181.00
2099, 1181.00
2100, 1182.00
2101, 1183.00
2102, 1184.00
2103, 1184.00
2104, 1184.00
2105, 1185.00
2106, 1183.00
2107, 1184.00
2108, 1185.00
2109, 1185.00
2110, 1185.00
2111, 1186.00
2112, 1187.00
2113, 1184.00
2114, 1186.00
2115, 1188.00
2116, 1187.00
2117, 1187.00
2118, 1186.00
2119, 1186.00
2120, 1186.00
2121, 1188.00
2122, 1187.00
2123, 1188.00
2124, 1190.00
2125, 1191.00
2126, 1188.00
2127, 1188.00
2128, 1190.00
2129, 1188.00
2130, 1189.00
2131, 1189.00
2132, 1188.00
2133, 1192.00
2134, 1191.00
2135, 1189.00
2136, 1190.00
2137, 1191.00
2138, 1191.00
2139, 1192.00
2140, 1191.00
2141, 1191.00
2142, 1192.00
2143, 1191.00
2144, 1190.00
2145, 1192.00
2146, 1192.00
2147, 1193.00
2148, 1192.00
2149, 1192.00
2150, 1192.00
