FW version: 24
Log Version: 3.0.3

General Info:
       Command/Macro Performed,            Timestamp,             Device ID, COM Port, UART/I2C, Test Name, Host Major, Host Minor, Host Revision, Host Git Commit
            Single_measurement,  2023_06_29_11_30_45,       Insight2_F4_xxx,    USB-C,      USB,          ,          0,          1,             1,      4031237645

Show Spectrometer Status:
l0_version, f4_version, battery_perc, battery_mVolt, accelerometer_temp, accelerometer_x, accelerometer_y, accelerometer_z, compass_temp, compass_x, compass_y, compass_z, lamp_0, lamp_1, gain_0, gain_1
        17,         24,           94,          2077,               5728,           65428,             228,           18356,            0,     65471,     65527,     65533,   3276,   3276,      1,      1

Temperature Statistic Info:
NTC AVG [°C], NTC2 AVG [°C]
      37.266,        36.920

Statistic Info:
M1:  num,      min,      max,   median,      AVG,      STD,M2:  num,      min,      max,   median,      AVG,      STD
     301,  1911.00,  2181.00,  1965.00,  1999.23,  84.1503,     401,  2494.00,  2660.00,  2564.00,  2567.43,  54.2779,

Measurements:
Wavelength, Data Amplitude
1350, 1959.00
1351, 1960.00
1352, 1958.00
1353, 1956.00
1354, 1955.00
1355, 1956.00
1356, 1955.00
1357, 1954.00
1358, 1952.00
1359, 1951.00
1360, 1951.00
1361, 1949.00
1362, 1948.00
1363, 1947.00
1364, 1945.00
1365, 1944.00
1366, 1944.00
1367, 1943.00
1368, 1941.00
1369, 1939.00
1370, 1939.00
1371, 1937.00
1372, 1936.00
1373, 1934.00
1374, 1933.00
1375, 1932.00
1376, 1931.00
1377, 1930.00
1378, 1928.00
1379, 1928.00
1380, 1925.00
1381, 1925.00
1382, 1924.00
1383, 1923.00
1384, 1922.00
1385, 1922.00
1386, 1921.00
1387, 1920.00
1388, 1919.00
1389, 1919.00
1390, 1918.00
1391, 1919.00
1392, 1918.00
1393, 1918.00
1394, 1915.00
1395, 1915.00
1396, 1915.00
1397, 1916.00
1398, 1916.00
1399, 1914.00
1400, 1915.00
1401, 1914.00
1402, 1913.00
1403, 1914.00
1404, 1913.00
1405, 1913.00
1406, 1913.00
1407, 1913.00
1408, 1912.00
1409, 1911.00
1410, 1912.00
1411, 1911.00
1412, 1912.00
1413, 1911.00
1414, 1912.00
1415, 1912.00
1416, 1911.00
1417, 1912.00
1418, 1911.00
1419, 1911.00
1420, 1911.00
1421, 1911.00
1422, 1911.00
1423, 1912.00
1424, 1911.00
1425, 1911.00
1426, 1911.00
1427, 1911.00
1428, 1912.00
1429, 1911.00
1430, 1911.00
1431, 1913.00
1432, 1912.00
1433, 1912.00
1434, 1912.00
1435, 1913.00
1436, 1914.00
1437, 1915.00
1438, 1915.00
1439, 1914.00
1440, 1916.00
1441, 1916.00
1442, 1916.00
1443, 1917.00
1444, 1917.00
1445, 1918.00
1446, 1918.00
1447, 1918.00
1448, 1919.00
1449, 1919.00
1450, 1919.00
1451, 1920.00
1452, 1921.00
1453, 1921.00
1454, 1922.00
1455, 1923.00
1456, 1924.00
1457, 1923.00
1458, 1924.00
1459, 1925.00
1460, 1926.00
1461, 1927.00
1462, 1927.00
1463, 1929.00
1464, 1930.00
1465, 1929.00
1466, 1930.00
1467, 1931.00
1468, 1932.00
1469, 1932.00
1470, 1934.00
1471, 1935.00
1472, 1936.00
1473, 1935.00
1474, 1939.00
1475, 1938.00
1476, 1939.00
1477, 1941.00
1478, 1941.00
1479, 1943.00
1480, 1943.00
1481, 1945.00
1482, 1946.00
1483, 1947.00
1484, 1948.00
1485, 1948.00
1486, 1949.00
1487, 1951.00
1488, 1953.00
1489, 1953.00
1490, 1955.00
1491, 1956.00
1492, 1956.00
1493, 1958.00
1494, 1959.00
1495, 1960.00
1496, 1961.00
1497, 1963.00
1498, 1963.00
1499, 1965.00
1500, 1965.00
1501, 1967.00
1502, 1967.00
1503, 1969.00
1504, 1970.00
1505, 1971.00
1506, 1972.00
1507, 1974.00
1508, 1973.00
1509, 1976.00
1510, 1978.00
1511, 1978.00
1512, 1980.00
1513, 1981.00
1514, 1983.00
1515, 1982.00
1516, 1984.00
1517, 1986.00
1518, 1987.00
1519, 1989.00
1520, 1990.00
1521, 1991.00
1522, 1993.00
1523, 1993.00
1524, 1996.00
1525, 1997.00
1526, 1997.00
1527, 1999.00
1528, 2000.00
1529, 2001.00
1530, 2002.00
1531, 2005.00
1532, 2005.00
1533, 2007.00
1534, 2009.00
1535, 2009.00
1536, 2011.00
1537, 2012.00
1538, 2013.00
1539, 2015.00
1540, 2015.00
1541, 2017.00
1542, 2020.00
1543, 2020.00
1544, 2021.00
1545, 2024.00
1546, 2025.00
1547, 2025.00
1548, 2027.00
1549, 2028.00
1550, 2030.00
1551, 2031.00
1552, 2033.00
1553, 2035.00
1554, 2036.00
1555, 2037.00
1556, 2040.00
1557, 2041.00
1558, 2043.00
1559, 2043.00
1560, 2046.00
1561, 2046.00
1562, 2048.00
1563, 2049.00
1564, 2051.00
1565, 2053.00
1566, 2054.00
1567, 2055.00
1568, 2058.00
1569, 2059.00
1570, 2062.00
1571, 2062.00
1572, 2065.00
1573, 2065.00
1574, 2066.00
1575, 2068.00
1576, 2070.00
1577, 2071.00
1578, 2073.00
1579, 2075.00
1580, 2076.00
1581, 2076.00
1582, 2079.00
1583, 2079.00
1584, 2081.00
1585, 2082.00
1586, 2083.00
1587, 2085.00
1588, 2086.00
1589, 2088.00
1590, 2090.00
1591, 2089.00
1592, 2092.00
1593, 2093.00
1594, 2095.00
1595, 2096.00
1596, 2096.00
1597, 2098.00
1598, 2101.00
1599, 2101.00
1600, 2102.00
1601, 2105.00
1602, 2106.00
1603, 2107.00
1604, 2108.00
1605, 2111.00
1606, 2112.00
1607, 2113.00
1608, 2115.00
1609, 2117.00
1610, 2119.00
1611, 2120.00
1612, 2121.00
1613, 2123.00
1614, 2125.00
1615, 2127.00
1616, 2128.00
1617, 2129.00
1618, 2131.00
1619, 2133.00
1620, 2134.00
1621, 2138.00
1622, 2138.00
1623, 2140.00
1624, 2142.00
1625, 2144.00
1626, 2146.00
1627, 2147.00
1628, 2149.00
1629, 2151.00
1630, 2152.00
1631, 2153.00
1632, 2156.00
1633, 2157.00
1634, 2158.00
1635, 2159.00
1636, 2161.00
1637, 2163.00
1638, 2164.00
1639, 2166.00
1640, 2167.00
1641, 2168.00
1642, 2170.00
1643, 2172.00
1644, 2172.00
1645, 2173.00
1646, 2175.00
1647, 2176.00
1648, 2177.00
1649, 2179.00
1650, 2181.00

1750, 2660.00
1751, 2656.00
1752, 2660.00
1753, 2658.00
1754, 2660.00
1755, 2659.00
1756, 2658.00
1757, 2658.00
1758, 2659.00
1759, 2659.00
1760, 2659.00
1761, 2656.00
1762, 2659.00
1763, 2658.00
1764, 2656.00
1765, 2655.00
1766, 2656.00
1767, 2657.00
1768, 2656.00
1769, 2657.00
1770, 2657.00
1771, 2656.00
1772, 2655.00
1773, 2656.00
1774, 2655.00
1775, 2653.00
1776, 2652.00
1777, 2651.00
1778, 2653.00
1779, 2651.00
1780, 2652.00
1781, 2650.00
1782, 2650.00
1783, 2650.00
1784, 2647.00
1785, 2650.00
1786, 2648.00
1787, 2647.00
1788, 2645.00
1789, 2646.00
1790, 2646.00
1791, 2644.00
1792, 2646.00
1793, 2644.00
1794, 2641.00
1795, 2643.00
1796, 2644.00
1797, 2642.00
1798, 2642.00
1799, 2641.00
1800, 2641.00
1801, 2640.00
1802, 2640.00
1803, 2639.00
1804, 2638.00
1805, 2639.00
1806, 2637.00
1807, 2636.00
1808, 2637.00
1809, 2637.00
1810, 2636.00
1811, 2634.00
1812, 2635.00
1813, 2634.00
1814, 2632.00
1815, 2631.00
1816, 2632.00
1817, 2631.00
1818, 2629.00
1819, 2628.00
1820, 2626.00
1821, 2627.00
1822, 2625.00
1823, 2625.00
1824, 2626.00
1825, 2623.00
1826, 2622.00
1827, 2621.00
1828, 2618.00
1829, 2617.00
1830, 2615.00
1831, 2615.00
1832, 2613.00
1833, 2613.00
1834, 2609.00
1835, 2609.00
1836, 2605.00
1837, 2604.00
1838, 2602.00
1839, 2600.00
1840, 2597.00
1841, 2594.00
1842, 2593.00
1843, 2590.00
1844, 2587.00
1845, 2585.00
1846, 2582.00
1847, 2580.00
1848, 2578.00
1849, 2573.00
1850, 2571.00
1851, 2570.00
1852, 2567.00
1853, 2564.00
1854, 2559.00
1855, 2558.00
1856, 2555.00
1857, 2554.00
1858, 2549.00
1859, 2548.00
1860, 2548.00
1861, 2545.00
1862, 2542.00
1863, 2541.00
1864, 2538.00
1865, 2535.00
1866, 2534.00
1867, 2533.00
1868, 2529.00
1869, 2529.00
1870, 2525.00
1871, 2525.00
1872, 2523.00
1873, 2522.00
1874, 2521.00
1875, 2519.00
1876, 2517.00
1877, 2516.00
1878, 2516.00
1879, 2515.00
1880, 2515.00
1881, 2513.00
1882, 2513.00
1883, 2512.00
1884, 2511.00
1885, 2508.00
1886, 2509.00
1887, 2510.00
1888, 2506.00
1889, 2508.00
1890, 2505.00
1891, 2504.00
1892, 2503.00
1893, 2504.00
1894, 2504.00
1895, 2503.00
1896, 2504.00
1897, 2503.00
1898, 2503.00
1899, 2500.00
1900, 2500.00
1901, 2500.00
1902, 2501.00
1903, 2500.00
1904, 2501.00
1905, 2500.00
1906, 2500.00
1907, 2499.00
1908, 2497.00
1909, 2498.00
1910, 2498.00
1911, 2497.00
1912, 2497.00
1913, 2497.00
1914, 2497.00
1915, 2498.00
1916, 2498.00
1917, 2496.00
1918, 2497.00
1919, 2496.00
1920, 2495.00
1921, 2495.00
1922, 2495.00
1923, 2495.00
1924, 2497.00
1925, 2497.00
1926, 2497.00
1927, 2495.00
1928, 2496.00
1929, 2497.00
1930, 2495.00
1931, 2497.00
1932, 2494.00
1933, 2496.00
1934, 2495.00
1935, 2497.00
1936, 2495.00
1937, 2497.00
1938, 2497.00
1939, 2497.00
1940, 2497.00
1941, 2498.00
1942, 2497.00
1943, 2496.00
1944, 2497.00
1945, 2498.00
1946, 2498.00
1947, 2497.00
1948, 2499.00
1949, 2500.00
1950, 2499.00
1951, 2500.00
1952, 2501.00
1953, 2500.00
1954, 2500.00
1955, 2501.00
1956, 2502.00
1957, 2501.00
1958, 2502.00
1959, 2503.00
1960, 2502.00
1961, 2504.00
1962, 2505.00
1963, 2504.00
1964, 2506.00
1965, 2506.00
1966, 2505.00
1967, 2506.00
1968, 2507.00
1969, 2506.00
1970, 2508.00
1971, 2509.00
1972, 2509.00
1973, 2510.00
1974, 2511.00
1975, 2513.00
1976, 2512.00
1977, 2513.00
1978, 2512.00
1979, 2513.00
1980, 2513.00
1981, 2514.00
1982, 2514.00
1983, 2516.00
1984, 2517.00
1985, 2517.00
1986, 2516.00
1987, 2520.00
1988, 2517.00
1989, 2520.00
1990, 2520.00
1991, 2519.00
1992, 2522.00
1993, 2519.00
1994, 2522.00
1995, 2523.00
1996, 2525.00
1997, 2524.00
1998, 2525.00
1999, 2525.00
2000, 2525.00
2001, 2526.00
2002, 2527.00
2003, 2528.00
2004, 2529.00
2005, 2529.00
2006, 2528.00
2007, 2529.00
2008, 2532.00
2009, 2532.00
2010, 2530.00
2011, 2532.00
2012, 2533.00
2013, 2533.00
2014, 2534.00
2015, 2534.00
2016, 2535.00
2017, 2535.00
2018, 2539.00
2019, 2537.00
2020, 2535.00
2021, 2537.00
2022, 2539.00
2023, 2541.00
2024, 2541.00
2025, 2541.00
2026, 2543.00
2027, 2542.00
2028, 2542.00
2029, 2542.00
2030, 2545.00
2031, 2545.00
2032, 2544.00
2033, 2545.00
2034, 2547.00
2035, 2549.00
2036, 2549.00
2037, 2549.00
2038, 2549.00
2039, 2550.00
2040, 2551.00
2041, 2552.00
2042, 2551.00
2043, 2553.00
2044, 2554.00
2045, 2555.00
2046, 2555.00
2047, 2558.00
2048, 2557.00
2049, 2558.00
2050, 2559.00
2051, 2560.00
2052, 2561.00
2053, 2563.00
2054, 2564.00
2055, 2565.00
2056, 2566.00
2057, 2567.00
2058, 2569.00
2059, 2569.00
2060, 2570.00
2061, 2569.00
2062, 2571.00
2063, 2572.00
2064, 2573.00
2065, 2576.00
2066, 2576.00
2067, 2576.00
2068, 2576.00
2069, 2576.00
2070, 2577.00
2071, 2578.00
2072, 2582.00
2073, 2583.00
2074, 2581.00
2075, 2582.00
2076, 2584.00
2077, 2585.00
2078, 2587.00
2079, 2586.00
2080, 2587.00
2081, 2589.00
2082, 2588.00
2083, 2590.00
2084, 2590.00
2085, 2592.00
2086, 2593.00
2087, 2593.00
2088, 2592.00
2089, 2593.00
2090, 2595.00
2091, 2596.00
2092, 2596.00
2093, 2597.00
2094, 2597.00
2095, 2599.00
2096, 2598.00
2097, 2601.00
2098, 2598.00
2099, 2599.00
2100, 2601.00
2101, 2603.00
2102, 2601.00
2103, 2603.00
2104, 2603.00
2105, 2603.00
2106, 2604.00
2107, 2605.00
2108, 2606.00
2109, 2605.00
2110, 2607.00
2111, 2607.00
2112, 2607.00
2113, 2609.00
2114, 2607.00
2115, 2609.00
2116, 2608.00
2117, 2609.00
2118, 2610.00
2119, 2608.00
2120, 2609.00
2121, 2610.00
2122, 2611.00
2123, 2610.00
2124, 2612.00
2125, 2613.00
2126, 2613.00
2127, 2613.00
2128, 2614.00
2129, 2615.00
2130, 2613.00
2131, 2614.00
2132, 2613.00
2133, 2615.00
2134, 2615.00
2135, 2617.00
2136, 2615.00
2137, 2616.00
2138, 2615.00
2139, 2616.00
2140, 2617.00
2141, 2618.00
2142, 2619.00
2143, 2617.00
2144, 2619.00
2145, 2618.00
2146, 2618.00
2147, 2619.00
2148, 2620.00
2149, 2618.00
2150, 2618.00
