FW version: 24
Log Version: 3.0.3

General Info:
       Command/Macro Performed,            Timestamp,             Device ID, COM Port, UART/I2C, Test Name, Host Major, Host Minor, Host Revision, Host Git Commit
            Single_measurement,  2023_06_29_11_29_28,       Insight2_F4_xxx,    USB-C,      USB,          ,          0,          1,             1,      4031237645

Show Spectrometer Status:
l0_version, f4_version, battery_perc, battery_mVolt, accelerometer_temp, accelerometer_x, accelerometer_y, accelerometer_z, compass_temp, compass_x, compass_y, compass_z, lamp_0, lamp_1, gain_0, gain_1
        17,         24,           94,          2075,               5648,           65400,             172,           18380,            0,     65404,     65517,     65484,   3276,   3276,      0,      0

Temperature Statistic Info:
NTC AVG [°C], NTC2 AVG [°C]
      36.637,        36.322

Statistic Info:
M1:  num,      min,      max,   median,      AVG,      STD,M2:  num,      min,      max,   median,      AVG,      STD
     301,   659.00,   752.00,   678.00,   689.45,  28.8541,     401,   862.00,   919.00,   885.00,   886.95,  18.6783,

Measurements:
Wavelength, Data Amplitude
1350, 676.00
1351, 676.00
1352, 675.00
1353, 675.00
1354, 675.00
1355, 676.00
1356, 675.00
1357, 674.00
1358, 674.00
1359, 674.00
1360, 673.00
1361, 673.00
1362, 672.00
1363, 672.00
1364, 671.00
1365, 672.00
1366, 670.00
1367, 670.00
1368, 670.00
1369, 669.00
1370, 669.00
1371, 668.00
1372, 668.00
1373, 667.00
1374, 667.00
1375, 667.00
1376, 666.00
1377, 666.00
1378, 666.00
1379, 665.00
1380, 664.00
1381, 664.00
1382, 664.00
1383, 664.00
1384, 664.00
1385, 663.00
1386, 663.00
1387, 662.00
1388, 663.00
1389, 662.00
1390, 662.00
1391, 662.00
1392, 661.00
1393, 662.00
1394, 661.00
1395, 661.00
1396, 661.00
1397, 661.00
1398, 660.00
1399, 660.00
1400, 660.00
1401, 660.00
1402, 661.00
1403, 660.00
1404, 660.00
1405, 660.00
1406, 659.00
1407, 660.00
1408, 660.00
1409, 659.00
1410, 660.00
1411, 659.00
1412, 659.00
1413, 660.00
1414, 659.00
1415, 659.00
1416, 659.00
1417, 659.00
1418, 659.00
1419, 659.00
1420, 659.00
1421, 659.00
1422, 659.00
1423, 659.00
1424, 659.00
1425, 659.00
1426, 660.00
1427, 659.00
1428, 660.00
1429, 659.00
1430, 660.00
1431, 660.00
1432, 660.00
1433, 660.00
1434, 660.00
1435, 660.00
1436, 660.00
1437, 660.00
1438, 660.00
1439, 660.00
1440, 660.00
1441, 661.00
1442, 661.00
1443, 661.00
1444, 661.00
1445, 661.00
1446, 662.00
1447, 662.00
1448, 662.00
1449, 662.00
1450, 662.00
1451, 662.00
1452, 662.00
1453, 663.00
1454, 663.00
1455, 663.00
1456, 663.00
1457, 664.00
1458, 664.00
1459, 664.00
1460, 664.00
1461, 664.00
1462, 664.00
1463, 665.00
1464, 665.00
1465, 666.00
1466, 665.00
1467, 666.00
1468, 666.00
1469, 666.00
1470, 667.00
1471, 667.00
1472, 668.00
1473, 668.00
1474, 668.00
1475, 669.00
1476, 669.00
1477, 669.00
1478, 669.00
1479, 670.00
1480, 670.00
1481, 670.00
1482, 671.00
1483, 671.00
1484, 672.00
1485, 672.00
1486, 673.00
1487, 673.00
1488, 674.00
1489, 674.00
1490, 674.00
1491, 674.00
1492, 675.00
1493, 675.00
1494, 675.00
1495, 676.00
1496, 676.00
1497, 677.00
1498, 677.00
1499, 677.00
1500, 678.00
1501, 678.00
1502, 679.00
1503, 679.00
1504, 679.00
1505, 680.00
1506, 680.00
1507, 681.00
1508, 681.00
1509, 681.00
1510, 682.00
1511, 682.00
1512, 683.00
1513, 683.00
1514, 683.00
1515, 684.00
1516, 684.00
1517, 685.00
1518, 686.00
1519, 685.00
1520, 686.00
1521, 686.00
1522, 687.00
1523, 687.00
1524, 688.00
1525, 688.00
1526, 689.00
1527, 689.00
1528, 690.00
1529, 690.00
1530, 690.00
1531, 691.00
1532, 692.00
1533, 692.00
1534, 692.00
1535, 693.00
1536, 693.00
1537, 694.00
1538, 695.00
1539, 695.00
1540, 695.00
1541, 696.00
1542, 696.00
1543, 697.00
1544, 697.00
1545, 698.00
1546, 697.00
1547, 699.00
1548, 700.00
1549, 700.00
1550, 700.00
1551, 700.00
1552, 700.00
1553, 701.00
1554, 702.00
1555, 702.00
1556, 703.00
1557, 704.00
1558, 705.00
1559, 704.00
1560, 705.00
1561, 705.00
1562, 706.00
1563, 707.00
1564, 707.00
1565, 708.00
1566, 709.00
1567, 709.00
1568, 710.00
1569, 710.00
1570, 710.00
1571, 711.00
1572, 711.00
1573, 712.00
1574, 713.00
1575, 713.00
1576, 714.00
1577, 714.00
1578, 715.00
1579, 715.00
1580, 715.00
1581, 716.00
1582, 716.00
1583, 717.00
1584, 718.00
1585, 718.00
1586, 718.00
1587, 719.00
1588, 720.00
1589, 720.00
1590, 720.00
1591, 721.00
1592, 721.00
1593, 721.00
1594, 722.00
1595, 723.00
1596, 723.00
1597, 723.00
1598, 724.00
1599, 724.00
1600, 725.00
1601, 726.00
1602, 726.00
1603, 726.00
1604, 727.00
1605, 728.00
1606, 728.00
1607, 729.00
1608, 729.00
1609, 730.00
1610, 730.00
1611, 731.00
1612, 731.00
1613, 732.00
1614, 732.00
1615, 733.00
1616, 734.00
1617, 734.00
1618, 735.00
1619, 735.00
1620, 736.00
1621, 736.00
1622, 737.00
1623, 738.00
1624, 738.00
1625, 739.00
1626, 740.00
1627, 740.00
1628, 741.00
1629, 741.00
1630, 742.00
1631, 743.00
1632, 743.00
1633, 743.00
1634, 745.00
1635, 745.00
1636, 745.00
1637, 745.00
1638, 746.00
1639, 747.00
1640, 747.00
1641, 747.00
1642, 748.00
1643, 749.00
1644, 748.00
1645, 749.00
1646, 749.00
1647, 750.00
1648, 751.00
1649, 752.00
1650, 752.00

1750, 918.00
1751, 919.00
1752, 918.00
1753, 918.00
1754, 918.00
1755, 918.00
1756, 919.00
1757, 919.00
1758, 918.00
1759, 918.00
1760, 919.00
1761, 918.00
1762, 918.00
1763, 918.00
1764, 918.00
1765, 918.00
1766, 918.00
1767, 918.00
1768, 918.00
1769, 918.00
1770, 917.00
1771, 917.00
1772, 917.00
1773, 917.00
1774, 917.00
1775, 917.00
1776, 917.00
1777, 916.00
1778, 917.00
1779, 916.00
1780, 917.00
1781, 916.00
1782, 915.00
1783, 915.00
1784, 915.00
1785, 916.00
1786, 915.00
1787, 915.00
1788, 914.00
1789, 914.00
1790, 914.00
1791, 914.00
1792, 914.00
1793, 914.00
1794, 914.00
1795, 913.00
1796, 913.00
1797, 913.00
1798, 912.00
1799, 912.00
1800, 911.00
1801, 912.00
1802, 912.00
1803, 912.00
1804, 912.00
1805, 911.00
1806, 911.00
1807, 911.00
1808, 911.00
1809, 911.00
1810, 910.00
1811, 910.00
1812, 910.00
1813, 910.00
1814, 909.00
1815, 910.00
1816, 910.00
1817, 908.00
1818, 909.00
1819, 908.00
1820, 907.00
1821, 908.00
1822, 907.00
1823, 906.00
1824, 907.00
1825, 906.00
1826, 905.00
1827, 906.00
1828, 905.00
1829, 904.00
1830, 904.00
1831, 904.00
1832, 903.00
1833, 901.00
1834, 901.00
1835, 901.00
1836, 900.00
1837, 900.00
1838, 898.00
1839, 899.00
1840, 897.00
1841, 897.00
1842, 895.00
1843, 895.00
1844, 894.00
1845, 893.00
1846, 892.00
1847, 891.00
1848, 890.00
1849, 889.00
1850, 889.00
1851, 888.00
1852, 888.00
1853, 887.00
1854, 885.00
1855, 885.00
1856, 883.00
1857, 883.00
1858, 882.00
1859, 881.00
1860, 880.00
1861, 880.00
1862, 878.00
1863, 878.00
1864, 877.00
1865, 877.00
1866, 875.00
1867, 875.00
1868, 874.00
1869, 874.00
1870, 874.00
1871, 873.00
1872, 872.00
1873, 871.00
1874, 871.00
1875, 870.00
1876, 871.00
1877, 870.00
1878, 869.00
1879, 869.00
1880, 868.00
1881, 869.00
1882, 868.00
1883, 868.00
1884, 868.00
1885, 867.00
1886, 867.00
1887, 866.00
1888, 866.00
1889, 867.00
1890, 867.00
1891, 865.00
1892, 866.00
1893, 865.00
1894, 865.00
1895, 865.00
1896, 865.00
1897, 865.00
1898, 865.00
1899, 864.00
1900, 864.00
1901, 864.00
1902, 864.00
1903, 864.00
1904, 864.00
1905, 863.00
1906, 864.00
1907, 864.00
1908, 863.00
1909, 863.00
1910, 863.00
1911, 863.00
1912, 863.00
1913, 863.00
1914, 862.00
1915, 863.00
1916, 863.00
1917, 862.00
1918, 862.00
1919, 863.00
1920, 862.00
1921, 862.00
1922, 862.00
1923, 863.00
1924, 863.00
1925, 862.00
1926, 863.00
1927, 862.00
1928, 862.00
1929, 862.00
1930, 862.00
1931, 863.00
1932, 862.00
1933, 862.00
1934, 862.00
1935, 863.00
1936, 862.00
1937, 862.00
1938, 862.00
1939, 862.00
1940, 863.00
1941, 863.00
1942, 863.00
1943, 863.00
1944, 863.00
1945, 863.00
1946, 863.00
1947, 863.00
1948, 863.00
1949, 864.00
1950, 863.00
1951, 863.00
1952, 864.00
1953, 863.00
1954, 865.00
1955, 864.00
1956, 865.00
1957, 863.00
1958, 865.00
1959, 865.00
1960, 865.00
1961, 865.00
1962, 864.00
1963, 865.00
1964, 866.00
1965, 865.00
1966, 866.00
1967, 866.00
1968, 866.00
1969, 867.00
1970, 866.00
1971, 867.00
1972, 867.00
1973, 866.00
1974, 867.00
1975, 868.00
1976, 868.00
1977, 868.00
1978, 868.00
1979, 868.00
1980, 869.00
1981, 869.00
1982, 869.00
1983, 869.00
1984, 869.00
1985, 869.00
1986, 870.00
1987, 870.00
1988, 871.00
1989, 870.00
1990, 870.00
1991, 871.00
1992, 871.00
1993, 871.00
1994, 871.00
1995, 871.00
1996, 871.00
1997, 872.00
1998, 873.00
1999, 872.00
2000, 873.00
2001, 873.00
2002, 873.00
2003, 873.00
2004, 874.00
2005, 874.00
2006, 874.00
2007, 874.00
2008, 875.00
2009, 874.00
2010, 874.00
2011, 874.00
2012, 875.00
2013, 875.00
2014, 875.00
2015, 875.00
2016, 876.00
2017, 877.00
2018, 876.00
2019, 877.00
2020, 877.00
2021, 877.00
2022, 877.00
2023, 877.00
2024, 878.00
2025, 877.00
2026, 878.00
2027, 878.00
2028, 878.00
2029, 879.00
2030, 879.00
2031, 879.00
2032, 879.00
2033, 879.00
2034, 880.00
2035, 880.00
2036, 880.00
2037, 880.00
2038, 880.00
2039, 881.00
2040, 881.00
2041, 882.00
2042, 881.00
2043, 882.00
2044, 882.00
2045, 883.00
2046, 883.00
2047, 883.00
2048, 883.00
2049, 884.00
2050, 884.00
2051, 885.00
2052, 885.00
2053, 885.00
2054, 885.00
2055, 886.00
2056, 886.00
2057, 886.00
2058, 887.00
2059, 887.00
2060, 887.00
2061, 888.00
2062, 888.00
2063, 889.00
2064, 889.00
2065, 889.00
2066, 890.00
2067, 890.00
2068, 890.00
2069, 891.00
2070, 891.00
2071, 892.00
2072, 892.00
2073, 891.00
2074, 891.00
2075, 892.00
2076, 893.00
2077, 893.00
2078, 893.00
2079, 893.00
2080, 894.00
2081, 894.00
2082, 894.00
2083, 895.00
2084, 895.00
2085, 895.00
2086, 895.00
2087, 895.00
2088, 895.00
2089, 895.00
2090, 896.00
2091, 896.00
2092, 897.00
2093, 897.00
2094, 897.00
2095, 897.00
2096, 898.00
2097, 897.00
2098, 898.00
2099, 898.00
2100, 899.00
2101, 899.00
2102, 898.00
2103, 899.00
2104, 898.00
2105, 899.00
2106, 900.00
2107, 899.00
2108, 900.00
2109, 900.00
2110, 900.00
2111, 901.00
2112, 901.00
2113, 900.00
2114, 900.00
2115, 901.00
2116, 901.00
2117, 900.00
2118, 901.00
2119, 901.00
2120, 901.00
2121, 902.00
2122, 901.00
2123, 902.00
2124, 902.00
2125, 902.00
2126, 901.00
2127, 902.00
2128, 902.00
2129, 902.00
2130, 903.00
2131, 903.00
2132, 903.00
2133, 903.00
2134, 903.00
2135, 904.00
2136, 903.00
2137, 903.00
2138, 904.00
2139, 903.00
2140, 904.00
2141, 904.00
2142, 904.00
2143, 904.00
2144, 904.00
2145, 904.00
2146, 905.00
2147, 905.00
2148, 904.00
2149, 904.00
2150, 905.00
