FW version: 24
Log Version: 3.0.3

General Info:
       Command/Macro Performed,            Timestamp,             Device ID, COM Port, UART/I2C, Test Name, Host Major, Host Minor, Host Revision, Host Git Commit
            Single_measurement,  2023_06_27_11_40_20,       Insight2_F4_xxx,    USB-C,      USB,          ,          0,          1,             1,      4031237645

Show Spectrometer Status:
l0_version, f4_version, battery_perc, battery_mVolt, accelerometer_temp, accelerometer_x, accelerometer_y, accelerometer_z, compass_temp, compass_x, compass_y, compass_z, lamp_0, lamp_1, gain_0, gain_1
        17,         24,           95,          2077,               5296,           65296,           65324,           18436,            0,     65430,     65405,     65479,   3276,   3276,    0,    0

Temperature Statistic Info:
NTC AVG [°C], NTC2 AVG [°C]
      36.265,        35.948

Statistic Info:
M1:  num,      min,      max,   median,      AVG,      STD,M2:  num,      min,      max,   median,      AVG,      STD
     301,   562.00,   642.00,   580.00,   589.16,  24.6443,     401,   749.00,   798.00,   770.00,   771.06,  15.8387,

Measurements:
Wavelength, Data Amplitude
1350, 577.00
1351, 577.00
1352, 577.00
1353, 577.00
1354, 577.00
1355, 576.00
1356, 576.00
1357, 576.00
1358, 576.00
1359, 576.00
1360, 576.00
1361, 575.00
1362, 575.00
1363, 574.00
1364, 573.00
1365, 573.00
1366, 573.00
1367, 573.00
1368, 572.00
1369, 572.00
1370, 571.00
1371, 572.00
1372, 571.00
1373, 570.00
1374, 570.00
1375, 569.00
1376, 569.00
1377, 569.00
1378, 568.00
1379, 568.00
1380, 568.00
1381, 567.00
1382, 567.00
1383, 567.00
1384, 567.00
1385, 567.00
1386, 567.00
1387, 566.00
1388, 566.00
1389, 566.00
1390, 565.00
1391, 566.00
1392, 565.00
1393, 565.00
1394, 565.00
1395, 565.00
1396, 565.00
1397, 565.00
1398, 565.00
1399, 564.00
1400, 564.00
1401, 564.00
1402, 564.00
1403, 564.00
1404, 563.00
1405, 564.00
1406, 564.00
1407, 564.00
1408, 563.00
1409, 563.00
1410, 563.00
1411, 563.00
1412, 564.00
1413, 563.00
1414, 563.00
1415, 563.00
1416, 563.00
1417, 563.00
1418, 563.00
1419, 563.00
1420, 563.00
1421, 562.00
1422, 563.00
1423, 563.00
1424, 563.00
1425, 563.00
1426, 563.00
1427, 563.00
1428, 564.00
1429, 564.00
1430, 564.00
1431, 564.00
1432, 563.00
1433, 563.00
1434, 564.00
1435, 564.00
1436, 564.00
1437, 564.00
1438, 564.00
1439, 564.00
1440, 564.00
1441, 564.00
1442, 565.00
1443, 565.00
1444, 565.00
1445, 565.00
1446, 565.00
1447, 566.00
1448, 565.00
1449, 566.00
1450, 566.00
1451, 566.00
1452, 567.00
1453, 566.00
1454, 567.00
1455, 566.00
1456, 566.00
1457, 567.00
1458, 567.00
1459, 567.00
1460, 567.00
1461, 568.00
1462, 568.00
1463, 568.00
1464, 569.00
1465, 568.00
1466, 569.00
1467, 569.00
1468, 569.00
1469, 570.00
1470, 570.00
1471, 570.00
1472, 571.00
1473, 571.00
1474, 571.00
1475, 572.00
1476, 572.00
1477, 572.00
1478, 572.00
1479, 573.00
1480, 573.00
1481, 573.00
1482, 573.00
1483, 574.00
1484, 575.00
1485, 574.00
1486, 575.00
1487, 575.00
1488, 576.00
1489, 576.00
1490, 576.00
1491, 576.00
1492, 577.00
1493, 577.00
1494, 577.00
1495, 578.00
1496, 578.00
1497, 579.00
1498, 578.00
1499, 579.00
1500, 580.00
1501, 580.00
1502, 580.00
1503, 580.00
1504, 581.00
1505, 581.00
1506, 581.00
1507, 582.00
1508, 582.00
1509, 582.00
1510, 583.00
1511, 583.00
1512, 584.00
1513, 584.00
1514, 585.00
1515, 585.00
1516, 585.00
1517, 586.00
1518, 586.00
1519, 586.00
1520, 586.00
1521, 587.00
1522, 587.00
1523, 588.00
1524, 588.00
1525, 588.00
1526, 589.00
1527, 589.00
1528, 590.00
1529, 590.00
1530, 590.00
1531, 591.00
1532, 591.00
1533, 592.00
1534, 592.00
1535, 592.00
1536, 593.00
1537, 593.00
1538, 594.00
1539, 594.00
1540, 594.00
1541, 595.00
1542, 595.00
1543, 596.00
1544, 596.00
1545, 597.00
1546, 597.00
1547, 597.00
1548, 598.00
1549, 598.00
1550, 598.00
1551, 598.00
1552, 599.00
1553, 599.00
1554, 600.00
1555, 601.00
1556, 601.00
1557, 601.00
1558, 602.00
1559, 602.00
1560, 602.00
1561, 603.00
1562, 603.00
1563, 604.00
1564, 604.00
1565, 605.00
1566, 605.00
1567, 605.00
1568, 606.00
1569, 607.00
1570, 607.00
1571, 607.00
1572, 608.00
1573, 609.00
1574, 609.00
1575, 609.00
1576, 610.00
1577, 610.00
1578, 611.00
1579, 611.00
1580, 612.00
1581, 612.00
1582, 612.00
1583, 613.00
1584, 613.00
1585, 613.00
1586, 614.00
1587, 614.00
1588, 615.00
1589, 615.00
1590, 616.00
1591, 616.00
1592, 616.00
1593, 617.00
1594, 617.00
1595, 617.00
1596, 618.00
1597, 618.00
1598, 619.00
1599, 619.00
1600, 620.00
1601, 620.00
1602, 620.00
1603, 620.00
1604, 621.00
1605, 622.00
1606, 622.00
1607, 622.00
1608, 623.00
1609, 623.00
1610, 624.00
1611, 624.00
1612, 625.00
1613, 626.00
1614, 626.00
1615, 626.00
1616, 627.00
1617, 627.00
1618, 628.00
1619, 628.00
1620, 629.00
1621, 629.00
1622, 630.00
1623, 631.00
1624, 631.00
1625, 631.00
1626, 632.00
1627, 632.00
1628, 633.00
1629, 633.00
1630, 634.00
1631, 634.00
1632, 635.00
1633, 635.00
1634, 635.00
1635, 636.00
1636, 637.00
1637, 637.00
1638, 637.00
1639, 638.00
1640, 638.00
1641, 638.00
1642, 639.00
1643, 640.00
1644, 640.00
1645, 640.00
1646, 640.00
1647, 642.00
1648, 642.00
1649, 642.00
1650, 642.00

1750, 798.00
1751, 798.00
1752, 798.00
1753, 798.00
1754, 797.00
1755, 797.00
1756, 798.00
1757, 797.00
1758, 798.00
1759, 797.00
1760, 797.00
1761, 797.00
1762, 797.00
1763, 797.00
1764, 797.00
1765, 798.00
1766, 798.00
1767, 797.00
1768, 797.00
1769, 797.00
1770, 797.00
1771, 797.00
1772, 797.00
1773, 797.00
1774, 796.00
1775, 796.00
1776, 796.00
1777, 796.00
1778, 797.00
1779, 796.00
1780, 795.00
1781, 795.00
1782, 795.00
1783, 795.00
1784, 796.00
1785, 794.00
1786, 794.00
1787, 794.00
1788, 794.00
1789, 794.00
1790, 794.00
1791, 794.00
1792, 794.00
1793, 794.00
1794, 794.00
1795, 793.00
1796, 793.00
1797, 793.00
1798, 793.00
1799, 793.00
1800, 793.00
1801, 792.00
1802, 792.00
1803, 792.00
1804, 792.00
1805, 793.00
1806, 792.00
1807, 792.00
1808, 791.00
1809, 791.00
1810, 792.00
1811, 790.00
1812, 792.00
1813, 790.00
1814, 791.00
1815, 790.00
1816, 790.00
1817, 789.00
1818, 789.00
1819, 789.00
1820, 789.00
1821, 789.00
1822, 788.00
1823, 787.00
1824, 788.00
1825, 787.00
1826, 786.00
1827, 787.00
1828, 786.00
1829, 786.00
1830, 785.00
1831, 785.00
1832, 784.00
1833, 784.00
1834, 783.00
1835, 783.00
1836, 782.00
1837, 782.00
1838, 780.00
1839, 780.00
1840, 780.00
1841, 780.00
1842, 779.00
1843, 778.00
1844, 778.00
1845, 776.00
1846, 776.00
1847, 774.00
1848, 775.00
1849, 773.00
1850, 773.00
1851, 772.00
1852, 772.00
1853, 771.00
1854, 770.00
1855, 769.00
1856, 768.00
1857, 767.00
1858, 767.00
1859, 765.00
1860, 766.00
1861, 764.00
1862, 764.00
1863, 763.00
1864, 763.00
1865, 762.00
1866, 762.00
1867, 761.00
1868, 760.00
1869, 760.00
1870, 759.00
1871, 759.00
1872, 758.00
1873, 758.00
1874, 758.00
1875, 757.00
1876, 757.00
1877, 756.00
1878, 756.00
1879, 756.00
1880, 755.00
1881, 756.00
1882, 755.00
1883, 754.00
1884, 754.00
1885, 754.00
1886, 754.00
1887, 754.00
1888, 754.00
1889, 753.00
1890, 753.00
1891, 753.00
1892, 753.00
1893, 753.00
1894, 753.00
1895, 752.00
1896, 752.00
1897, 752.00
1898, 751.00
1899, 751.00
1900, 751.00
1901, 751.00
1902, 751.00
1903, 751.00
1904, 751.00
1905, 751.00
1906, 751.00
1907, 751.00
1908, 751.00
1909, 751.00
1910, 751.00
1911, 751.00
1912, 750.00
1913, 751.00
1914, 751.00
1915, 751.00
1916, 750.00
1917, 750.00
1918, 751.00
1919, 750.00
1920, 750.00
1921, 751.00
1922, 750.00
1923, 751.00
1924, 750.00
1925, 750.00
1926, 750.00
1927, 750.00
1928, 750.00
1929, 751.00
1930, 750.00
1931, 750.00
1932, 749.00
1933, 750.00
1934, 750.00
1935, 750.00
1936, 750.00
1937, 750.00
1938, 750.00
1939, 750.00
1940, 750.00
1941, 750.00
1942, 751.00
1943, 751.00
1944, 751.00
1945, 751.00
1946, 751.00
1947, 751.00
1948, 751.00
1949, 751.00
1950, 751.00
1951, 752.00
1952, 751.00
1953, 752.00
1954, 752.00
1955, 752.00
1956, 752.00
1957, 752.00
1958, 752.00
1959, 753.00
1960, 753.00
1961, 753.00
1962, 752.00
1963, 753.00
1964, 753.00
1965, 752.00
1966, 754.00
1967, 754.00
1968, 753.00
1969, 753.00
1970, 754.00
1971, 754.00
1972, 754.00
1973, 754.00
1974, 754.00
1975, 755.00
1976, 755.00
1977, 754.00
1978, 756.00
1979, 755.00
1980, 756.00
1981, 756.00
1982, 757.00
1983, 756.00
1984, 756.00
1985, 757.00
1986, 757.00
1987, 757.00
1988, 757.00
1989, 757.00
1990, 757.00
1991, 757.00
1992, 758.00
1993, 758.00
1994, 757.00
1995, 759.00
1996, 759.00
1997, 759.00
1998, 759.00
1999, 759.00
2000, 759.00
2001, 759.00
2002, 759.00
2003, 759.00
2004, 759.00
2005, 759.00
2006, 760.00
2007, 760.00
2008, 760.00
2009, 760.00
2010, 760.00
2011, 760.00
2012, 760.00
2013, 762.00
2014, 762.00
2015, 761.00
2016, 762.00
2017, 762.00
2018, 762.00
2019, 762.00
2020, 763.00
2021, 762.00
2022, 763.00
2023, 762.00
2024, 763.00
2025, 762.00
2026, 763.00
2027, 764.00
2028, 764.00
2029, 765.00
2030, 764.00
2031, 764.00
2032, 764.00
2033, 765.00
2034, 765.00
2035, 765.00
2036, 766.00
2037, 765.00
2038, 765.00
2039, 766.00
2040, 766.00
2041, 766.00
2042, 766.00
2043, 767.00
2044, 767.00
2045, 768.00
2046, 767.00
2047, 768.00
2048, 769.00
2049, 768.00
2050, 769.00
2051, 769.00
2052, 769.00
2053, 770.00
2054, 770.00
2055, 770.00
2056, 771.00
2057, 770.00
2058, 771.00
2059, 771.00
2060, 772.00
2061, 771.00
2062, 772.00
2063, 772.00
2064, 772.00
2065, 773.00
2066, 773.00
2067, 773.00
2068, 774.00
2069, 774.00
2070, 774.00
2071, 774.00
2072, 775.00
2073, 775.00
2074, 775.00
2075, 776.00
2076, 776.00
2077, 776.00
2078, 776.00
2079, 776.00
2080, 776.00
2081, 777.00
2082, 776.00
2083, 777.00
2084, 778.00
2085, 778.00
2086, 778.00
2087, 778.00
2088, 779.00
2089, 779.00
2090, 778.00
2091, 779.00
2092, 780.00
2093, 779.00
2094, 780.00
2095, 780.00
2096, 780.00
2097, 779.00
2098, 780.00
2099, 780.00
2100, 780.00
2101, 781.00
2102, 781.00
2103, 781.00
2104, 781.00
2105, 782.00
2106, 781.00
2107, 782.00
2108, 782.00
2109, 783.00
2110, 782.00
2111, 782.00
2112, 782.00
2113, 783.00
2114, 782.00
2115, 783.00
2116, 783.00
2117, 784.00
2118, 783.00
2119, 784.00
2120, 784.00
2121, 783.00
2122, 784.00
2123, 784.00
2124, 784.00
2125, 784.00
2126, 784.00
2127, 784.00
2128, 784.00
2129, 784.00
2130, 784.00
2131, 785.00
2132, 785.00
2133, 785.00
2134, 785.00
2135, 785.00
2136, 785.00
2137, 785.00
2138, 784.00
2139, 785.00
2140, 785.00
2141, 786.00
2142, 785.00
2143, 785.00
2144, 786.00
2145, 786.00
2146, 786.00
2147, 786.00
2148, 786.00
2149, 786.00
2150, 786.00
