FW version: 24
Log Version: 3.0.3

General Info:
       Command/Macro Performed,            Timestamp,             Device ID, COM Port, UART/I2C, Test Name, Host Major, Host Minor, Host Revision, Host Git Commit
            Single_measurement,  2023_06_30_12_24_11,       Insight2_F4_xxx,    USB-C,      USB,          ,          0,          1,             1,      4031237645

Show Spectrometer Status:
l0_version, f4_version, battery_perc, battery_mVolt, accelerometer_temp, accelerometer_x, accelerometer_y, accelerometer_z, compass_temp, compass_x, compass_y, compass_z, lamp_0, lamp_1, gain_0, gain_1
        17,         24,           95,          2079,               5776,           65276,              80,           18436,            0,     65535,     65369,     65511,   3276,   3276,      0,      0

Temperature Statistic Info:
NTC AVG [°C], NTC2 AVG [°C]
      37.612,        37.295

Statistic Info:
M1:  num,      min,      max,   median,      AVG,      STD,M2:  num,      min,      max,   median,      AVG,      STD
     301,   644.00,   726.00,   663.00,   670.94,  25.4859,     401,   890.00,   939.00,   916.00,   914.83,  16.7774,

Measurements:
Wavelength, Data Amplitude
1350, 653.00
1351, 653.00
1352, 653.00
1353, 653.00
1354, 653.00
1355, 653.00
1356, 652.00
1357, 653.00
1358, 652.00
1359, 652.00
1360, 652.00
1361, 651.00
1362, 651.00
1363, 651.00
1364, 651.00
1365, 650.00
1366, 650.00
1367, 650.00
1368, 650.00
1369, 650.00
1370, 650.00
1371, 649.00
1372, 649.00
1373, 648.00
1374, 649.00
1375, 648.00
1376, 648.00
1377, 648.00
1378, 647.00
1379, 647.00
1380, 647.00
1381, 647.00
1382, 646.00
1383, 646.00
1384, 646.00
1385, 646.00
1386, 646.00
1387, 646.00
1388, 646.00
1389, 646.00
1390, 645.00
1391, 645.00
1392, 645.00
1393, 645.00
1394, 645.00
1395, 645.00
1396, 645.00
1397, 644.00
1398, 645.00
1399, 645.00
1400, 644.00
1401, 644.00
1402, 645.00
1403, 644.00
1404, 645.00
1405, 644.00
1406, 644.00
1407, 644.00
1408, 644.00
1409, 644.00
1410, 644.00
1411, 644.00
1412, 644.00
1413, 644.00
1414, 644.00
1415, 644.00
1416, 644.00
1417, 644.00
1418, 644.00
1419, 644.00
1420, 644.00
1421, 644.00
1422, 644.00
1423, 644.00
1424, 644.00
1425, 644.00
1426, 645.00
1427, 644.00
1428, 645.00
1429, 645.00
1430, 645.00
1431, 645.00
1432, 645.00
1433, 646.00
1434, 645.00
1435, 646.00
1436, 646.00
1437, 646.00
1438, 646.00
1439, 646.00
1440, 646.00
1441, 646.00
1442, 647.00
1443, 647.00
1444, 646.00
1445, 647.00
1446, 648.00
1447, 647.00
1448, 647.00
1449, 648.00
1450, 648.00
1451, 648.00
1452, 648.00
1453, 648.00
1454, 649.00
1455, 649.00
1456, 650.00
1457, 650.00
1458, 650.00
1459, 651.00
1460, 650.00
1461, 650.00
1462, 650.00
1463, 651.00
1464, 651.00
1465, 651.00
1466, 652.00
1467, 652.00
1468, 653.00
1469, 652.00
1470, 652.00
1471, 653.00
1472, 653.00
1473, 654.00
1474, 654.00
1475, 654.00
1476, 655.00
1477, 655.00
1478, 656.00
1479, 655.00
1480, 656.00
1481, 657.00
1482, 656.00
1483, 657.00
1484, 658.00
1485, 657.00
1486, 658.00
1487, 658.00
1488, 659.00
1489, 659.00
1490, 659.00
1491, 659.00
1492, 659.00
1493, 660.00
1494, 661.00
1495, 662.00
1496, 661.00
1497, 661.00
1498, 662.00
1499, 662.00
1500, 663.00
1501, 663.00
1502, 663.00
1503, 663.00
1504, 663.00
1505, 664.00
1506, 665.00
1507, 665.00
1508, 665.00
1509, 665.00
1510, 666.00
1511, 666.00
1512, 666.00
1513, 667.00
1514, 667.00
1515, 668.00
1516, 668.00
1517, 668.00
1518, 669.00
1519, 669.00
1520, 669.00
1521, 670.00
1522, 670.00
1523, 671.00
1524, 671.00
1525, 671.00
1526, 672.00
1527, 672.00
1528, 672.00
1529, 673.00
1530, 673.00
1531, 674.00
1532, 674.00
1533, 675.00
1534, 675.00
1535, 675.00
1536, 676.00
1537, 676.00
1538, 677.00
1539, 677.00
1540, 677.00
1541, 677.00
1542, 678.00
1543, 679.00
1544, 679.00
1545, 679.00
1546, 679.00
1547, 680.00
1548, 680.00
1549, 680.00
1550, 681.00
1551, 682.00
1552, 682.00
1553, 683.00
1554, 683.00
1555, 684.00
1556, 684.00
1557, 684.00
1558, 684.00
1559, 685.00
1560, 685.00
1561, 686.00
1562, 687.00
1563, 687.00
1564, 687.00
1565, 688.00
1566, 688.00
1567, 689.00
1568, 689.00
1569, 690.00
1570, 690.00
1571, 690.00
1572, 691.00
1573, 691.00
1574, 692.00
1575, 692.00
1576, 692.00
1577, 693.00
1578, 693.00
1579, 694.00
1580, 694.00
1581, 695.00
1582, 695.00
1583, 695.00
1584, 695.00
1585, 696.00
1586, 697.00
1587, 697.00
1588, 697.00
1589, 697.00
1590, 698.00
1591, 698.00
1592, 699.00
1593, 699.00
1594, 699.00
1595, 700.00
1596, 700.00
1597, 700.00
1598, 701.00
1599, 702.00
1600, 702.00
1601, 702.00
1602, 703.00
1603, 703.00
1604, 704.00
1605, 704.00
1606, 704.00
1607, 705.00
1608, 706.00
1609, 706.00
1610, 706.00
1611, 707.00
1612, 707.00
1613, 708.00
1614, 708.00
1615, 709.00
1616, 710.00
1617, 710.00
1618, 711.00
1619, 711.00
1620, 712.00
1621, 712.00
1622, 713.00
1623, 713.00
1624, 714.00
1625, 714.00
1626, 714.00
1627, 715.00
1628, 716.00
1629, 716.00
1630, 717.00
1631, 717.00
1632, 718.00
1633, 718.00
1634, 719.00
1635, 719.00
1636, 719.00
1637, 720.00
1638, 720.00
1639, 720.00
1640, 721.00
1641, 721.00
1642, 722.00
1643, 723.00
1644, 723.00
1645, 723.00
1646, 723.00
1647, 724.00
1648, 725.00
1649, 725.00
1650, 726.00

1750, 939.00
1751, 939.00
1752, 939.00
1753, 939.00
1754, 939.00
1755, 938.00
1756, 939.00
1757, 939.00
1758, 939.00
1759, 939.00
1760, 939.00
1761, 939.00
1762, 938.00
1763, 939.00
1764, 939.00
1765, 939.00
1766, 939.00
1767, 938.00
1768, 939.00
1769, 939.00
1770, 938.00
1771, 938.00
1772, 939.00
1773, 937.00
1774, 938.00
1775, 938.00
1776, 937.00
1777, 937.00
1778, 937.00
1779, 937.00
1780, 936.00
1781, 936.00
1782, 936.00
1783, 936.00
1784, 936.00
1785, 935.00
1786, 936.00
1787, 936.00
1788, 935.00
1789, 935.00
1790, 935.00
1791, 935.00
1792, 935.00
1793, 934.00
1794, 934.00
1795, 934.00
1796, 934.00
1797, 933.00
1798, 933.00
1799, 935.00
1800, 933.00
1801, 933.00
1802, 934.00
1803, 933.00
1804, 933.00
1805, 933.00
1806, 933.00
1807, 933.00
1808, 933.00
1809, 932.00
1810, 932.00
1811, 932.00
1812, 931.00
1813, 932.00
1814, 932.00
1815, 932.00
1816, 931.00
1817, 931.00
1818, 932.00
1819, 931.00
1820, 931.00
1821, 930.00
1822, 930.00
1823, 930.00
1824, 930.00
1825, 929.00
1826, 929.00
1827, 929.00
1828, 928.00
1829, 929.00
1830, 928.00
1831, 928.00
1832, 926.00
1833, 927.00
1834, 926.00
1835, 926.00
1836, 925.00
1837, 924.00
1838, 924.00
1839, 923.00
1840, 923.00
1841, 922.00
1842, 922.00
1843, 921.00
1844, 920.00
1845, 919.00
1846, 919.00
1847, 918.00
1848, 918.00
1849, 916.00
1850, 915.00
1851, 915.00
1852, 915.00
1853, 914.00
1854, 912.00
1855, 912.00
1856, 911.00
1857, 911.00
1858, 910.00
1859, 909.00
1860, 908.00
1861, 907.00
1862, 906.00
1863, 906.00
1864, 904.00
1865, 904.00
1866, 903.00
1867, 902.00
1868, 902.00
1869, 901.00
1870, 901.00
1871, 901.00
1872, 900.00
1873, 899.00
1874, 899.00
1875, 898.00
1876, 898.00
1877, 897.00
1878, 897.00
1879, 896.00
1880, 897.00
1881, 896.00
1882, 895.00
1883, 895.00
1884, 895.00
1885, 895.00
1886, 895.00
1887, 894.00
1888, 894.00
1889, 894.00
1890, 894.00
1891, 894.00
1892, 893.00
1893, 894.00
1894, 893.00
1895, 893.00
1896, 893.00
1897, 893.00
1898, 892.00
1899, 892.00
1900, 892.00
1901, 892.00
1902, 892.00
1903, 891.00
1904, 892.00
1905, 892.00
1906, 891.00
1907, 892.00
1908, 891.00
1909, 891.00
1910, 890.00
1911, 891.00
1912, 891.00
1913, 891.00
1914, 891.00
1915, 891.00
1916, 892.00
1917, 891.00
1918, 890.00
1919, 891.00
1920, 890.00
1921, 890.00
1922, 891.00
1923, 890.00
1924, 891.00
1925, 890.00
1926, 891.00
1927, 891.00
1928, 891.00
1929, 891.00
1930, 891.00
1931, 891.00
1932, 891.00
1933, 891.00
1934, 891.00
1935, 892.00
1936, 891.00
1937, 892.00
1938, 892.00
1939, 891.00
1940, 891.00
1941, 892.00
1942, 891.00
1943, 892.00
1944, 892.00
1945, 891.00
1946, 892.00
1947, 893.00
1948, 892.00
1949, 892.00
1950, 893.00
1951, 892.00
1952, 893.00
1953, 893.00
1954, 893.00
1955, 893.00
1956, 893.00
1957, 894.00
1958, 894.00
1959, 894.00
1960, 894.00
1961, 894.00
1962, 895.00
1963, 895.00
1964, 895.00
1965, 895.00
1966, 896.00
1967, 895.00
1968, 895.00
1969, 897.00
1970, 897.00
1971, 896.00
1972, 897.00
1973, 896.00
1974, 897.00
1975, 897.00
1976, 898.00
1977, 898.00
1978, 898.00
1979, 899.00
1980, 899.00
1981, 900.00
1982, 899.00
1983, 900.00
1984, 900.00
1985, 900.00
1986, 900.00
1987, 900.00
1988, 900.00
1989, 900.00
1990, 901.00
1991, 901.00
1992, 901.00
1993, 901.00
1994, 902.00
1995, 902.00
1996, 903.00
1997, 903.00
1998, 903.00
1999, 903.00
2000, 903.00
2001, 904.00
2002, 903.00
2003, 904.00
2004, 904.00
2005, 904.00
2006, 905.00
2007, 905.00
2008, 905.00
2009, 905.00
2010, 906.00
2011, 906.00
2012, 906.00
2013, 906.00
2014, 906.00
2015, 907.00
2016, 907.00
2017, 906.00
2018, 908.00
2019, 908.00
2020, 907.00
2021, 908.00
2022, 908.00
2023, 908.00
2024, 909.00
2025, 908.00
2026, 909.00
2027, 909.00
2028, 909.00
2029, 909.00
2030, 910.00
2031, 909.00
2032, 911.00
2033, 911.00
2034, 911.00
2035, 912.00
2036, 911.00
2037, 911.00
2038, 912.00
2039, 912.00
2040, 913.00
2041, 913.00
2042, 912.00
2043, 913.00
2044, 914.00
2045, 914.00
2046, 915.00
2047, 915.00
2048, 915.00
2049, 915.00
2050, 916.00
2051, 916.00
2052, 916.00
2053, 917.00
2054, 916.00
2055, 917.00
2056, 917.00
2057, 918.00
2058, 918.00
2059, 919.00
2060, 919.00
2061, 919.00
2062, 919.00
2063, 920.00
2064, 920.00
2065, 921.00
2066, 920.00
2067, 921.00
2068, 921.00
2069, 922.00
2070, 922.00
2071, 922.00
2072, 922.00
2073, 923.00
2074, 922.00
2075, 924.00
2076, 923.00
2077, 924.00
2078, 925.00
2079, 924.00
2080, 925.00
2081, 926.00
2082, 925.00
2083, 925.00
2084, 926.00
2085, 926.00
2086, 926.00
2087, 927.00
2088, 927.00
2089, 927.00
2090, 927.00
2091, 928.00
2092, 928.00
2093, 928.00
2094, 929.00
2095, 928.00
2096, 929.00
2097, 929.00
2098, 929.00
2099, 929.00
2100, 929.00
2101, 930.00
2102, 929.00
2103, 930.00
2104, 930.00
2105, 930.00
2106, 930.00
2107, 930.00
2108, 930.00
2109, 931.00
2110, 931.00
2111, 931.00
2112, 931.00
2113, 931.00
2114, 932.00
2115, 931.00
2116, 931.00
2117, 932.00
2118, 931.00
2119, 932.00
2120, 932.00
2121, 932.00
2122, 932.00
2123, 932.00
2124, 932.00
2125, 932.00
2126, 932.00
2127, 933.00
2128, 933.00
2129, 932.00
2130, 933.00
2131, 933.00
2132, 933.00
2133, 933.00
2134, 932.00
2135, 934.00
2136, 933.00
2137, 933.00
2138, 933.00
2139, 934.00
2140, 934.00
2141, 934.00
2142, 933.00
2143, 934.00
2144, 934.00
2145, 934.00
2146, 934.00
2147, 933.00
2148, 935.00
2149, 934.00
2150, 935.00
