FW version: 24
Log Version: 3.0.3

General Info:
       Command/Macro Performed,            Timestamp,             Device ID, COM Port, UART/I2C, Test Name, Host Major, Host Minor, Host Revision, Host Git Commit
            Single_measurement,  2023_06_29_12_08_40,       Insight2_F4_xxx,    USB-C,      USB,          ,          0,          1,             1,      4031237645

Show Spectrometer Status:
l0_version, f4_version, battery_perc, battery_mVolt, accelerometer_temp, accelerometer_x, accelerometer_y, accelerometer_z, compass_temp, compass_x, compass_y, compass_z, lamp_0, lamp_1, gain_0, gain_1
        17,         24,           95,          2070,               5728,           65468,              60,           18424,            0,     65468,     65407,     65530,   2047,   2047,      1,      1

Temperature Statistic Info:
NTC AVG [°C], NTC2 AVG [°C]
      37.755,        37.468

Statistic Info:
M1:  num,      min,      max,   median,      AVG,      STD,M2:  num,      min,      max,   median,      AVG,      STD
     301,   831.00,   958.00,   862.00,   874.54,  40.2570,     401,  1310.00,  1385.00,  1351.00,  1349.29,  26.1963,

Measurements:
Wavelength, Data Amplitude
1350, 843.00
1351, 844.00
1352, 843.00
1353, 843.00
1354, 844.00
1355, 843.00
1356, 843.00
1357, 842.00
1358, 843.00
1359, 841.00
1360, 842.00
1361, 841.00
1362, 841.00
1363, 842.00
1364, 840.00
1365, 840.00
1366, 839.00
1367, 840.00
1368, 840.00
1369, 838.00
1370, 839.00
1371, 838.00
1372, 838.00
1373, 837.00
1374, 838.00
1375, 837.00
1376, 836.00
1377, 836.00
1378, 835.00
1379, 836.00
1380, 834.00
1381, 835.00
1382, 834.00
1383, 834.00
1384, 834.00
1385, 834.00
1386, 833.00
1387, 833.00
1388, 832.00
1389, 833.00
1390, 834.00
1391, 833.00
1392, 833.00
1393, 833.00
1394, 834.00
1395, 833.00
1396, 832.00
1397, 832.00
1398, 833.00
1399, 832.00
1400, 832.00
1401, 832.00
1402, 833.00
1403, 832.00
1404, 832.00
1405, 833.00
1406, 833.00
1407, 832.00
1408, 832.00
1409, 831.00
1410, 832.00
1411, 832.00
1412, 832.00
1413, 831.00
1414, 832.00
1415, 833.00
1416, 832.00
1417, 832.00
1418, 832.00
1419, 832.00
1420, 833.00
1421, 832.00
1422, 833.00
1423, 833.00
1424, 833.00
1425, 832.00
1426, 833.00
1427, 832.00
1428, 833.00
1429, 833.00
1430, 834.00
1431, 834.00
1432, 834.00
1433, 835.00
1434, 835.00
1435, 835.00
1436, 836.00
1437, 835.00
1438, 836.00
1439, 836.00
1440, 835.00
1441, 836.00
1442, 836.00
1443, 837.00
1444, 837.00
1445, 837.00
1446, 838.00
1447, 837.00
1448, 837.00
1449, 838.00
1450, 837.00
1451, 840.00
1452, 839.00
1453, 841.00
1454, 840.00
1455, 840.00
1456, 841.00
1457, 841.00
1458, 841.00
1459, 841.00
1460, 842.00
1461, 842.00
1462, 843.00
1463, 843.00
1464, 844.00
1465, 844.00
1466, 845.00
1467, 845.00
1468, 846.00
1469, 845.00
1470, 847.00
1471, 848.00
1472, 847.00
1473, 848.00
1474, 848.00
1475, 849.00
1476, 849.00
1477, 849.00
1478, 851.00
1479, 852.00
1480, 852.00
1481, 851.00
1482, 852.00
1483, 853.00
1484, 854.00
1485, 853.00
1486, 853.00
1487, 855.00
1488, 856.00
1489, 855.00
1490, 857.00
1491, 857.00
1492, 858.00
1493, 858.00
1494, 859.00
1495, 860.00
1496, 859.00
1497, 860.00
1498, 861.00
1499, 862.00
1500, 862.00
1501, 863.00
1502, 863.00
1503, 864.00
1504, 864.00
1505, 865.00
1506, 866.00
1507, 866.00
1508, 866.00
1509, 868.00
1510, 867.00
1511, 868.00
1512, 870.00
1513, 870.00
1514, 871.00
1515, 871.00
1516, 871.00
1517, 871.00
1518, 873.00
1519, 873.00
1520, 874.00
1521, 875.00
1522, 875.00
1523, 876.00
1524, 876.00
1525, 876.00
1526, 877.00
1527, 879.00
1528, 879.00
1529, 880.00
1530, 881.00
1531, 881.00
1532, 881.00
1533, 882.00
1534, 882.00
1535, 882.00
1536, 884.00
1537, 883.00
1538, 885.00
1539, 885.00
1540, 885.00
1541, 887.00
1542, 887.00
1543, 888.00
1544, 888.00
1545, 889.00
1546, 889.00
1547, 890.00
1548, 890.00
1549, 891.00
1550, 892.00
1551, 892.00
1552, 893.00
1553, 894.00
1554, 895.00
1555, 895.00
1556, 895.00
1557, 896.00
1558, 896.00
1559, 897.00
1560, 898.00
1561, 899.00
1562, 899.00
1563, 899.00
1564, 901.00
1565, 901.00
1566, 902.00
1567, 903.00
1568, 904.00
1569, 904.00
1570, 905.00
1571, 906.00
1572, 906.00
1573, 907.00
1574, 908.00
1575, 908.00
1576, 909.00
1577, 909.00
1578, 910.00
1579, 911.00
1580, 912.00
1581, 912.00
1582, 912.00
1583, 913.00
1584, 913.00
1585, 914.00
1586, 914.00
1587, 916.00
1588, 917.00
1589, 916.00
1590, 917.00
1591, 917.00
1592, 918.00
1593, 919.00
1594, 920.00
1595, 920.00
1596, 921.00
1597, 922.00
1598, 922.00
1599, 923.00
1600, 923.00
1601, 925.00
1602, 924.00
1603, 925.00
1604, 926.00
1605, 926.00
1606, 928.00
1607, 929.00
1608, 928.00
1609, 930.00
1610, 931.00
1611, 932.00
1612, 932.00
1613, 933.00
1614, 934.00
1615, 935.00
1616, 936.00
1617, 936.00
1618, 937.00
1619, 938.00
1620, 939.00
1621, 940.00
1622, 940.00
1623, 941.00
1624, 942.00
1625, 943.00
1626, 943.00
1627, 943.00
1628, 944.00
1629, 946.00
1630, 946.00
1631, 947.00
1632, 948.00
1633, 948.00
1634, 949.00
1635, 949.00
1636, 950.00
1637, 951.00
1638, 951.00
1639, 952.00
1640, 953.00
1641, 953.00
1642, 953.00
1643, 954.00
1644, 955.00
1645, 955.00
1646, 955.00
1647, 957.00
1648, 957.00
1649, 957.00
1650, 958.00

1750, 1383.00
1751, 1384.00
1752, 1381.00
1753, 1382.00
1754, 1385.00
1755, 1385.00
1756, 1383.00
1757, 1383.00
1758, 1382.00
1759, 1382.00
1760, 1382.00
1761, 1384.00
1762, 1384.00
1763, 1384.00
1764, 1381.00
1765, 1382.00
1766, 1382.00
1767, 1380.00
1768, 1383.00
1769, 1383.00
1770, 1378.00
1771, 1381.00
1772, 1380.00
1773, 1382.00
1774, 1382.00
1775, 1381.00
1776, 1380.00
1777, 1381.00
1778, 1381.00
1779, 1382.00
1780, 1381.00
1781, 1381.00
1782, 1379.00
1783, 1382.00
1784, 1379.00
1785, 1379.00
1786, 1380.00
1787, 1379.00
1788, 1379.00
1789, 1379.00
1790, 1378.00
1791, 1376.00
1792, 1379.00
1793, 1377.00
1794, 1376.00
1795, 1377.00
1796, 1376.00
1797, 1378.00
1798, 1375.00
1799, 1378.00
1800, 1376.00
1801, 1375.00
1802, 1376.00
1803, 1376.00
1804, 1375.00
1805, 1373.00
1806, 1375.00
1807, 1374.00
1808, 1374.00
1809, 1373.00
1810, 1374.00
1811, 1373.00
1812, 1374.00
1813, 1374.00
1814, 1373.00
1815, 1373.00
1816, 1372.00
1817, 1373.00
1818, 1373.00
1819, 1373.00
1820, 1371.00
1821, 1372.00
1822, 1371.00
1823, 1370.00
1824, 1371.00
1825, 1371.00
1826, 1370.00
1827, 1370.00
1828, 1368.00
1829, 1367.00
1830, 1368.00
1831, 1367.00
1832, 1365.00
1833, 1367.00
1834, 1366.00
1835, 1364.00
1836, 1364.00
1837, 1364.00
1838, 1362.00
1839, 1361.00
1840, 1361.00
1841, 1360.00
1842, 1357.00
1843, 1356.00
1844, 1357.00
1845, 1354.00
1846, 1353.00
1847, 1353.00
1848, 1351.00
1849, 1351.00
1850, 1351.00
1851, 1349.00
1852, 1347.00
1853, 1348.00
1854, 1343.00
1855, 1342.00
1856, 1342.00
1857, 1342.00
1858, 1341.00
1859, 1339.00
1860, 1337.00
1861, 1335.00
1862, 1334.00
1863, 1334.00
1864, 1331.00
1865, 1333.00
1866, 1332.00
1867, 1329.00
1868, 1328.00
1869, 1327.00
1870, 1327.00
1871, 1324.00
1872, 1324.00
1873, 1324.00
1874, 1324.00
1875, 1323.00
1876, 1322.00
1877, 1323.00
1878, 1321.00
1879, 1321.00
1880, 1319.00
1881, 1320.00
1882, 1320.00
1883, 1317.00
1884, 1317.00
1885, 1316.00
1886, 1317.00
1887, 1318.00
1888, 1317.00
1889, 1316.00
1890, 1317.00
1891, 1315.00
1892, 1314.00
1893, 1313.00
1894, 1314.00
1895, 1314.00
1896, 1314.00
1897, 1313.00
1898, 1315.00
1899, 1315.00
1900, 1313.00
1901, 1312.00
1902, 1313.00
1903, 1313.00
1904, 1312.00
1905, 1313.00
1906, 1312.00
1907, 1312.00
1908, 1313.00
1909, 1311.00
1910, 1311.00
1911, 1312.00
1912, 1311.00
1913, 1310.00
1914, 1312.00
1915, 1311.00
1916, 1310.00
1917, 1311.00
1918, 1313.00
1919, 1310.00
1920, 1312.00
1921, 1310.00
1922, 1310.00
1923, 1311.00
1924, 1312.00
1925, 1310.00
1926, 1311.00
1927, 1311.00
1928, 1313.00
1929, 1312.00
1930, 1311.00
1931, 1310.00
1932, 1311.00
1933, 1312.00
1934, 1312.00
1935, 1312.00
1936, 1312.00
1937, 1312.00
1938, 1312.00
1939, 1312.00
1940, 1312.00
1941, 1314.00
1942, 1313.00
1943, 1314.00
1944, 1314.00
1945, 1314.00
1946, 1313.00
1947, 1314.00
1948, 1314.00
1949, 1315.00
1950, 1315.00
1951, 1315.00
1952, 1314.00
1953, 1316.00
1954, 1317.00
1955, 1317.00
1956, 1316.00
1957, 1316.00
1958, 1316.00
1959, 1317.00
1960, 1319.00
1961, 1318.00
1962, 1319.00
1963, 1318.00
1964, 1319.00
1965, 1318.00
1966, 1320.00
1967, 1322.00
1968, 1320.00
1969, 1319.00
1970, 1320.00
1971, 1320.00
1972, 1321.00
1973, 1322.00
1974, 1323.00
1975, 1322.00
1976, 1323.00
1977, 1323.00
1978, 1323.00
1979, 1323.00
1980, 1325.00
1981, 1326.00
1982, 1325.00
1983, 1325.00
1984, 1327.00
1985, 1325.00
1986, 1325.00
1987, 1327.00
1988, 1327.00
1989, 1328.00
1990, 1328.00
1991, 1328.00
1992, 1328.00
1993, 1329.00
1994, 1329.00
1995, 1330.00
1996, 1331.00
1997, 1330.00
1998, 1329.00
1999, 1330.00
2000, 1333.00
2001, 1332.00
2002, 1332.00
2003, 1334.00
2004, 1333.00
2005, 1333.00
2006, 1334.00
2007, 1333.00
2008, 1335.00
2009, 1334.00
2010, 1336.00
2011, 1334.00
2012, 1336.00
2013, 1336.00
2014, 1338.00
2015, 1337.00
2016, 1338.00
2017, 1337.00
2018, 1336.00
2019, 1338.00
2020, 1338.00
2021, 1339.00
2022, 1338.00
2023, 1339.00
2024, 1338.00
2025, 1341.00
2026, 1342.00
2027, 1342.00
2028, 1345.00
2029, 1342.00
2030, 1344.00
2031, 1342.00
2032, 1344.00
2033, 1343.00
2034, 1345.00
2035, 1344.00
2036, 1344.00
2037, 1345.00
2038, 1346.00
2039, 1346.00
2040, 1347.00
2041, 1347.00
2042, 1349.00
2043, 1349.00
2044, 1350.00
2045, 1349.00
2046, 1350.00
2047, 1349.00
2048, 1352.00
2049, 1351.00
2050, 1353.00
2051, 1351.00
2052, 1353.00
2053, 1352.00
2054, 1354.00
2055, 1354.00
2056, 1356.00
2057, 1356.00
2058, 1356.00
2059, 1357.00
2060, 1359.00
2061, 1358.00
2062, 1357.00
2063, 1359.00
2064, 1359.00
2065, 1361.00
2066, 1360.00
2067, 1361.00
2068, 1361.00
2069, 1364.00
2070, 1363.00
2071, 1363.00
2072, 1363.00
2073, 1363.00
2074, 1365.00
2075, 1366.00
2076, 1366.00
2077, 1365.00
2078, 1366.00
2079, 1367.00
2080, 1367.00
2081, 1367.00
2082, 1366.00
2083, 1369.00
2084, 1370.00
2085, 1368.00
2086, 1370.00
2087, 1371.00
2088, 1371.00
2089, 1371.00
2090, 1372.00
2091, 1372.00
2092, 1370.00
2093, 1372.00
2094, 1372.00
2095, 1374.00
2096, 1374.00
2097, 1375.00
2098, 1374.00
2099, 1374.00
2100, 1376.00
2101, 1375.00
2102, 1375.00
2103, 1375.00
2104, 1375.00
2105, 1374.00
2106, 1375.00
2107, 1376.00
2108, 1377.00
2109, 1376.00
2110, 1377.00
2111, 1378.00
2112, 1378.00
2113, 1378.00
2114, 1377.00
2115, 1380.00
2116, 1376.00
2117, 1379.00
2118, 1378.00
2119, 1380.00
2120, 1379.00
2121, 1380.00
2122, 1379.00
2123, 1380.00
2124, 1379.00
2125, 1381.00
2126, 1381.00
2127, 1381.00
2128, 1380.00
2129, 1381.00
2130, 1382.00
2131, 1382.00
2132, 1382.00
2133, 1382.00
2134, 1384.00
2135, 1381.00
2136, 1381.00
2137, 1382.00
2138, 1383.00
2139, 1383.00
2140, 1383.00
2141, 1384.00
2142, 1383.00
2143, 1384.00
2144, 1382.00
2145, 1383.00
2146, 1381.00
2147, 1382.00
2148, 1383.00
2149, 1383.00
2150, 1382.00
