FW version: 24
Log Version: 3.0.3

General Info:
       Command/Macro Performed,            Timestamp,             Device ID, COM Port, UART/I2C, Test Name, Host Major, Host Minor, Host Revision, Host Git Commit
            Single_measurement,  2023_06_29_12_09_38,       Insight2_F4_xxx,    USB-C,      USB,          ,          0,          1,             1,      4031237645

Show Spectrometer Status:
l0_version, f4_version, battery_perc, battery_mVolt, accelerometer_temp, accelerometer_x, accelerometer_y, accelerometer_z, compass_temp, compass_x, compass_y, compass_z, lamp_0, lamp_1, gain_0, gain_1
        17,         24,           95,          2070,               5776,           65484,              60,           18380,            0,     65518,     65405,     65484,   3276,   3276,      1,      1

Temperature Statistic Info:
NTC AVG [°C], NTC2 AVG [°C]
      38.011,        37.698

Statistic Info:
M1:  num,      min,      max,   median,      AVG,      STD,M2:  num,      min,      max,   median,      AVG,      STD
     301,  2074.00,  2360.00,  2137.00,  2168.56,  89.0748,     401,  2875.00,  3036.00,  2957.00,  2955.69,  55.1728,

Measurements:
Wavelength, Data Amplitude
1350, 2109.00
1351, 2111.00
1352, 2110.00
1353, 2109.00
1354, 2108.00
1355, 2107.00
1356, 2107.00
1357, 2106.00
1358, 2106.00
1359, 2105.00
1360, 2105.00
1361, 2104.00
1362, 2104.00
1363, 2101.00
1364, 2101.00
1365, 2101.00
1366, 2100.00
1367, 2098.00
1368, 2097.00
1369, 2097.00
1370, 2096.00
1371, 2095.00
1372, 2094.00
1373, 2091.00
1374, 2091.00
1375, 2092.00
1376, 2090.00
1377, 2088.00
1378, 2087.00
1379, 2087.00
1380, 2085.00
1381, 2085.00
1382, 2085.00
1383, 2084.00
1384, 2083.00
1385, 2081.00
1386, 2082.00
1387, 2083.00
1388, 2081.00
1389, 2081.00
1390, 2080.00
1391, 2080.00
1392, 2079.00
1393, 2079.00
1394, 2079.00
1395, 2077.00
1396, 2078.00
1397, 2077.00
1398, 2077.00
1399, 2077.00
1400, 2076.00
1401, 2077.00
1402, 2077.00
1403, 2077.00
1404, 2076.00
1405, 2076.00
1406, 2075.00
1407, 2075.00
1408, 2075.00
1409, 2075.00
1410, 2076.00
1411, 2076.00
1412, 2076.00
1413, 2075.00
1414, 2076.00
1415, 2075.00
1416, 2075.00
1417, 2074.00
1418, 2075.00
1419, 2074.00
1420, 2074.00
1421, 2075.00
1422, 2076.00
1423, 2075.00
1424, 2076.00
1425, 2076.00
1426, 2077.00
1427, 2077.00
1428, 2077.00
1429, 2077.00
1430, 2077.00
1431, 2077.00
1432, 2078.00
1433, 2079.00
1434, 2079.00
1435, 2080.00
1436, 2080.00
1437, 2080.00
1438, 2082.00
1439, 2080.00
1440, 2082.00
1441, 2083.00
1442, 2083.00
1443, 2083.00
1444, 2084.00
1445, 2084.00
1446, 2084.00
1447, 2085.00
1448, 2087.00
1449, 2086.00
1450, 2086.00
1451, 2087.00
1452, 2089.00
1453, 2089.00
1454, 2090.00
1455, 2090.00
1456, 2092.00
1457, 2093.00
1458, 2093.00
1459, 2094.00
1460, 2094.00
1461, 2095.00
1462, 2097.00
1463, 2098.00
1464, 2098.00
1465, 2100.00
1466, 2101.00
1467, 2102.00
1468, 2103.00
1469, 2102.00
1470, 2104.00
1471, 2105.00
1472, 2107.00
1473, 2107.00
1474, 2108.00
1475, 2109.00
1476, 2110.00
1477, 2110.00
1478, 2113.00
1479, 2113.00
1480, 2115.00
1481, 2116.00
1482, 2117.00
1483, 2117.00
1484, 2119.00
1485, 2121.00
1486, 2121.00
1487, 2123.00
1488, 2125.00
1489, 2125.00
1490, 2125.00
1491, 2127.00
1492, 2128.00
1493, 2130.00
1494, 2130.00
1495, 2133.00
1496, 2133.00
1497, 2135.00
1498, 2135.00
1499, 2135.00
1500, 2137.00
1501, 2139.00
1502, 2140.00
1503, 2141.00
1504, 2142.00
1505, 2144.00
1506, 2145.00
1507, 2146.00
1508, 2147.00
1509, 2149.00
1510, 2149.00
1511, 2151.00
1512, 2153.00
1513, 2153.00
1514, 2155.00
1515, 2155.00
1516, 2157.00
1517, 2158.00
1518, 2159.00
1519, 2161.00
1520, 2163.00
1521, 2164.00
1522, 2165.00
1523, 2165.00
1524, 2167.00
1525, 2169.00
1526, 2170.00
1527, 2172.00
1528, 2172.00
1529, 2175.00
1530, 2175.00
1531, 2177.00
1532, 2178.00
1533, 2179.00
1534, 2181.00
1535, 2181.00
1536, 2184.00
1537, 2185.00
1538, 2186.00
1539, 2187.00
1540, 2190.00
1541, 2191.00
1542, 2191.00
1543, 2193.00
1544, 2195.00
1545, 2197.00
1546, 2198.00
1547, 2198.00
1548, 2200.00
1549, 2202.00
1550, 2203.00
1551, 2204.00
1552, 2206.00
1553, 2208.00
1554, 2208.00
1555, 2211.00
1556, 2212.00
1557, 2214.00
1558, 2215.00
1559, 2216.00
1560, 2218.00
1561, 2220.00
1562, 2221.00
1563, 2223.00
1564, 2225.00
1565, 2227.00
1566, 2229.00
1567, 2230.00
1568, 2231.00
1569, 2232.00
1570, 2234.00
1571, 2236.00
1572, 2238.00
1573, 2239.00
1574, 2241.00
1575, 2241.00
1576, 2243.00
1577, 2246.00
1578, 2247.00
1579, 2248.00
1580, 2251.00
1581, 2251.00
1582, 2254.00
1583, 2253.00
1584, 2255.00
1585, 2257.00
1586, 2258.00
1587, 2259.00
1588, 2260.00
1589, 2262.00
1590, 2263.00
1591, 2265.00
1592, 2267.00
1593, 2267.00
1594, 2269.00
1595, 2271.00
1596, 2272.00
1597, 2273.00
1598, 2275.00
1599, 2276.00
1600, 2278.00
1601, 2279.00
1602, 2281.00
1603, 2281.00
1604, 2283.00
1605, 2284.00
1606, 2287.00
1607, 2287.00
1608, 2291.00
1609, 2291.00
1610, 2293.00
1611, 2295.00
1612, 2297.00
1613, 2299.00
1614, 2301.00
1615, 2303.00
1616, 2304.00
1617, 2307.00
1618, 2307.00
1619, 2310.00
1620, 2310.00
1621, 2313.00
1622, 2315.00
1623, 2317.00
1624, 2317.00
1625, 2320.00
1626, 2322.00
1627, 2324.00
1628, 2327.00
1629, 2327.00
1630, 2329.00
1631, 2331.00
1632, 2333.00
1633, 2333.00
1634, 2335.00
1635, 2337.00
1636, 2338.00
1637, 2340.00
1638, 2341.00
1639, 2342.00
1640, 2345.00
1641, 2346.00
1642, 2347.00
1643, 2349.00
1644, 2349.00
1645, 2353.00
1646, 2353.00
1647, 2355.00
1648, 2357.00
1649, 2357.00
1650, 2360.00

1750, 3035.00
1751, 3036.00
1752, 3036.00
1753, 3033.00
1754, 3036.00
1755, 3035.00
1756, 3034.00
1757, 3035.00
1758, 3035.00
1759, 3036.00
1760, 3036.00
1761, 3034.00
1762, 3034.00
1763, 3036.00
1764, 3036.00
1765, 3034.00
1766, 3034.00
1767, 3034.00
1768, 3035.00
1769, 3035.00
1770, 3032.00
1771, 3034.00
1772, 3033.00
1773, 3032.00
1774, 3031.00
1775, 3030.00
1776, 3031.00
1777, 3030.00
1778, 3030.00
1779, 3031.00
1780, 3028.00
1781, 3029.00
1782, 3027.00
1783, 3027.00
1784, 3027.00
1785, 3026.00
1786, 3026.00
1787, 3025.00
1788, 3023.00
1789, 3024.00
1790, 3023.00
1791, 3022.00
1792, 3022.00
1793, 3021.00
1794, 3021.00
1795, 3021.00
1796, 3019.00
1797, 3020.00
1798, 3020.00
1799, 3019.00
1800, 3018.00
1801, 3016.00
1802, 3017.00
1803, 3016.00
1804, 3015.00
1805, 3015.00
1806, 3016.00
1807, 3014.00
1808, 3013.00
1809, 3013.00
1810, 3014.00
1811, 3015.00
1812, 3013.00
1813, 3013.00
1814, 3013.00
1815, 3011.00
1816, 3011.00
1817, 3011.00
1818, 3010.00
1819, 3011.00
1820, 3009.00
1821, 3008.00
1822, 3006.00
1823, 3007.00
1824, 3006.00
1825, 3003.00
1826, 3005.00
1827, 3003.00
1828, 3001.00
1829, 3001.00
1830, 2998.00
1831, 2998.00
1832, 2995.00
1833, 2995.00
1834, 2993.00
1835, 2991.00
1836, 2990.00
1837, 2989.00
1838, 2985.00
1839, 2982.00
1840, 2983.00
1841, 2982.00
1842, 2978.00
1843, 2975.00
1844, 2972.00
1845, 2972.00
1846, 2969.00
1847, 2967.00
1848, 2966.00
1849, 2963.00
1850, 2959.00
1851, 2956.00
1852, 2953.00
1853, 2952.00
1854, 2948.00
1855, 2945.00
1856, 2942.00
1857, 2941.00
1858, 2937.00
1859, 2937.00
1860, 2933.00
1861, 2930.00
1862, 2927.00
1863, 2926.00
1864, 2923.00
1865, 2921.00
1866, 2919.00
1867, 2915.00
1868, 2913.00
1869, 2913.00
1870, 2911.00
1871, 2907.00
1872, 2907.00
1873, 2904.00
1874, 2903.00
1875, 2902.00
1876, 2900.00
1877, 2897.00
1878, 2898.00
1879, 2895.00
1880, 2895.00
1881, 2895.00
1882, 2893.00
1883, 2892.00
1884, 2891.00
1885, 2888.00
1886, 2890.00
1887, 2888.00
1888, 2888.00
1889, 2889.00
1890, 2887.00
1891, 2886.00
1892, 2886.00
1893, 2885.00
1894, 2884.00
1895, 2883.00
1896, 2884.00
1897, 2884.00
1898, 2881.00
1899, 2881.00
1900, 2881.00
1901, 2882.00
1902, 2879.00
1903, 2879.00
1904, 2879.00
1905, 2879.00
1906, 2877.00
1907, 2879.00
1908, 2877.00
1909, 2877.00
1910, 2877.00
1911, 2877.00
1912, 2878.00
1913, 2875.00
1914, 2877.00
1915, 2875.00
1916, 2878.00
1917, 2875.00
1918, 2877.00
1919, 2876.00
1920, 2878.00
1921, 2878.00
1922, 2875.00
1923, 2878.00
1924, 2877.00
1925, 2877.00
1926, 2877.00
1927, 2876.00
1928, 2875.00
1929, 2875.00
1930, 2876.00
1931, 2877.00
1932, 2877.00
1933, 2877.00
1934, 2876.00
1935, 2878.00
1936, 2876.00
1937, 2880.00
1938, 2880.00
1939, 2877.00
1940, 2879.00
1941, 2880.00
1942, 2879.00
1943, 2879.00
1944, 2881.00
1945, 2881.00
1946, 2878.00
1947, 2881.00
1948, 2882.00
1949, 2882.00
1950, 2883.00
1951, 2883.00
1952, 2882.00
1953, 2885.00
1954, 2886.00
1955, 2886.00
1956, 2886.00
1957, 2888.00
1958, 2886.00
1959, 2887.00
1960, 2889.00
1961, 2889.00
1962, 2889.00
1963, 2892.00
1964, 2890.00
1965, 2891.00
1966, 2892.00
1967, 2893.00
1968, 2893.00
1969, 2895.00
1970, 2896.00
1971, 2897.00
1972, 2897.00
1973, 2895.00
1974, 2897.00
1975, 2898.00
1976, 2900.00
1977, 2899.00
1978, 2901.00
1979, 2902.00
1980, 2903.00
1981, 2905.00
1982, 2904.00
1983, 2904.00
1984, 2906.00
1985, 2907.00
1986, 2908.00
1987, 2908.00
1988, 2909.00
1989, 2909.00
1990, 2911.00
1991, 2910.00
1992, 2913.00
1993, 2914.00
1994, 2914.00
1995, 2913.00
1996, 2914.00
1997, 2915.00
1998, 2915.00
1999, 2916.00
2000, 2917.00
2001, 2918.00
2002, 2918.00
2003, 2920.00
2004, 2920.00
2005, 2923.00
2006, 2921.00
2007, 2924.00
2008, 2925.00
2009, 2925.00
2010, 2923.00
2011, 2926.00
2012, 2928.00
2013, 2926.00
2014, 2927.00
2015, 2929.00
2016, 2930.00
2017, 2930.00
2018, 2931.00
2019, 2931.00
2020, 2934.00
2021, 2931.00
2022, 2933.00
2023, 2934.00
2024, 2933.00
2025, 2935.00
2026, 2937.00
2027, 2937.00
2028, 2939.00
2029, 2939.00
2030, 2941.00
2031, 2940.00
2032, 2942.00
2033, 2941.00
2034, 2942.00
2035, 2943.00
2036, 2943.00
2037, 2946.00
2038, 2945.00
2039, 2945.00
2040, 2949.00
2041, 2949.00
2042, 2949.00
2043, 2951.00
2044, 2952.00
2045, 2952.00
2046, 2953.00
2047, 2954.00
2048, 2957.00
2049, 2955.00
2050, 2957.00
2051, 2957.00
2052, 2958.00
2053, 2961.00
2054, 2961.00
2055, 2962.00
2056, 2967.00
2057, 2965.00
2058, 2967.00
2059, 2966.00
2060, 2968.00
2061, 2969.00
2062, 2972.00
2063, 2972.00
2064, 2974.00
2065, 2974.00
2066, 2974.00
2067, 2975.00
2068, 2976.00
2069, 2977.00
2070, 2979.00
2071, 2979.00
2072, 2981.00
2073, 2982.00
2074, 2983.00
2075, 2983.00
2076, 2986.00
2077, 2983.00
2078, 2988.00
2079, 2987.00
2080, 2988.00
2081, 2989.00
2082, 2989.00
2083, 2991.00
2084, 2991.00
2085, 2993.00
2086, 2992.00
2087, 2991.00
2088, 2993.00
2089, 2994.00
2090, 2997.00
2091, 2997.00
2092, 2996.00
2093, 2998.00
2094, 2999.00
2095, 3000.00
2096, 2999.00
2097, 3000.00
2098, 3002.00
2099, 3005.00
2100, 3001.00
2101, 3004.00
2102, 3003.00
2103, 3004.00
2104, 3003.00
2105, 3006.00
2106, 3004.00
2107, 3006.00
2108, 3006.00
2109, 3007.00
2110, 3006.00
2111, 3005.00
2112, 3006.00
2113, 3009.00
2114, 3007.00
2115, 3010.00
2116, 3008.00
2117, 3009.00
2118, 3011.00
2119, 3010.00
2120, 3011.00
2121, 3010.00
2122, 3011.00
2123, 3010.00
2124, 3013.00
2125, 3013.00
2126, 3013.00
2127, 3011.00
2128, 3012.00
2129, 3015.00
2130, 3014.00
2131, 3014.00
2132, 3014.00
2133, 3013.00
2134, 3014.00
2135, 3017.00
2136, 3017.00
2137, 3017.00
2138, 3016.00
2139, 3017.00
2140, 3017.00
2141, 3017.00
2142, 3017.00
2143, 3019.00
2144, 3017.00
2145, 3018.00
2146, 3018.00
2147, 3019.00
2148, 3018.00
2149, 3021.00
2150, 3017.00
