FW version: 24
Log Version: 3.0.3

General Info:
       Command/Macro Performed,            Timestamp,             Device ID, COM Port, UART/I2C, Test Name, Host Major, Host Minor, Host Revision, Host Git Commit
            Single_measurement,  2023_06_27_12_26_14,       Insight2_F4_xxx,    USB-C,      USB,          ,          0,          1,             1,      4031237645

Show Spectrometer Status:
l0_version, f4_version, battery_perc, battery_mVolt, accelerometer_temp, accelerometer_x, accelerometer_y, accelerometer_z, compass_temp, compass_x, compass_y, compass_z, lamp_0, lamp_1, gain_0, gain_1
        17,         24,           95,          2078,               5408,           65448,              64,           18456,            0,     65517,     65387,     65339,   3276,   3276,    1,    1

Temperature Statistic Info:
NTC AVG [°C], NTC2 AVG [°C]
      37.092,        36.807

Statistic Info:
M1:  num,      min,      max,   median,      AVG,      STD,M2:  num,      min,      max,   median,      AVG,      STD
     301,  1685.00,  1910.00,  1736.00,  1760.11,  70.0739,     401,  2327.00,  2464.00,  2399.00,  2395.80,  46.2868,

Measurements:
Wavelength, Data Amplitude
1350, 1713.00
1351, 1713.00
1352, 1713.00
1353, 1713.00
1354, 1711.00
1355, 1712.00
1356, 1711.00
1357, 1711.00
1358, 1710.00
1359, 1709.00
1360, 1708.00
1361, 1709.00
1362, 1708.00
1363, 1707.00
1364, 1706.00
1365, 1705.00
1366, 1704.00
1367, 1704.00
1368, 1704.00
1369, 1703.00
1370, 1702.00
1371, 1701.00
1372, 1700.00
1373, 1700.00
1374, 1699.00
1375, 1697.00
1376, 1697.00
1377, 1696.00
1378, 1696.00
1379, 1696.00
1380, 1694.00
1381, 1694.00
1382, 1693.00
1383, 1692.00
1384, 1692.00
1385, 1691.00
1386, 1691.00
1387, 1690.00
1388, 1690.00
1389, 1690.00
1390, 1690.00
1391, 1690.00
1392, 1688.00
1393, 1688.00
1394, 1688.00
1395, 1689.00
1396, 1688.00
1397, 1688.00
1398, 1689.00
1399, 1688.00
1400, 1688.00
1401, 1687.00
1402, 1687.00
1403, 1687.00
1404, 1686.00
1405, 1686.00
1406, 1687.00
1407, 1687.00
1408, 1686.00
1409, 1686.00
1410, 1686.00
1411, 1685.00
1412, 1686.00
1413, 1686.00
1414, 1686.00
1415, 1685.00
1416, 1685.00
1417, 1686.00
1418, 1685.00
1419, 1686.00
1420, 1685.00
1421, 1686.00
1422, 1686.00
1423, 1686.00
1424, 1687.00
1425, 1687.00
1426, 1686.00
1427, 1687.00
1428, 1687.00
1429, 1687.00
1430, 1688.00
1431, 1689.00
1432, 1688.00
1433, 1689.00
1434, 1690.00
1435, 1691.00
1436, 1690.00
1437, 1691.00
1438, 1690.00
1439, 1691.00
1440, 1692.00
1441, 1693.00
1442, 1693.00
1443, 1693.00
1444, 1693.00
1445, 1695.00
1446, 1695.00
1447, 1694.00
1448, 1697.00
1449, 1698.00
1450, 1697.00
1451, 1698.00
1452, 1698.00
1453, 1699.00
1454, 1699.00
1455, 1699.00
1456, 1701.00
1457, 1701.00
1458, 1701.00
1459, 1702.00
1460, 1703.00
1461, 1702.00
1462, 1703.00
1463, 1705.00
1464, 1705.00
1465, 1706.00
1466, 1708.00
1467, 1709.00
1468, 1707.00
1469, 1709.00
1470, 1710.00
1471, 1710.00
1472, 1712.00
1473, 1712.00
1474, 1713.00
1475, 1714.00
1476, 1715.00
1477, 1717.00
1478, 1717.00
1479, 1718.00
1480, 1718.00
1481, 1719.00
1482, 1720.00
1483, 1721.00
1484, 1723.00
1485, 1722.00
1486, 1724.00
1487, 1725.00
1488, 1726.00
1489, 1727.00
1490, 1727.00
1491, 1728.00
1492, 1729.00
1493, 1730.00
1494, 1731.00
1495, 1732.00
1496, 1733.00
1497, 1734.00
1498, 1734.00
1499, 1736.00
1500, 1736.00
1501, 1737.00
1502, 1739.00
1503, 1739.00
1504, 1740.00
1505, 1741.00
1506, 1743.00
1507, 1743.00
1508, 1744.00
1509, 1745.00
1510, 1746.00
1511, 1747.00
1512, 1748.00
1513, 1749.00
1514, 1751.00
1515, 1751.00
1516, 1752.00
1517, 1753.00
1518, 1755.00
1519, 1755.00
1520, 1756.00
1521, 1757.00
1522, 1758.00
1523, 1759.00
1524, 1759.00
1525, 1760.00
1526, 1763.00
1527, 1763.00
1528, 1764.00
1529, 1766.00
1530, 1766.00
1531, 1768.00
1532, 1769.00
1533, 1769.00
1534, 1771.00
1535, 1773.00
1536, 1773.00
1537, 1774.00
1538, 1776.00
1539, 1776.00
1540, 1776.00
1541, 1779.00
1542, 1779.00
1543, 1781.00
1544, 1780.00
1545, 1782.00
1546, 1784.00
1547, 1785.00
1548, 1785.00
1549, 1787.00
1550, 1788.00
1551, 1789.00
1552, 1790.00
1553, 1791.00
1554, 1791.00
1555, 1794.00
1556, 1794.00
1557, 1795.00
1558, 1797.00
1559, 1798.00
1560, 1800.00
1561, 1801.00
1562, 1802.00
1563, 1803.00
1564, 1806.00
1565, 1806.00
1566, 1806.00
1567, 1808.00
1568, 1810.00
1569, 1811.00
1570, 1812.00
1571, 1813.00
1572, 1813.00
1573, 1815.00
1574, 1817.00
1575, 1818.00
1576, 1819.00
1577, 1820.00
1578, 1822.00
1579, 1823.00
1580, 1824.00
1581, 1825.00
1582, 1826.00
1583, 1827.00
1584, 1828.00
1585, 1830.00
1586, 1831.00
1587, 1830.00
1588, 1833.00
1589, 1833.00
1590, 1834.00
1591, 1836.00
1592, 1836.00
1593, 1838.00
1594, 1839.00
1595, 1841.00
1596, 1840.00
1597, 1843.00
1598, 1843.00
1599, 1844.00
1600, 1846.00
1601, 1846.00
1602, 1847.00
1603, 1848.00
1604, 1850.00
1605, 1851.00
1606, 1852.00
1607, 1855.00
1608, 1855.00
1609, 1857.00
1610, 1859.00
1611, 1860.00
1612, 1860.00
1613, 1862.00
1614, 1863.00
1615, 1864.00
1616, 1867.00
1617, 1868.00
1618, 1869.00
1619, 1869.00
1620, 1873.00
1621, 1873.00
1622, 1875.00
1623, 1877.00
1624, 1878.00
1625, 1879.00
1626, 1881.00
1627, 1882.00
1628, 1884.00
1629, 1884.00
1630, 1885.00
1631, 1887.00
1632, 1889.00
1633, 1889.00
1634, 1891.00
1635, 1891.00
1636, 1893.00
1637, 1895.00
1638, 1897.00
1639, 1896.00
1640, 1898.00
1641, 1899.00
1642, 1901.00
1643, 1901.00
1644, 1902.00
1645, 1904.00
1646, 1905.00
1647, 1907.00
1648, 1909.00
1649, 1909.00
1650, 1910.00

1750, 2461.00
1751, 2463.00
1752, 2461.00
1753, 2462.00
1754, 2462.00
1755, 2461.00
1756, 2464.00
1757, 2462.00
1758, 2461.00
1759, 2463.00
1760, 2461.00
1761, 2461.00
1762, 2460.00
1763, 2461.00
1764, 2463.00
1765, 2460.00
1766, 2461.00
1767, 2460.00
1768, 2461.00
1769, 2461.00
1770, 2461.00
1771, 2459.00
1772, 2459.00
1773, 2459.00
1774, 2458.00
1775, 2456.00
1776, 2458.00
1777, 2459.00
1778, 2459.00
1779, 2456.00
1780, 2456.00
1781, 2456.00
1782, 2454.00
1783, 2455.00
1784, 2455.00
1785, 2453.00
1786, 2455.00
1787, 2452.00
1788, 2451.00
1789, 2451.00
1790, 2452.00
1791, 2451.00
1792, 2451.00
1793, 2450.00
1794, 2450.00
1795, 2450.00
1796, 2449.00
1797, 2449.00
1798, 2449.00
1799, 2447.00
1800, 2445.00
1801, 2448.00
1802, 2445.00
1803, 2447.00
1804, 2445.00
1805, 2445.00
1806, 2445.00
1807, 2445.00
1808, 2446.00
1809, 2444.00
1810, 2443.00
1811, 2444.00
1812, 2442.00
1813, 2443.00
1814, 2444.00
1815, 2443.00
1816, 2440.00
1817, 2442.00
1818, 2441.00
1819, 2441.00
1820, 2439.00
1821, 2439.00
1822, 2439.00
1823, 2438.00
1824, 2438.00
1825, 2437.00
1826, 2435.00
1827, 2435.00
1828, 2435.00
1829, 2434.00
1830, 2431.00
1831, 2430.00
1832, 2430.00
1833, 2428.00
1834, 2429.00
1835, 2424.00
1836, 2427.00
1837, 2423.00
1838, 2421.00
1839, 2421.00
1840, 2419.00
1841, 2417.00
1842, 2414.00
1843, 2413.00
1844, 2410.00
1845, 2410.00
1846, 2406.00
1847, 2406.00
1848, 2404.00
1849, 2401.00
1850, 2399.00
1851, 2396.00
1852, 2394.00
1853, 2393.00
1854, 2389.00
1855, 2386.00
1856, 2385.00
1857, 2384.00
1858, 2381.00
1859, 2379.00
1860, 2378.00
1861, 2374.00
1862, 2371.00
1863, 2369.00
1864, 2369.00
1865, 2366.00
1866, 2365.00
1867, 2363.00
1868, 2361.00
1869, 2359.00
1870, 2358.00
1871, 2357.00
1872, 2353.00
1873, 2353.00
1874, 2351.00
1875, 2350.00
1876, 2351.00
1877, 2348.00
1878, 2348.00
1879, 2346.00
1880, 2345.00
1881, 2344.00
1882, 2345.00
1883, 2343.00
1884, 2341.00
1885, 2339.00
1886, 2337.00
1887, 2340.00
1888, 2338.00
1889, 2338.00
1890, 2337.00
1891, 2335.00
1892, 2336.00
1893, 2335.00
1894, 2335.00
1895, 2336.00
1896, 2334.00
1897, 2333.00
1898, 2334.00
1899, 2331.00
1900, 2333.00
1901, 2331.00
1902, 2332.00
1903, 2331.00
1904, 2332.00
1905, 2331.00
1906, 2331.00
1907, 2329.00
1908, 2331.00
1909, 2330.00
1910, 2328.00
1911, 2331.00
1912, 2330.00
1913, 2329.00
1914, 2330.00
1915, 2327.00
1916, 2329.00
1917, 2330.00
1918, 2329.00
1919, 2329.00
1920, 2328.00
1921, 2329.00
1922, 2329.00
1923, 2329.00
1924, 2329.00
1925, 2329.00
1926, 2329.00
1927, 2329.00
1928, 2329.00
1929, 2329.00
1930, 2328.00
1931, 2331.00
1932, 2328.00
1933, 2330.00
1934, 2330.00
1935, 2331.00
1936, 2329.00
1937, 2330.00
1938, 2330.00
1939, 2331.00
1940, 2332.00
1941, 2332.00
1942, 2332.00
1943, 2333.00
1944, 2332.00
1945, 2332.00
1946, 2333.00
1947, 2333.00
1948, 2333.00
1949, 2333.00
1950, 2335.00
1951, 2333.00
1952, 2334.00
1953, 2337.00
1954, 2337.00
1955, 2338.00
1956, 2336.00
1957, 2337.00
1958, 2336.00
1959, 2337.00
1960, 2341.00
1961, 2338.00
1962, 2339.00
1963, 2341.00
1964, 2342.00
1965, 2342.00
1966, 2344.00
1967, 2342.00
1968, 2345.00
1969, 2343.00
1970, 2346.00
1971, 2345.00
1972, 2346.00
1973, 2347.00
1974, 2347.00
1975, 2349.00
1976, 2350.00
1977, 2350.00
1978, 2349.00
1979, 2352.00
1980, 2351.00
1981, 2353.00
1982, 2353.00
1983, 2353.00
1984, 2353.00
1985, 2354.00
1986, 2354.00
1987, 2358.00
1988, 2356.00
1989, 2358.00
1990, 2356.00
1991, 2359.00
1992, 2359.00
1993, 2360.00
1994, 2360.00
1995, 2362.00
1996, 2362.00
1997, 2362.00
1998, 2361.00
1999, 2364.00
2000, 2363.00
2001, 2365.00
2002, 2367.00
2003, 2366.00
2004, 2367.00
2005, 2368.00
2006, 2369.00
2007, 2369.00
2008, 2369.00
2009, 2370.00
2010, 2370.00
2011, 2370.00
2012, 2372.00
2013, 2370.00
2014, 2373.00
2015, 2375.00
2016, 2374.00
2017, 2372.00
2018, 2376.00
2019, 2377.00
2020, 2377.00
2021, 2375.00
2022, 2377.00
2023, 2377.00
2024, 2379.00
2025, 2379.00
2026, 2380.00
2027, 2380.00
2028, 2381.00
2029, 2382.00
2030, 2384.00
2031, 2382.00
2032, 2385.00
2033, 2387.00
2034, 2385.00
2035, 2385.00
2036, 2387.00
2037, 2386.00
2038, 2389.00
2039, 2389.00
2040, 2389.00
2041, 2391.00
2042, 2392.00
2043, 2391.00
2044, 2392.00
2045, 2393.00
2046, 2396.00
2047, 2396.00
2048, 2396.00
2049, 2396.00
2050, 2398.00
2051, 2399.00
2052, 2401.00
2053, 2400.00
2054, 2400.00
2055, 2405.00
2056, 2404.00
2057, 2405.00
2058, 2405.00
2059, 2404.00
2060, 2407.00
2061, 2407.00
2062, 2408.00
2063, 2410.00
2064, 2410.00
2065, 2410.00
2066, 2412.00
2067, 2413.00
2068, 2414.00
2069, 2415.00
2070, 2417.00
2071, 2418.00
2072, 2417.00
2073, 2418.00
2074, 2419.00
2075, 2419.00
2076, 2422.00
2077, 2423.00
2078, 2424.00
2079, 2423.00
2080, 2423.00
2081, 2426.00
2082, 2425.00
2083, 2425.00
2084, 2426.00
2085, 2429.00
2086, 2428.00
2087, 2427.00
2088, 2430.00
2089, 2429.00
2090, 2431.00
2091, 2431.00
2092, 2432.00
2093, 2433.00
2094, 2432.00
2095, 2434.00
2096, 2436.00
2097, 2434.00
2098, 2435.00
2099, 2434.00
2100, 2437.00
2101, 2436.00
2102, 2435.00
2103, 2437.00
2104, 2438.00
2105, 2437.00
2106, 2437.00
2107, 2438.00
2108, 2438.00
2109, 2438.00
2110, 2438.00
2111, 2439.00
2112, 2440.00
2113, 2440.00
2114, 2442.00
2115, 2441.00
2116, 2442.00
2117, 2441.00
2118, 2441.00
2119, 2443.00
2120, 2442.00
2121, 2443.00
2122, 2444.00
2123, 2442.00
2124, 2443.00
2125, 2442.00
2126, 2444.00
2127, 2444.00
2128, 2445.00
2129, 2443.00
2130, 2445.00
2131, 2447.00
2132, 2445.00
2133, 2445.00
2134, 2447.00
2135, 2446.00
2136, 2447.00
2137, 2446.00
2138, 2446.00
2139, 2446.00
2140, 2448.00
2141, 2447.00
2142, 2447.00
2143, 2448.00
2144, 2448.00
2145, 2446.00
2146, 2449.00
2147, 2448.00
2148, 2449.00
2149, 2448.00
2150, 2449.00
