FW version: 24
Log Version: 3.0.3

General Info:
       Command/Macro Performed,            Timestamp,             Device ID, COM Port, UART/I2C, Test Name, Host Major, Host Minor, Host Revision, Host Git Commit
            Single_measurement,  2023_06_27_12_25_47,       Insight2_F4_xxx,    USB-C,      USB,          ,          0,          1,             1,      4031237645

Show Spectrometer Status:
l0_version, f4_version, battery_perc, battery_mVolt, accelerometer_temp, accelerometer_x, accelerometer_y, accelerometer_z, compass_temp, compass_x, compass_y, compass_z, lamp_0, lamp_1, gain_0, gain_1
        17,         24,           95,          2079,               5376,           65432,              40,           18448,            0,     65531,     65387,     65364,   2457,   2457,    1,    1

Temperature Statistic Info:
NTC AVG [°C], NTC2 AVG [°C]
      36.750,        36.465

Statistic Info:
M1:  num,      min,      max,   median,      AVG,      STD,M2:  num,      min,      max,   median,      AVG,      STD
     301,   975.00,  1117.00,  1008.00,  1022.04,  44.1765,     401,  1451.00,  1537.00,  1498.00,  1496.41,  29.7064,

Measurements:
Wavelength, Data Amplitude
1350, 989.00
1351, 989.00
1352, 989.00
1353, 988.00
1354, 988.00
1355, 988.00
1356, 988.00
1357, 988.00
1358, 988.00
1359, 988.00
1360, 987.00
1361, 987.00
1362, 987.00
1363, 986.00
1364, 986.00
1365, 985.00
1366, 985.00
1367, 985.00
1368, 985.00
1369, 984.00
1370, 983.00
1371, 982.00
1372, 983.00
1373, 983.00
1374, 981.00
1375, 981.00
1376, 981.00
1377, 981.00
1378, 980.00
1379, 980.00
1380, 979.00
1381, 980.00
1382, 979.00
1383, 978.00
1384, 979.00
1385, 979.00
1386, 977.00
1387, 977.00
1388, 977.00
1389, 977.00
1390, 977.00
1391, 978.00
1392, 977.00
1393, 977.00
1394, 977.00
1395, 976.00
1396, 975.00
1397, 977.00
1398, 975.00
1399, 976.00
1400, 976.00
1401, 976.00
1402, 976.00
1403, 975.00
1404, 976.00
1405, 976.00
1406, 975.00
1407, 976.00
1408, 975.00
1409, 975.00
1410, 976.00
1411, 975.00
1412, 976.00
1413, 975.00
1414, 975.00
1415, 975.00
1416, 975.00
1417, 975.00
1418, 975.00
1419, 976.00
1420, 976.00
1421, 976.00
1422, 975.00
1423, 977.00
1424, 976.00
1425, 976.00
1426, 976.00
1427, 976.00
1428, 976.00
1429, 977.00
1430, 977.00
1431, 977.00
1432, 978.00
1433, 978.00
1434, 977.00
1435, 978.00
1436, 979.00
1437, 980.00
1438, 979.00
1439, 979.00
1440, 980.00
1441, 981.00
1442, 980.00
1443, 981.00
1444, 981.00
1445, 980.00
1446, 981.00
1447, 982.00
1448, 981.00
1449, 983.00
1450, 982.00
1451, 982.00
1452, 984.00
1453, 984.00
1454, 984.00
1455, 984.00
1456, 985.00
1457, 985.00
1458, 987.00
1459, 986.00
1460, 987.00
1461, 987.00
1462, 988.00
1463, 987.00
1464, 988.00
1465, 989.00
1466, 989.00
1467, 990.00
1468, 990.00
1469, 990.00
1470, 991.00
1471, 992.00
1472, 991.00
1473, 992.00
1474, 993.00
1475, 992.00
1476, 995.00
1477, 995.00
1478, 995.00
1479, 996.00
1480, 996.00
1481, 997.00
1482, 997.00
1483, 998.00
1484, 998.00
1485, 999.00
1486, 1000.00
1487, 1001.00
1488, 1001.00
1489, 1001.00
1490, 1001.00
1491, 1003.00
1492, 1004.00
1493, 1005.00
1494, 1004.00
1495, 1005.00
1496, 1006.00
1497, 1007.00
1498, 1007.00
1499, 1008.00
1500, 1008.00
1501, 1009.00
1502, 1011.00
1503, 1010.00
1504, 1011.00
1505, 1011.00
1506, 1011.00
1507, 1012.00
1508, 1013.00
1509, 1014.00
1510, 1014.00
1511, 1015.00
1512, 1015.00
1513, 1016.00
1514, 1018.00
1515, 1017.00
1516, 1018.00
1517, 1018.00
1518, 1020.00
1519, 1021.00
1520, 1020.00
1521, 1022.00
1522, 1022.00
1523, 1023.00
1524, 1024.00
1525, 1024.00
1526, 1026.00
1527, 1026.00
1528, 1025.00
1529, 1026.00
1530, 1028.00
1531, 1029.00
1532, 1028.00
1533, 1030.00
1534, 1030.00
1535, 1031.00
1536, 1031.00
1537, 1032.00
1538, 1032.00
1539, 1033.00
1540, 1033.00
1541, 1034.00
1542, 1035.00
1543, 1035.00
1544, 1037.00
1545, 1037.00
1546, 1037.00
1547, 1039.00
1548, 1038.00
1549, 1040.00
1550, 1041.00
1551, 1040.00
1552, 1042.00
1553, 1042.00
1554, 1043.00
1555, 1044.00
1556, 1044.00
1557, 1045.00
1558, 1045.00
1559, 1046.00
1560, 1047.00
1561, 1048.00
1562, 1048.00
1563, 1049.00
1564, 1050.00
1565, 1050.00
1566, 1051.00
1567, 1052.00
1568, 1053.00
1569, 1053.00
1570, 1055.00
1571, 1056.00
1572, 1056.00
1573, 1057.00
1574, 1058.00
1575, 1059.00
1576, 1059.00
1577, 1060.00
1578, 1060.00
1579, 1060.00
1580, 1062.00
1581, 1062.00
1582, 1063.00
1583, 1064.00
1584, 1065.00
1585, 1065.00
1586, 1066.00
1587, 1066.00
1588, 1067.00
1589, 1068.00
1590, 1068.00
1591, 1069.00
1592, 1070.00
1593, 1070.00
1594, 1071.00
1595, 1072.00
1596, 1072.00
1597, 1073.00
1598, 1073.00
1599, 1075.00
1600, 1076.00
1601, 1076.00
1602, 1076.00
1603, 1077.00
1604, 1078.00
1605, 1079.00
1606, 1080.00
1607, 1080.00
1608, 1081.00
1609, 1083.00
1610, 1083.00
1611, 1084.00
1612, 1084.00
1613, 1086.00
1614, 1087.00
1615, 1088.00
1616, 1088.00
1617, 1089.00
1618, 1090.00
1619, 1091.00
1620, 1091.00
1621, 1093.00
1622, 1093.00
1623, 1094.00
1624, 1096.00
1625, 1097.00
1626, 1097.00
1627, 1098.00
1628, 1099.00
1629, 1101.00
1630, 1102.00
1631, 1102.00
1632, 1103.00
1633, 1103.00
1634, 1104.00
1635, 1105.00
1636, 1106.00
1637, 1106.00
1638, 1108.00
1639, 1109.00
1640, 1110.00
1641, 1110.00
1642, 1111.00
1643, 1112.00
1644, 1113.00
1645, 1113.00
1646, 1113.00
1647, 1116.00
1648, 1115.00
1649, 1116.00
1650, 1117.00

1750, 1532.00
1751, 1537.00
1752, 1535.00
1753, 1536.00
1754, 1536.00
1755, 1535.00
1756, 1535.00
1757, 1535.00
1758, 1535.00
1759, 1536.00
1760, 1536.00
1761, 1537.00
1762, 1535.00
1763, 1535.00
1764, 1535.00
1765, 1536.00
1766, 1536.00
1767, 1535.00
1768, 1535.00
1769, 1534.00
1770, 1534.00
1771, 1534.00
1772, 1534.00
1773, 1533.00
1774, 1533.00
1775, 1533.00
1776, 1533.00
1777, 1533.00
1778, 1533.00
1779, 1533.00
1780, 1533.00
1781, 1533.00
1782, 1532.00
1783, 1533.00
1784, 1532.00
1785, 1529.00
1786, 1531.00
1787, 1531.00
1788, 1531.00
1789, 1531.00
1790, 1531.00
1791, 1529.00
1792, 1529.00
1793, 1529.00
1794, 1527.00
1795, 1529.00
1796, 1528.00
1797, 1527.00
1798, 1529.00
1799, 1527.00
1800, 1527.00
1801, 1528.00
1802, 1529.00
1803, 1527.00
1804, 1527.00
1805, 1529.00
1806, 1526.00
1807, 1527.00
1808, 1527.00
1809, 1526.00
1810, 1524.00
1811, 1526.00
1812, 1524.00
1813, 1523.00
1814, 1525.00
1815, 1524.00
1816, 1525.00
1817, 1524.00
1818, 1525.00
1819, 1523.00
1820, 1523.00
1821, 1522.00
1822, 1519.00
1823, 1521.00
1824, 1521.00
1825, 1521.00
1826, 1519.00
1827, 1519.00
1828, 1520.00
1829, 1520.00
1830, 1517.00
1831, 1515.00
1832, 1517.00
1833, 1516.00
1834, 1516.00
1835, 1515.00
1836, 1515.00
1837, 1514.00
1838, 1511.00
1839, 1512.00
1840, 1510.00
1841, 1509.00
1842, 1507.00
1843, 1506.00
1844, 1505.00
1845, 1504.00
1846, 1503.00
1847, 1501.00
1848, 1499.00
1849, 1497.00
1850, 1498.00
1851, 1497.00
1852, 1493.00
1853, 1494.00
1854, 1490.00
1855, 1490.00
1856, 1488.00
1857, 1487.00
1858, 1486.00
1859, 1485.00
1860, 1484.00
1861, 1480.00
1862, 1479.00
1863, 1479.00
1864, 1479.00
1865, 1478.00
1866, 1475.00
1867, 1474.00
1868, 1473.00
1869, 1472.00
1870, 1470.00
1871, 1470.00
1872, 1469.00
1873, 1468.00
1874, 1468.00
1875, 1468.00
1876, 1466.00
1877, 1465.00
1878, 1464.00
1879, 1462.00
1880, 1462.00
1881, 1462.00
1882, 1463.00
1883, 1463.00
1884, 1460.00
1885, 1459.00
1886, 1461.00
1887, 1457.00
1888, 1460.00
1889, 1459.00
1890, 1458.00
1891, 1457.00
1892, 1459.00
1893, 1458.00
1894, 1457.00
1895, 1456.00
1896, 1455.00
1897, 1457.00
1898, 1455.00
1899, 1455.00
1900, 1456.00
1901, 1456.00
1902, 1455.00
1903, 1454.00
1904, 1454.00
1905, 1454.00
1906, 1457.00
1907, 1453.00
1908, 1454.00
1909, 1455.00
1910, 1453.00
1911, 1455.00
1912, 1453.00
1913, 1453.00
1914, 1453.00
1915, 1454.00
1916, 1452.00
1917, 1454.00
1918, 1453.00
1919, 1453.00
1920, 1453.00
1921, 1453.00
1922, 1451.00
1923, 1454.00
1924, 1455.00
1925, 1454.00
1926, 1452.00
1927, 1453.00
1928, 1453.00
1929, 1453.00
1930, 1453.00
1931, 1454.00
1932, 1452.00
1933, 1455.00
1934, 1454.00
1935, 1455.00
1936, 1454.00
1937, 1455.00
1938, 1454.00
1939, 1455.00
1940, 1453.00
1941, 1456.00
1942, 1455.00
1943, 1457.00
1944, 1456.00
1945, 1454.00
1946, 1456.00
1947, 1455.00
1948, 1455.00
1949, 1456.00
1950, 1457.00
1951, 1457.00
1952, 1457.00
1953, 1456.00
1954, 1458.00
1955, 1459.00
1956, 1459.00
1957, 1459.00
1958, 1459.00
1959, 1459.00
1960, 1461.00
1961, 1460.00
1962, 1462.00
1963, 1461.00
1964, 1460.00
1965, 1461.00
1966, 1462.00
1967, 1463.00
1968, 1463.00
1969, 1465.00
1970, 1465.00
1971, 1465.00
1972, 1464.00
1973, 1466.00
1974, 1465.00
1975, 1465.00
1976, 1466.00
1977, 1467.00
1978, 1467.00
1979, 1467.00
1980, 1468.00
1981, 1467.00
1982, 1469.00
1983, 1469.00
1984, 1469.00
1985, 1471.00
1986, 1471.00
1987, 1472.00
1988, 1472.00
1989, 1473.00
1990, 1471.00
1991, 1473.00
1992, 1474.00
1993, 1473.00
1994, 1474.00
1995, 1474.00
1996, 1475.00
1997, 1475.00
1998, 1475.00
1999, 1477.00
2000, 1477.00
2001, 1478.00
2002, 1477.00
2003, 1477.00
2004, 1477.00
2005, 1478.00
2006, 1480.00
2007, 1480.00
2008, 1481.00
2009, 1480.00
2010, 1481.00
2011, 1481.00
2012, 1481.00
2013, 1482.00
2014, 1483.00
2015, 1483.00
2016, 1483.00
2017, 1484.00
2018, 1484.00
2019, 1484.00
2020, 1485.00
2021, 1485.00
2022, 1484.00
2023, 1486.00
2024, 1486.00
2025, 1487.00
2026, 1486.00
2027, 1487.00
2028, 1487.00
2029, 1489.00
2030, 1490.00
2031, 1488.00
2032, 1489.00
2033, 1490.00
2034, 1490.00
2035, 1491.00
2036, 1492.00
2037, 1491.00
2038, 1493.00
2039, 1493.00
2040, 1493.00
2041, 1493.00
2042, 1494.00
2043, 1494.00
2044, 1497.00
2045, 1496.00
2046, 1496.00
2047, 1496.00
2048, 1498.00
2049, 1496.00
2050, 1497.00
2051, 1501.00
2052, 1500.00
2053, 1501.00
2054, 1501.00
2055, 1502.00
2056, 1502.00
2057, 1503.00
2058, 1505.00
2059, 1506.00
2060, 1505.00
2061, 1507.00
2062, 1505.00
2063, 1507.00
2064, 1506.00
2065, 1508.00
2066, 1509.00
2067, 1511.00
2068, 1509.00
2069, 1511.00
2070, 1511.00
2071, 1512.00
2072, 1512.00
2073, 1513.00
2074, 1513.00
2075, 1513.00
2076, 1515.00
2077, 1515.00
2078, 1515.00
2079, 1515.00
2080, 1515.00
2081, 1517.00
2082, 1518.00
2083, 1516.00
2084, 1519.00
2085, 1519.00
2086, 1520.00
2087, 1518.00
2088, 1518.00
2089, 1519.00
2090, 1521.00
2091, 1521.00
2092, 1523.00
2093, 1521.00
2094, 1523.00
2095, 1522.00
2096, 1521.00
2097, 1524.00
2098, 1524.00
2099, 1524.00
2100, 1524.00
2101, 1525.00
2102, 1525.00
2103, 1525.00
2104, 1525.00
2105, 1526.00
2106, 1527.00
2107, 1526.00
2108, 1526.00
2109, 1527.00
2110, 1526.00
2111, 1528.00
2112, 1527.00
2113, 1527.00
2114, 1529.00
2115, 1527.00
2116, 1527.00
2117, 1529.00
2118, 1529.00
2119, 1530.00
2120, 1529.00
2121, 1529.00
2122, 1529.00
2123, 1531.00
2124, 1530.00
2125, 1531.00
2126, 1531.00
2127, 1531.00
2128, 1531.00
2129, 1531.00
2130, 1531.00
2131, 1531.00
2132, 1531.00
2133, 1532.00
2134, 1531.00
2135, 1532.00
2136, 1531.00
2137, 1532.00
2138, 1532.00
2139, 1532.00
2140, 1533.00
2141, 1533.00
2142, 1533.00
2143, 1533.00
2144, 1532.00
2145, 1534.00
2146, 1533.00
2147, 1536.00
2148, 1532.00
2149, 1533.00
2150, 1533.00
