FW version: 24
Log Version: 3.0.3

General Info:
       Command/Macro Performed,            Timestamp,             Device ID, COM Port, UART/I2C, Test Name, Host Major, Host Minor, Host Revision, Host Git Commit
            Single_measurement,  2023_06_27_12_25_56,       Insight2_F4_xxx,    USB-C,      USB,          ,          0,          1,             1,      4031237645

Show Spectrometer Status:
l0_version, f4_version, battery_perc, battery_mVolt, accelerometer_temp, accelerometer_x, accelerometer_y, accelerometer_z, compass_temp, compass_x, compass_y, compass_z, lamp_0, lamp_1, gain_0, gain_1
        17,         24,           95,          2078,               5376,           65448,             108,           18424,            0,     65517,     65389,     65533,   2866,   2866,    1,    1

Temperature Statistic Info:
NTC AVG [°C], NTC2 AVG [°C]
      36.920,        36.551

Statistic Info:
M1:  num,      min,      max,   median,      AVG,      STD,M2:  num,      min,      max,   median,      AVG,      STD
     301,  1313.00,  1497.00,  1355.00,  1373.81,  56.6005,     401,  1877.00,  1987.00,  1936.00,  1932.80,  37.8453,

Measurements:
Wavelength, Data Amplitude
1350, 1334.00
1351, 1334.00
1352, 1334.00
1353, 1334.00
1354, 1333.00
1355, 1333.00
1356, 1333.00
1357, 1331.00
1358, 1333.00
1359, 1332.00
1360, 1330.00
1361, 1330.00
1362, 1330.00
1363, 1330.00
1364, 1329.00
1365, 1328.00
1366, 1328.00
1367, 1328.00
1368, 1328.00
1369, 1326.00
1370, 1326.00
1371, 1325.00
1372, 1324.00
1373, 1324.00
1374, 1325.00
1375, 1323.00
1376, 1323.00
1377, 1322.00
1378, 1321.00
1379, 1321.00
1380, 1321.00
1381, 1320.00
1382, 1319.00
1383, 1319.00
1384, 1318.00
1385, 1319.00
1386, 1318.00
1387, 1317.00
1388, 1317.00
1389, 1317.00
1390, 1317.00
1391, 1317.00
1392, 1316.00
1393, 1316.00
1394, 1315.00
1395, 1316.00
1396, 1315.00
1397, 1315.00
1398, 1315.00
1399, 1315.00
1400, 1316.00
1401, 1315.00
1402, 1315.00
1403, 1314.00
1404, 1315.00
1405, 1316.00
1406, 1315.00
1407, 1315.00
1408, 1314.00
1409, 1313.00
1410, 1313.00
1411, 1315.00
1412, 1315.00
1413, 1314.00
1414, 1314.00
1415, 1315.00
1416, 1314.00
1417, 1315.00
1418, 1314.00
1419, 1314.00
1420, 1315.00
1421, 1314.00
1422, 1315.00
1423, 1315.00
1424, 1314.00
1425, 1315.00
1426, 1315.00
1427, 1315.00
1428, 1314.00
1429, 1315.00
1430, 1316.00
1431, 1316.00
1432, 1317.00
1433, 1317.00
1434, 1318.00
1435, 1318.00
1436, 1318.00
1437, 1317.00
1438, 1318.00
1439, 1319.00
1440, 1319.00
1441, 1319.00
1442, 1320.00
1443, 1320.00
1444, 1320.00
1445, 1321.00
1446, 1322.00
1447, 1321.00
1448, 1322.00
1449, 1322.00
1450, 1323.00
1451, 1324.00
1452, 1323.00
1453, 1324.00
1454, 1324.00
1455, 1325.00
1456, 1326.00
1457, 1326.00
1458, 1326.00
1459, 1327.00
1460, 1328.00
1461, 1328.00
1462, 1329.00
1463, 1329.00
1464, 1329.00
1465, 1329.00
1466, 1331.00
1467, 1332.00
1468, 1331.00
1469, 1333.00
1470, 1334.00
1471, 1334.00
1472, 1335.00
1473, 1335.00
1474, 1335.00
1475, 1336.00
1476, 1336.00
1477, 1337.00
1478, 1339.00
1479, 1339.00
1480, 1340.00
1481, 1340.00
1482, 1343.00
1483, 1342.00
1484, 1344.00
1485, 1344.00
1486, 1345.00
1487, 1345.00
1488, 1347.00
1489, 1347.00
1490, 1348.00
1491, 1348.00
1492, 1349.00
1493, 1350.00
1494, 1351.00
1495, 1351.00
1496, 1353.00
1497, 1353.00
1498, 1353.00
1499, 1355.00
1500, 1355.00
1501, 1356.00
1502, 1357.00
1503, 1358.00
1504, 1359.00
1505, 1360.00
1506, 1360.00
1507, 1361.00
1508, 1360.00
1509, 1362.00
1510, 1363.00
1511, 1364.00
1512, 1365.00
1513, 1366.00
1514, 1367.00
1515, 1366.00
1516, 1368.00
1517, 1369.00
1518, 1369.00
1519, 1371.00
1520, 1371.00
1521, 1373.00
1522, 1374.00
1523, 1373.00
1524, 1374.00
1525, 1376.00
1526, 1376.00
1527, 1377.00
1528, 1377.00
1529, 1378.00
1530, 1380.00
1531, 1381.00
1532, 1382.00
1533, 1382.00
1534, 1382.00
1535, 1383.00
1536, 1385.00
1537, 1385.00
1538, 1387.00
1539, 1386.00
1540, 1389.00
1541, 1389.00
1542, 1390.00
1543, 1390.00
1544, 1391.00
1545, 1393.00
1546, 1393.00
1547, 1395.00
1548, 1395.00
1549, 1395.00
1550, 1396.00
1551, 1397.00
1552, 1398.00
1553, 1399.00
1554, 1399.00
1555, 1401.00
1556, 1402.00
1557, 1403.00
1558, 1404.00
1559, 1405.00
1560, 1405.00
1561, 1406.00
1562, 1408.00
1563, 1409.00
1564, 1409.00
1565, 1411.00
1566, 1410.00
1567, 1412.00
1568, 1413.00
1569, 1414.00
1570, 1416.00
1571, 1417.00
1572, 1417.00
1573, 1418.00
1574, 1420.00
1575, 1420.00
1576, 1421.00
1577, 1422.00
1578, 1423.00
1579, 1425.00
1580, 1425.00
1581, 1426.00
1582, 1427.00
1583, 1428.00
1584, 1428.00
1585, 1429.00
1586, 1431.00
1587, 1431.00
1588, 1431.00
1589, 1432.00
1590, 1433.00
1591, 1434.00
1592, 1435.00
1593, 1436.00
1594, 1436.00
1595, 1437.00
1596, 1439.00
1597, 1440.00
1598, 1440.00
1599, 1440.00
1600, 1443.00
1601, 1443.00
1602, 1444.00
1603, 1445.00
1604, 1447.00
1605, 1447.00
1606, 1449.00
1607, 1449.00
1608, 1450.00
1609, 1451.00
1610, 1453.00
1611, 1453.00
1612, 1455.00
1613, 1456.00
1614, 1457.00
1615, 1458.00
1616, 1459.00
1617, 1461.00
1618, 1461.00
1619, 1463.00
1620, 1464.00
1621, 1466.00
1622, 1467.00
1623, 1467.00
1624, 1469.00
1625, 1470.00
1626, 1471.00
1627, 1471.00
1628, 1472.00
1629, 1475.00
1630, 1476.00
1631, 1477.00
1632, 1478.00
1633, 1479.00
1634, 1479.00
1635, 1480.00
1636, 1481.00
1637, 1483.00
1638, 1484.00
1639, 1485.00
1640, 1486.00
1641, 1487.00
1642, 1487.00
1643, 1489.00
1644, 1489.00
1645, 1490.00
1646, 1491.00
1647, 1492.00
1648, 1494.00
1649, 1494.00
1650, 1497.00

1750, 1985.00
1751, 1984.00
1752, 1987.00
1753, 1985.00
1754, 1985.00
1755, 1985.00
1756, 1987.00
1757, 1985.00
1758, 1985.00
1759, 1986.00
1760, 1985.00
1761, 1986.00
1762, 1983.00
1763, 1985.00
1764, 1985.00
1765, 1984.00
1766, 1983.00
1767, 1985.00
1768, 1982.00
1769, 1983.00
1770, 1983.00
1771, 1982.00
1772, 1981.00
1773, 1983.00
1774, 1983.00
1775, 1981.00
1776, 1983.00
1777, 1981.00
1778, 1984.00
1779, 1980.00
1780, 1982.00
1781, 1980.00
1782, 1981.00
1783, 1979.00
1784, 1979.00
1785, 1979.00
1786, 1978.00
1787, 1977.00
1788, 1977.00
1789, 1977.00
1790, 1978.00
1791, 1977.00
1792, 1977.00
1793, 1977.00
1794, 1976.00
1795, 1976.00
1796, 1976.00
1797, 1974.00
1798, 1974.00
1799, 1975.00
1800, 1974.00
1801, 1975.00
1802, 1973.00
1803, 1973.00
1804, 1972.00
1805, 1973.00
1806, 1972.00
1807, 1971.00
1808, 1972.00
1809, 1970.00
1810, 1972.00
1811, 1971.00
1812, 1970.00
1813, 1970.00
1814, 1969.00
1815, 1970.00
1816, 1970.00
1817, 1969.00
1818, 1969.00
1819, 1968.00
1820, 1967.00
1821, 1968.00
1822, 1966.00
1823, 1966.00
1824, 1966.00
1825, 1966.00
1826, 1964.00
1827, 1962.00
1828, 1964.00
1829, 1964.00
1830, 1962.00
1831, 1960.00
1832, 1961.00
1833, 1958.00
1834, 1957.00
1835, 1957.00
1836, 1956.00
1837, 1955.00
1838, 1953.00
1839, 1952.00
1840, 1951.00
1841, 1948.00
1842, 1948.00
1843, 1947.00
1844, 1943.00
1845, 1943.00
1846, 1940.00
1847, 1941.00
1848, 1939.00
1849, 1936.00
1850, 1936.00
1851, 1932.00
1852, 1932.00
1853, 1931.00
1854, 1928.00
1855, 1925.00
1856, 1923.00
1857, 1923.00
1858, 1919.00
1859, 1919.00
1860, 1915.00
1861, 1914.00
1862, 1913.00
1863, 1913.00
1864, 1909.00
1865, 1910.00
1866, 1907.00
1867, 1906.00
1868, 1903.00
1869, 1904.00
1870, 1901.00
1871, 1900.00
1872, 1898.00
1873, 1897.00
1874, 1896.00
1875, 1896.00
1876, 1894.00
1877, 1894.00
1878, 1892.00
1879, 1892.00
1880, 1891.00
1881, 1889.00
1882, 1890.00
1883, 1890.00
1884, 1889.00
1885, 1885.00
1886, 1886.00
1887, 1885.00
1888, 1886.00
1889, 1885.00
1890, 1884.00
1891, 1885.00
1892, 1884.00
1893, 1883.00
1894, 1882.00
1895, 1882.00
1896, 1883.00
1897, 1883.00
1898, 1881.00
1899, 1882.00
1900, 1880.00
1901, 1881.00
1902, 1880.00
1903, 1879.00
1904, 1880.00
1905, 1878.00
1906, 1880.00
1907, 1878.00
1908, 1881.00
1909, 1879.00
1910, 1877.00
1911, 1879.00
1912, 1878.00
1913, 1879.00
1914, 1877.00
1915, 1878.00
1916, 1879.00
1917, 1878.00
1918, 1879.00
1919, 1877.00
1920, 1878.00
1921, 1877.00
1922, 1878.00
1923, 1879.00
1924, 1877.00
1925, 1879.00
1926, 1877.00
1927, 1877.00
1928, 1877.00
1929, 1879.00
1930, 1878.00
1931, 1879.00
1932, 1877.00
1933, 1878.00
1934, 1879.00
1935, 1879.00
1936, 1880.00
1937, 1879.00
1938, 1880.00
1939, 1879.00
1940, 1879.00
1941, 1880.00
1942, 1879.00
1943, 1880.00
1944, 1880.00
1945, 1881.00
1946, 1882.00
1947, 1884.00
1948, 1883.00
1949, 1881.00
1950, 1883.00
1951, 1883.00
1952, 1884.00
1953, 1883.00
1954, 1883.00
1955, 1883.00
1956, 1886.00
1957, 1884.00
1958, 1884.00
1959, 1887.00
1960, 1887.00
1961, 1887.00
1962, 1887.00
1963, 1889.00
1964, 1890.00
1965, 1889.00
1966, 1891.00
1967, 1890.00
1968, 1891.00
1969, 1890.00
1970, 1892.00
1971, 1893.00
1972, 1892.00
1973, 1893.00
1974, 1893.00
1975, 1894.00
1976, 1895.00
1977, 1895.00
1978, 1895.00
1979, 1896.00
1980, 1897.00
1981, 1896.00
1982, 1896.00
1983, 1897.00
1984, 1898.00
1985, 1899.00
1986, 1900.00
1987, 1900.00
1988, 1902.00
1989, 1901.00
1990, 1902.00
1991, 1901.00
1992, 1904.00
1993, 1902.00
1994, 1904.00
1995, 1905.00
1996, 1906.00
1997, 1904.00
1998, 1905.00
1999, 1906.00
2000, 1906.00
2001, 1907.00
2002, 1908.00
2003, 1908.00
2004, 1909.00
2005, 1910.00
2006, 1910.00
2007, 1910.00
2008, 1911.00
2009, 1913.00
2010, 1913.00
2011, 1915.00
2012, 1912.00
2013, 1913.00
2014, 1914.00
2015, 1913.00
2016, 1915.00
2017, 1915.00
2018, 1915.00
2019, 1918.00
2020, 1918.00
2021, 1916.00
2022, 1917.00
2023, 1918.00
2024, 1919.00
2025, 1919.00
2026, 1921.00
2027, 1921.00
2028, 1922.00
2029, 1919.00
2030, 1922.00
2031, 1923.00
2032, 1923.00
2033, 1925.00
2034, 1925.00
2035, 1926.00
2036, 1925.00
2037, 1925.00
2038, 1926.00
2039, 1928.00
2040, 1927.00
2041, 1929.00
2042, 1928.00
2043, 1930.00
2044, 1932.00
2045, 1931.00
2046, 1932.00
2047, 1934.00
2048, 1934.00
2049, 1934.00
2050, 1934.00
2051, 1937.00
2052, 1937.00
2053, 1938.00
2054, 1938.00
2055, 1939.00
2056, 1940.00
2057, 1939.00
2058, 1942.00
2059, 1942.00
2060, 1943.00
2061, 1944.00
2062, 1945.00
2063, 1944.00
2064, 1947.00
2065, 1947.00
2066, 1949.00
2067, 1947.00
2068, 1949.00
2069, 1951.00
2070, 1949.00
2071, 1951.00
2072, 1952.00
2073, 1953.00
2074, 1954.00
2075, 1953.00
2076, 1955.00
2077, 1956.00
2078, 1955.00
2079, 1955.00
2080, 1956.00
2081, 1957.00
2082, 1958.00
2083, 1959.00
2084, 1959.00
2085, 1959.00
2086, 1961.00
2087, 1961.00
2088, 1961.00
2089, 1962.00
2090, 1963.00
2091, 1964.00
2092, 1963.00
2093, 1963.00
2094, 1963.00
2095, 1964.00
2096, 1964.00
2097, 1965.00
2098, 1967.00
2099, 1965.00
2100, 1966.00
2101, 1967.00
2102, 1967.00
2103, 1967.00
2104, 1967.00
2105, 1969.00
2106, 1969.00
2107, 1968.00
2108, 1970.00
2109, 1969.00
2110, 1971.00
2111, 1971.00
2112, 1970.00
2113, 1970.00
2114, 1971.00
2115, 1971.00
2116, 1972.00
2117, 1970.00
2118, 1971.00
2119, 1971.00
2120, 1971.00
2121, 1972.00
2122, 1974.00
2123, 1973.00
2124, 1974.00
2125, 1974.00
2126, 1974.00
2127, 1975.00
2128, 1974.00
2129, 1975.00
2130, 1974.00
2131, 1974.00
2132, 1977.00
2133, 1975.00
2134, 1976.00
2135, 1976.00
2136, 1976.00
2137, 1975.00
2138, 1977.00
2139, 1977.00
2140, 1977.00
2141, 1977.00
2142, 1978.00
2143, 1977.00
2144, 1977.00
2145, 1978.00
2146, 1978.00
2147, 1977.00
2148, 1977.00
2149, 1977.00
2150, 1978.00
