FW version: 24
Log Version: 3.0.3

General Info:
       Command/Macro Performed,            Timestamp,             Device ID, COM Port, UART/I2C, Test Name, Host Major, Host Minor, Host Revision, Host Git Commit
            Single_measurement,  2023_06_27_12_25_35,       Insight2_F4_xxx,    USB-C,      USB,          ,          0,          1,             1,      4031237645

Show Spectrometer Status:
l0_version, f4_version, battery_perc, battery_mVolt, accelerometer_temp, accelerometer_x, accelerometer_y, accelerometer_z, compass_temp, compass_x, compass_y, compass_z, lamp_0, lamp_1, gain_0, gain_1
        17,         24,           95,          2079,               5328,           65460,               8,           18404,            0,     65532,     65387,     65533,   2047,   2047,    1,    1

Temperature Statistic Info:
NTC AVG [°C], NTC2 AVG [°C]
      36.693,        36.380

Statistic Info:
M1:  num,      min,      max,   median,      AVG,      STD,M2:  num,      min,      max,   median,      AVG,      STD
     301,   673.00,   777.00,   699.00,   708.78,  32.0612,     401,  1056.00,  1120.00,  1091.00,  1089.52,  21.9707,

Measurements:
Wavelength, Data Amplitude
1350, 683.00
1351, 683.00
1352, 683.00
1353, 683.00
1354, 682.00
1355, 683.00
1356, 683.00
1357, 682.00
1358, 683.00
1359, 681.00
1360, 682.00
1361, 680.00
1362, 681.00
1363, 681.00
1364, 680.00
1365, 681.00
1366, 680.00
1367, 680.00
1368, 681.00
1369, 679.00
1370, 679.00
1371, 679.00
1372, 679.00
1373, 678.00
1374, 679.00
1375, 679.00
1376, 678.00
1377, 679.00
1378, 677.00
1379, 678.00
1380, 677.00
1381, 677.00
1382, 677.00
1383, 676.00
1384, 676.00
1385, 676.00
1386, 676.00
1387, 675.00
1388, 676.00
1389, 675.00
1390, 674.00
1391, 675.00
1392, 676.00
1393, 676.00
1394, 675.00
1395, 675.00
1396, 675.00
1397, 675.00
1398, 675.00
1399, 675.00
1400, 675.00
1401, 675.00
1402, 675.00
1403, 675.00
1404, 675.00
1405, 673.00
1406, 675.00
1407, 675.00
1408, 674.00
1409, 674.00
1410, 675.00
1411, 676.00
1412, 675.00
1413, 675.00
1414, 675.00
1415, 675.00
1416, 676.00
1417, 675.00
1418, 675.00
1419, 675.00
1420, 675.00
1421, 675.00
1422, 676.00
1423, 675.00
1424, 675.00
1425, 676.00
1426, 676.00
1427, 676.00
1428, 675.00
1429, 676.00
1430, 677.00
1431, 677.00
1432, 677.00
1433, 676.00
1434, 677.00
1435, 677.00
1436, 677.00
1437, 678.00
1438, 677.00
1439, 678.00
1440, 678.00
1441, 679.00
1442, 678.00
1443, 679.00
1444, 679.00
1445, 679.00
1446, 679.00
1447, 680.00
1448, 680.00
1449, 680.00
1450, 681.00
1451, 681.00
1452, 681.00
1453, 682.00
1454, 682.00
1455, 682.00
1456, 682.00
1457, 682.00
1458, 683.00
1459, 683.00
1460, 684.00
1461, 683.00
1462, 683.00
1463, 684.00
1464, 684.00
1465, 685.00
1466, 685.00
1467, 685.00
1468, 686.00
1469, 686.00
1470, 687.00
1471, 687.00
1472, 687.00
1473, 689.00
1474, 688.00
1475, 688.00
1476, 689.00
1477, 689.00
1478, 690.00
1479, 690.00
1480, 690.00
1481, 692.00
1482, 691.00
1483, 692.00
1484, 692.00
1485, 692.00
1486, 692.00
1487, 694.00
1488, 694.00
1489, 694.00
1490, 695.00
1491, 696.00
1492, 697.00
1493, 697.00
1494, 696.00
1495, 697.00
1496, 697.00
1497, 698.00
1498, 699.00
1499, 699.00
1500, 699.00
1501, 700.00
1502, 701.00
1503, 700.00
1504, 701.00
1505, 701.00
1506, 702.00
1507, 703.00
1508, 703.00
1509, 704.00
1510, 704.00
1511, 705.00
1512, 705.00
1513, 706.00
1514, 706.00
1515, 707.00
1516, 707.00
1517, 707.00
1518, 709.00
1519, 709.00
1520, 709.00
1521, 710.00
1522, 710.00
1523, 711.00
1524, 711.00
1525, 711.00
1526, 712.00
1527, 713.00
1528, 712.00
1529, 714.00
1530, 715.00
1531, 715.00
1532, 715.00
1533, 715.00
1534, 716.00
1535, 716.00
1536, 716.00
1537, 717.00
1538, 717.00
1539, 717.00
1540, 719.00
1541, 718.00
1542, 719.00
1543, 720.00
1544, 721.00
1545, 721.00
1546, 721.00
1547, 721.00
1548, 722.00
1549, 722.00
1550, 723.00
1551, 723.00
1552, 724.00
1553, 725.00
1554, 725.00
1555, 725.00
1556, 726.00
1557, 726.00
1558, 727.00
1559, 727.00
1560, 727.00
1561, 728.00
1562, 728.00
1563, 729.00
1564, 729.00
1565, 729.00
1566, 730.00
1567, 731.00
1568, 731.00
1569, 732.00
1570, 732.00
1571, 733.00
1572, 734.00
1573, 733.00
1574, 734.00
1575, 735.00
1576, 735.00
1577, 736.00
1578, 737.00
1579, 737.00
1580, 738.00
1581, 738.00
1582, 739.00
1583, 739.00
1584, 739.00
1585, 740.00
1586, 740.00
1587, 741.00
1588, 741.00
1589, 741.00
1590, 742.00
1591, 742.00
1592, 743.00
1593, 743.00
1594, 744.00
1595, 744.00
1596, 745.00
1597, 745.00
1598, 747.00
1599, 746.00
1600, 747.00
1601, 748.00
1602, 748.00
1603, 749.00
1604, 749.00
1605, 750.00
1606, 751.00
1607, 752.00
1608, 752.00
1609, 752.00
1610, 753.00
1611, 753.00
1612, 754.00
1613, 755.00
1614, 755.00
1615, 756.00
1616, 757.00
1617, 757.00
1618, 758.00
1619, 759.00
1620, 760.00
1621, 760.00
1622, 760.00
1623, 761.00
1624, 762.00
1625, 763.00
1626, 763.00
1627, 764.00
1628, 765.00
1629, 766.00
1630, 766.00
1631, 766.00
1632, 767.00
1633, 767.00
1634, 768.00
1635, 769.00
1636, 769.00
1637, 770.00
1638, 770.00
1639, 770.00
1640, 771.00
1641, 772.00
1642, 772.00
1643, 773.00
1644, 773.00
1645, 774.00
1646, 774.00
1647, 775.00
1648, 776.00
1649, 776.00
1650, 777.00

1750, 1116.00
1751, 1117.00
1752, 1117.00
1753, 1116.00
1754, 1116.00
1755, 1117.00
1756, 1116.00
1757, 1116.00
1758, 1118.00
1759, 1117.00
1760, 1117.00
1761, 1115.00
1762, 1117.00
1763, 1118.00
1764, 1118.00
1765, 1117.00
1766, 1117.00
1767, 1116.00
1768, 1116.00
1769, 1118.00
1770, 1115.00
1771, 1116.00
1772, 1118.00
1773, 1116.00
1774, 1116.00
1775, 1116.00
1776, 1117.00
1777, 1116.00
1778, 1117.00
1779, 1115.00
1780, 1114.00
1781, 1117.00
1782, 1113.00
1783, 1113.00
1784, 1115.00
1785, 1115.00
1786, 1114.00
1787, 1113.00
1788, 1114.00
1789, 1114.00
1790, 1113.00
1791, 1112.00
1792, 1114.00
1793, 1113.00
1794, 1112.00
1795, 1112.00
1796, 1112.00
1797, 1110.00
1798, 1112.00
1799, 1110.00
1800, 1113.00
1801, 1111.00
1802, 1112.00
1803, 1111.00
1804, 1112.00
1805, 1109.00
1806, 1111.00
1807, 1110.00
1808, 1111.00
1809, 1108.00
1810, 1109.00
1811, 1110.00
1812, 1111.00
1813, 1110.00
1814, 1108.00
1815, 1111.00
1816, 1109.00
1817, 1109.00
1818, 1108.00
1819, 1109.00
1820, 1108.00
1821, 1107.00
1822, 1107.00
1823, 1109.00
1824, 1108.00
1825, 1105.00
1826, 1107.00
1827, 1107.00
1828, 1106.00
1829, 1106.00
1830, 1104.00
1831, 1102.00
1832, 1103.00
1833, 1103.00
1834, 1102.00
1835, 1104.00
1836, 1104.00
1837, 1100.00
1838, 1100.00
1839, 1100.00
1840, 1099.00
1841, 1097.00
1842, 1098.00
1843, 1095.00
1844, 1095.00
1845, 1095.00
1846, 1093.00
1847, 1095.00
1848, 1090.00
1849, 1092.00
1850, 1090.00
1851, 1090.00
1852, 1088.00
1853, 1088.00
1854, 1085.00
1855, 1084.00
1856, 1083.00
1857, 1083.00
1858, 1080.00
1859, 1081.00
1860, 1079.00
1861, 1078.00
1862, 1077.00
1863, 1077.00
1864, 1076.00
1865, 1076.00
1866, 1072.00
1867, 1074.00
1868, 1072.00
1869, 1072.00
1870, 1071.00
1871, 1070.00
1872, 1070.00
1873, 1069.00
1874, 1068.00
1875, 1068.00
1876, 1067.00
1877, 1066.00
1878, 1066.00
1879, 1065.00
1880, 1064.00
1881, 1064.00
1882, 1064.00
1883, 1063.00
1884, 1063.00
1885, 1061.00
1886, 1061.00
1887, 1063.00
1888, 1063.00
1889, 1060.00
1890, 1062.00
1891, 1061.00
1892, 1059.00
1893, 1060.00
1894, 1060.00
1895, 1060.00
1896, 1060.00
1897, 1058.00
1898, 1059.00
1899, 1057.00
1900, 1059.00
1901, 1060.00
1902, 1058.00
1903, 1057.00
1904, 1059.00
1905, 1059.00
1906, 1058.00
1907, 1057.00
1908, 1057.00
1909, 1060.00
1910, 1058.00
1911, 1057.00
1912, 1057.00
1913, 1057.00
1914, 1058.00
1915, 1057.00
1916, 1058.00
1917, 1056.00
1918, 1058.00
1919, 1056.00
1920, 1056.00
1921, 1056.00
1922, 1057.00
1923, 1056.00
1924, 1058.00
1925, 1058.00
1926, 1057.00
1927, 1058.00
1928, 1057.00
1929, 1057.00
1930, 1056.00
1931, 1056.00
1932, 1059.00
1933, 1058.00
1934, 1059.00
1935, 1059.00
1936, 1059.00
1937, 1058.00
1938, 1058.00
1939, 1058.00
1940, 1058.00
1941, 1059.00
1942, 1060.00
1943, 1060.00
1944, 1059.00
1945, 1060.00
1946, 1057.00
1947, 1061.00
1948, 1060.00
1949, 1060.00
1950, 1061.00
1951, 1062.00
1952, 1060.00
1953, 1060.00
1954, 1062.00
1955, 1062.00
1956, 1062.00
1957, 1062.00
1958, 1063.00
1959, 1062.00
1960, 1062.00
1961, 1064.00
1962, 1064.00
1963, 1064.00
1964, 1064.00
1965, 1063.00
1966, 1065.00
1967, 1065.00
1968, 1064.00
1969, 1063.00
1970, 1065.00
1971, 1066.00
1972, 1065.00
1973, 1068.00
1974, 1067.00
1975, 1068.00
1976, 1068.00
1977, 1067.00
1978, 1068.00
1979, 1069.00
1980, 1068.00
1981, 1069.00
1982, 1070.00
1983, 1069.00
1984, 1070.00
1985, 1071.00
1986, 1071.00
1987, 1071.00
1988, 1072.00
1989, 1073.00
1990, 1072.00
1991, 1072.00
1992, 1073.00
1993, 1072.00
1994, 1072.00
1995, 1072.00
1996, 1073.00
1997, 1075.00
1998, 1072.00
1999, 1075.00
2000, 1076.00
2001, 1076.00
2002, 1077.00
2003, 1074.00
2004, 1076.00
2005, 1076.00
2006, 1076.00
2007, 1077.00
2008, 1078.00
2009, 1079.00
2010, 1079.00
2011, 1079.00
2012, 1077.00
2013, 1079.00
2014, 1079.00
2015, 1079.00
2016, 1080.00
2017, 1081.00
2018, 1082.00
2019, 1081.00
2020, 1080.00
2021, 1082.00
2022, 1082.00
2023, 1082.00
2024, 1081.00
2025, 1083.00
2026, 1082.00
2027, 1083.00
2028, 1082.00
2029, 1087.00
2030, 1084.00
2031, 1083.00
2032, 1085.00
2033, 1086.00
2034, 1087.00
2035, 1087.00
2036, 1086.00
2037, 1087.00
2038, 1087.00
2039, 1088.00
2040, 1086.00
2041, 1089.00
2042, 1089.00
2043, 1089.00
2044, 1089.00
2045, 1089.00
2046, 1089.00
2047, 1091.00
2048, 1091.00
2049, 1092.00
2050, 1091.00
2051, 1092.00
2052, 1093.00
2053, 1092.00
2054, 1095.00
2055, 1094.00
2056, 1094.00
2057, 1096.00
2058, 1095.00
2059, 1097.00
2060, 1096.00
2061, 1097.00
2062, 1097.00
2063, 1096.00
2064, 1099.00
2065, 1097.00
2066, 1099.00
2067, 1100.00
2068, 1100.00
2069, 1101.00
2070, 1101.00
2071, 1101.00
2072, 1103.00
2073, 1102.00
2074, 1103.00
2075, 1103.00
2076, 1104.00
2077, 1104.00
2078, 1105.00
2079, 1106.00
2080, 1105.00
2081, 1105.00
2082, 1106.00
2083, 1105.00
2084, 1106.00
2085, 1106.00
2086, 1108.00
2087, 1107.00
2088, 1109.00
2089, 1109.00
2090, 1110.00
2091, 1108.00
2092, 1110.00
2093, 1109.00
2094, 1109.00
2095, 1109.00
2096, 1111.00
2097, 1110.00
2098, 1111.00
2099, 1112.00
2100, 1110.00
2101, 1112.00
2102, 1110.00
2103, 1112.00
2104, 1112.00
2105, 1112.00
2106, 1113.00
2107, 1114.00
2108, 1112.00
2109, 1114.00
2110, 1113.00
2111, 1115.00
2112, 1113.00
2113, 1114.00
2114, 1113.00
2115, 1113.00
2116, 1117.00
2117, 1115.00
2118, 1115.00
2119, 1114.00
2120, 1117.00
2121, 1115.00
2122, 1115.00
2123, 1115.00
2124, 1114.00
2125, 1115.00
2126, 1116.00
2127, 1116.00
2128, 1114.00
2129, 1116.00
2130, 1115.00
2131, 1116.00
2132, 1118.00
2133, 1115.00
2134, 1115.00
2135, 1118.00
2136, 1117.00
2137, 1116.00
2138, 1117.00
2139, 1120.00
2140, 1117.00
2141, 1117.00
2142, 1117.00
2143, 1118.00
2144, 1116.00
2145, 1118.00
2146, 1118.00
2147, 1119.00
2148, 1117.00
2149, 1117.00
2150, 1119.00
