FW version: 24
Log Version: 3.0.3

General Info:
       Command/Macro Performed,            Timestamp,             Device ID, COM Port, UART/I2C, Test Name, Host Major, Host Minor, Host Revision, Host Git Commit
            Single_measurement,  2023_07_11_12_00_40,       Insight2_F4_xxx,    USB-C,      USB,          ,          0,          1,             1,      4031237645

Show Spectrometer Status:
l0_version, f4_version, battery_perc, battery_mVolt, accelerometer_temp, accelerometer_x, accelerometer_y, accelerometer_z, compass_temp, compass_x, compass_y, compass_z, lamp_0, lamp_1, gain_0, gain_1
        17,         24,           52,          1912,               7024,           64796,            1580,           18784,            0,     65340,     65406,     18793,   2866,   2866,      1,      1

Temperature Statistic Info:
NTC AVG [°C], NTC2 AVG [°C]
      42.343,        41.980

Statistic Info:
M1:  num,      min,      max,   median,      AVG,      STD,M2:  num,      min,      max,   median,      AVG,      STD
     301,  1468.00,  1666.00,  1514.00,  1534.15,  62.2592,     401,  2113.00,  2230.00,  2176.00,  2173.43,  40.6936,

Measurements:
Wavelength, Data Amplitude
1350, 1488.00
1351, 1490.00
1352, 1488.00
1353, 1489.00
1354, 1487.00
1355, 1487.00
1356, 1488.00
1357, 1487.00
1358, 1487.00
1359, 1485.00
1360, 1486.00
1361, 1484.00
1362, 1485.00
1363, 1483.00
1364, 1483.00
1365, 1483.00
1366, 1481.00
1367, 1482.00
1368, 1481.00
1369, 1479.00
1370, 1481.00
1371, 1478.00
1372, 1477.00
1373, 1477.00
1374, 1478.00
1375, 1477.00
1376, 1476.00
1377, 1475.00
1378, 1475.00
1379, 1474.00
1380, 1474.00
1381, 1473.00
1382, 1473.00
1383, 1471.00
1384, 1472.00
1385, 1472.00
1386, 1471.00
1387, 1472.00
1388, 1471.00
1389, 1471.00
1390, 1471.00
1391, 1470.00
1392, 1471.00
1393, 1470.00
1394, 1471.00
1395, 1469.00
1396, 1470.00
1397, 1469.00
1398, 1470.00
1399, 1468.00
1400, 1469.00
1401, 1469.00
1402, 1470.00
1403, 1468.00
1404, 1469.00
1405, 1469.00
1406, 1469.00
1407, 1468.00
1408, 1469.00
1409, 1469.00
1410, 1469.00
1411, 1469.00
1412, 1468.00
1413, 1469.00
1414, 1468.00
1415, 1468.00
1416, 1468.00
1417, 1470.00
1418, 1469.00
1419, 1469.00
1420, 1469.00
1421, 1468.00
1422, 1469.00
1423, 1468.00
1424, 1470.00
1425, 1471.00
1426, 1470.00
1427, 1471.00
1428, 1469.00
1429, 1471.00
1430, 1470.00
1431, 1472.00
1432, 1472.00
1433, 1471.00
1434, 1472.00
1435, 1473.00
1436, 1473.00
1437, 1474.00
1438, 1473.00
1439, 1474.00
1440, 1475.00
1441, 1475.00
1442, 1475.00
1443, 1476.00
1444, 1476.00
1445, 1477.00
1446, 1477.00
1447, 1477.00
1448, 1478.00
1449, 1479.00
1450, 1479.00
1451, 1480.00
1452, 1479.00
1453, 1482.00
1454, 1480.00
1455, 1481.00
1456, 1483.00
1457, 1482.00
1458, 1484.00
1459, 1484.00
1460, 1484.00
1461, 1485.00
1462, 1485.00
1463, 1486.00
1464, 1487.00
1465, 1487.00
1466, 1488.00
1467, 1489.00
1468, 1489.00
1469, 1489.00
1470, 1491.00
1471, 1492.00
1472, 1492.00
1473, 1493.00
1474, 1494.00
1475, 1494.00
1476, 1495.00
1477, 1496.00
1478, 1496.00
1479, 1498.00
1480, 1498.00
1481, 1498.00
1482, 1500.00
1483, 1500.00
1484, 1501.00
1485, 1502.00
1486, 1503.00
1487, 1504.00
1488, 1504.00
1489, 1506.00
1490, 1505.00
1491, 1507.00
1492, 1508.00
1493, 1508.00
1494, 1509.00
1495, 1511.00
1496, 1511.00
1497, 1512.00
1498, 1513.00
1499, 1513.00
1500, 1514.00
1501, 1515.00
1502, 1515.00
1503, 1516.00
1504, 1518.00
1505, 1518.00
1506, 1519.00
1507, 1520.00
1508, 1521.00
1509, 1521.00
1510, 1523.00
1511, 1523.00
1512, 1524.00
1513, 1524.00
1514, 1525.00
1515, 1526.00
1516, 1528.00
1517, 1527.00
1518, 1529.00
1519, 1530.00
1520, 1531.00
1521, 1531.00
1522, 1533.00
1523, 1533.00
1524, 1535.00
1525, 1536.00
1526, 1536.00
1527, 1538.00
1528, 1539.00
1529, 1539.00
1530, 1541.00
1531, 1541.00
1532, 1543.00
1533, 1543.00
1534, 1544.00
1535, 1544.00
1536, 1546.00
1537, 1547.00
1538, 1549.00
1539, 1549.00
1540, 1550.00
1541, 1551.00
1542, 1552.00
1543, 1553.00
1544, 1554.00
1545, 1554.00
1546, 1556.00
1547, 1557.00
1548, 1558.00
1549, 1558.00
1550, 1559.00
1551, 1560.00
1552, 1561.00
1553, 1562.00
1554, 1563.00
1555, 1564.00
1556, 1565.00
1557, 1568.00
1558, 1568.00
1559, 1570.00
1560, 1570.00
1561, 1571.00
1562, 1572.00
1563, 1573.00
1564, 1574.00
1565, 1576.00
1566, 1576.00
1567, 1578.00
1568, 1579.00
1569, 1580.00
1570, 1581.00
1571, 1582.00
1572, 1584.00
1573, 1584.00
1574, 1584.00
1575, 1585.00
1576, 1587.00
1577, 1588.00
1578, 1590.00
1579, 1591.00
1580, 1591.00
1581, 1591.00
1582, 1593.00
1583, 1594.00
1584, 1594.00
1585, 1597.00
1586, 1598.00
1587, 1598.00
1588, 1599.00
1589, 1599.00
1590, 1600.00
1591, 1602.00
1592, 1602.00
1593, 1603.00
1594, 1603.00
1595, 1605.00
1596, 1606.00
1597, 1607.00
1598, 1608.00
1599, 1609.00
1600, 1609.00
1601, 1611.00
1602, 1611.00
1603, 1613.00
1604, 1614.00
1605, 1615.00
1606, 1616.00
1607, 1617.00
1608, 1617.00
1609, 1620.00
1610, 1621.00
1611, 1621.00
1612, 1623.00
1613, 1625.00
1614, 1626.00
1615, 1627.00
1616, 1628.00
1617, 1628.00
1618, 1630.00
1619, 1633.00
1620, 1633.00
1621, 1634.00
1622, 1635.00
1623, 1637.00
1624, 1638.00
1625, 1639.00
1626, 1641.00
1627, 1641.00
1628, 1643.00
1629, 1644.00
1630, 1645.00
1631, 1646.00
1632, 1647.00
1633, 1649.00
1634, 1650.00
1635, 1650.00
1636, 1653.00
1637, 1653.00
1638, 1654.00
1639, 1655.00
1640, 1657.00
1641, 1658.00
1642, 1658.00
1643, 1659.00
1644, 1660.00
1645, 1662.00
1646, 1663.00
1647, 1664.00
1648, 1665.00
1649, 1666.00
1650, 1666.00

1750, 2228.00
1751, 2227.00
1752, 2229.00
1753, 2228.00
1754, 2228.00
1755, 2229.00
1756, 2229.00
1757, 2227.00
1758, 2229.00
1759, 2230.00
1760, 2229.00
1761, 2229.00
1762, 2227.00
1763, 2229.00
1764, 2227.00
1765, 2228.00
1766, 2228.00
1767, 2227.00
1768, 2228.00
1769, 2226.00
1770, 2227.00
1771, 2226.00
1772, 2225.00
1773, 2226.00
1774, 2226.00
1775, 2227.00
1776, 2225.00
1777, 2224.00
1778, 2224.00
1779, 2224.00
1780, 2224.00
1781, 2223.00
1782, 2222.00
1783, 2222.00
1784, 2222.00
1785, 2222.00
1786, 2219.00
1787, 2218.00
1788, 2221.00
1789, 2219.00
1790, 2220.00
1791, 2220.00
1792, 2218.00
1793, 2219.00
1794, 2218.00
1795, 2218.00
1796, 2215.00
1797, 2216.00
1798, 2216.00
1799, 2216.00
1800, 2216.00
1801, 2217.00
1802, 2215.00
1803, 2215.00
1804, 2214.00
1805, 2214.00
1806, 2215.00
1807, 2213.00
1808, 2214.00
1809, 2213.00
1810, 2212.00
1811, 2214.00
1812, 2212.00
1813, 2211.00
1814, 2212.00
1815, 2213.00
1816, 2211.00
1817, 2209.00
1818, 2211.00
1819, 2209.00
1820, 2211.00
1821, 2208.00
1822, 2207.00
1823, 2207.00
1824, 2208.00
1825, 2206.00
1826, 2206.00
1827, 2204.00
1828, 2204.00
1829, 2203.00
1830, 2202.00
1831, 2200.00
1832, 2198.00
1833, 2199.00
1834, 2198.00
1835, 2198.00
1836, 2195.00
1837, 2193.00
1838, 2193.00
1839, 2191.00
1840, 2189.00
1841, 2186.00
1842, 2187.00
1843, 2184.00
1844, 2183.00
1845, 2181.00
1846, 2179.00
1847, 2176.00
1848, 2176.00
1849, 2172.00
1850, 2174.00
1851, 2171.00
1852, 2169.00
1853, 2167.00
1854, 2162.00
1855, 2160.00
1856, 2162.00
1857, 2157.00
1858, 2155.00
1859, 2154.00
1860, 2153.00
1861, 2150.00
1862, 2149.00
1863, 2150.00
1864, 2144.00
1865, 2145.00
1866, 2143.00
1867, 2142.00
1868, 2139.00
1869, 2139.00
1870, 2136.00
1871, 2137.00
1872, 2134.00
1873, 2134.00
1874, 2131.00
1875, 2132.00
1876, 2129.00
1877, 2129.00
1878, 2130.00
1879, 2127.00
1880, 2128.00
1881, 2126.00
1882, 2124.00
1883, 2124.00
1884, 2124.00
1885, 2124.00
1886, 2122.00
1887, 2121.00
1888, 2122.00
1889, 2122.00
1890, 2120.00
1891, 2119.00
1892, 2118.00
1893, 2121.00
1894, 2117.00
1895, 2118.00
1896, 2119.00
1897, 2118.00
1898, 2118.00
1899, 2119.00
1900, 2118.00
1901, 2115.00
1902, 2115.00
1903, 2118.00
1904, 2117.00
1905, 2114.00
1906, 2117.00
1907, 2115.00
1908, 2117.00
1909, 2116.00
1910, 2116.00
1911, 2114.00
1912, 2115.00
1913, 2115.00
1914, 2115.00
1915, 2114.00
1916, 2115.00
1917, 2116.00
1918, 2113.00
1919, 2114.00
1920, 2115.00
1921, 2114.00
1922, 2116.00
1923, 2114.00
1924, 2114.00
1925, 2114.00
1926, 2113.00
1927, 2115.00
1928, 2116.00
1929, 2116.00
1930, 2114.00
1931, 2115.00
1932, 2117.00
1933, 2115.00
1934, 2115.00
1935, 2114.00
1936, 2116.00
1937, 2117.00
1938, 2115.00
1939, 2117.00
1940, 2118.00
1941, 2119.00
1942, 2117.00
1943, 2117.00
1944, 2115.00
1945, 2118.00
1946, 2118.00
1947, 2119.00
1948, 2120.00
1949, 2120.00
1950, 2121.00
1951, 2119.00
1952, 2122.00
1953, 2121.00
1954, 2122.00
1955, 2123.00
1956, 2122.00
1957, 2123.00
1958, 2124.00
1959, 2124.00
1960, 2124.00
1961, 2127.00
1962, 2126.00
1963, 2125.00
1964, 2127.00
1965, 2126.00
1966, 2127.00
1967, 2128.00
1968, 2129.00
1969, 2129.00
1970, 2129.00
1971, 2130.00
1972, 2130.00
1973, 2131.00
1974, 2131.00
1975, 2133.00
1976, 2134.00
1977, 2136.00
1978, 2134.00
1979, 2133.00
1980, 2136.00
1981, 2134.00
1982, 2137.00
1983, 2137.00
1984, 2136.00
1985, 2138.00
1986, 2139.00
1987, 2140.00
1988, 2139.00
1989, 2140.00
1990, 2141.00
1991, 2142.00
1992, 2143.00
1993, 2145.00
1994, 2142.00
1995, 2145.00
1996, 2146.00
1997, 2144.00
1998, 2146.00
1999, 2145.00
2000, 2146.00
2001, 2147.00
2002, 2149.00
2003, 2147.00
2004, 2150.00
2005, 2149.00
2006, 2148.00
2007, 2151.00
2008, 2148.00
2009, 2152.00
2010, 2152.00
2011, 2152.00
2012, 2151.00
2013, 2155.00
2014, 2156.00
2015, 2155.00
2016, 2155.00
2017, 2157.00
2018, 2158.00
2019, 2156.00
2020, 2158.00
2021, 2158.00
2022, 2158.00
2023, 2160.00
2024, 2160.00
2025, 2163.00
2026, 2161.00
2027, 2161.00
2028, 2162.00
2029, 2163.00
2030, 2165.00
2031, 2164.00
2032, 2163.00
2033, 2165.00
2034, 2166.00
2035, 2166.00
2036, 2167.00
2037, 2168.00
2038, 2168.00
2039, 2168.00
2040, 2170.00
2041, 2171.00
2042, 2170.00
2043, 2172.00
2044, 2172.00
2045, 2173.00
2046, 2174.00
2047, 2173.00
2048, 2176.00
2049, 2177.00
2050, 2178.00
2051, 2178.00
2052, 2179.00
2053, 2179.00
2054, 2180.00
2055, 2181.00
2056, 2182.00
2057, 2183.00
2058, 2182.00
2059, 2185.00
2060, 2187.00
2061, 2186.00
2062, 2187.00
2063, 2187.00
2064, 2187.00
2065, 2189.00
2066, 2190.00
2067, 2191.00
2068, 2193.00
2069, 2193.00
2070, 2194.00
2071, 2194.00
2072, 2195.00
2073, 2196.00
2074, 2195.00
2075, 2198.00
2076, 2198.00
2077, 2200.00
2078, 2201.00
2079, 2202.00
2080, 2198.00
2081, 2201.00
2082, 2204.00
2083, 2202.00
2084, 2204.00
2085, 2201.00
2086, 2204.00
2087, 2204.00
2088, 2207.00
2089, 2207.00
2090, 2208.00
2091, 2207.00
2092, 2207.00
2093, 2207.00
2094, 2209.00
2095, 2210.00
2096, 2212.00
2097, 2212.00
2098, 2212.00
2099, 2210.00
2100, 2210.00
2101, 2212.00
2102, 2212.00
2103, 2213.00
2104, 2212.00
2105, 2212.00
2106, 2216.00
2107, 2215.00
2108, 2215.00
2109, 2215.00
2110, 2214.00
2111, 2217.00
2112, 2214.00
2113, 2216.00
2114, 2214.00
2115, 2217.00
2116, 2219.00
2117, 2218.00
2118, 2218.00
2119, 2215.00
2120, 2220.00
2121, 2216.00
2122, 2218.00
2123, 2219.00
2124, 2219.00
2125, 2218.00
2126, 2220.00
2127, 2221.00
2128, 2220.00
2129, 2220.00
2130, 2221.00
2131, 2222.00
2132, 2222.00
2133, 2220.00
2134, 2222.00
2135, 2222.00
2136, 2222.00
2137, 2222.00
2138, 2223.00
2139, 2223.00
2140, 2223.00
2141, 2225.00
2142, 2223.00
2143, 2224.00
2144, 2222.00
2145, 2225.00
2146, 2226.00
2147, 2225.00
2148, 2226.00
2149, 2224.00
2150, 2225.00
