FW version: 24
Log Version: 3.0.3

General Info:
       Command/Macro Performed,            Timestamp,             Device ID, COM Port, UART/I2C, Test Name, Host Major, Host Minor, Host Revision, Host Git Commit
            Single_measurement,  2023_06_29_10_48_30,       Insight2_F4_xxx,    USB-C,      USB,          ,          0,          1,             1,      4031237645

Show Spectrometer Status:
l0_version, f4_version, battery_perc, battery_mVolt, accelerometer_temp, accelerometer_x, accelerometer_y, accelerometer_z, compass_temp, compass_x, compass_y, compass_z, lamp_0, lamp_1, gain_0, gain_1
        17,         24,           93,          2068,               5872,           65460,             124,           18508,            0,     65535,     65404,     65518,   2047,   2047,      1,      1

Temperature Statistic Info:
NTC AVG [°C], NTC2 AVG [°C]
      37.583,        37.266

Statistic Info:
M1:  num,      min,      max,   median,      AVG,      STD,M2:  num,      min,      max,   median,      AVG,      STD
     301,   650.00,   753.00,   674.00,   685.40,  32.5673,     401,   975.00,  1042.00,  1003.00,  1005.35,  21.6813,

Measurements:
Wavelength, Data Amplitude
1350, 668.00
1351, 667.00
1352, 667.00
1353, 666.00
1354, 666.00
1355, 665.00
1356, 665.00
1357, 665.00
1358, 665.00
1359, 664.00
1360, 663.00
1361, 664.00
1362, 663.00
1363, 663.00
1364, 662.00
1365, 662.00
1366, 662.00
1367, 661.00
1368, 659.00
1369, 660.00
1370, 660.00
1371, 659.00
1372, 659.00
1373, 658.00
1374, 658.00
1375, 657.00
1376, 656.00
1377, 656.00
1378, 656.00
1379, 656.00
1380, 656.00
1381, 655.00
1382, 655.00
1383, 655.00
1384, 655.00
1385, 655.00
1386, 654.00
1387, 654.00
1388, 653.00
1389, 653.00
1390, 652.00
1391, 652.00
1392, 653.00
1393, 653.00
1394, 652.00
1395, 652.00
1396, 652.00
1397, 652.00
1398, 652.00
1399, 652.00
1400, 651.00
1401, 653.00
1402, 652.00
1403, 652.00
1404, 651.00
1405, 651.00
1406, 651.00
1407, 650.00
1408, 651.00
1409, 651.00
1410, 651.00
1411, 651.00
1412, 651.00
1413, 651.00
1414, 650.00
1415, 651.00
1416, 652.00
1417, 651.00
1418, 651.00
1419, 651.00
1420, 651.00
1421, 651.00
1422, 652.00
1423, 652.00
1424, 651.00
1425, 652.00
1426, 651.00
1427, 651.00
1428, 652.00
1429, 651.00
1430, 652.00
1431, 651.00
1432, 652.00
1433, 652.00
1434, 652.00
1435, 653.00
1436, 653.00
1437, 653.00
1438, 652.00
1439, 652.00
1440, 654.00
1441, 652.00
1442, 653.00
1443, 654.00
1444, 653.00
1445, 654.00
1446, 654.00
1447, 655.00
1448, 655.00
1449, 654.00
1450, 655.00
1451, 655.00
1452, 654.00
1453, 655.00
1454, 656.00
1455, 656.00
1456, 657.00
1457, 657.00
1458, 658.00
1459, 657.00
1460, 657.00
1461, 658.00
1462, 658.00
1463, 659.00
1464, 659.00
1465, 659.00
1466, 659.00
1467, 660.00
1468, 660.00
1469, 661.00
1470, 660.00
1471, 662.00
1472, 661.00
1473, 662.00
1474, 662.00
1475, 662.00
1476, 663.00
1477, 663.00
1478, 665.00
1479, 663.00
1480, 665.00
1481, 665.00
1482, 665.00
1483, 666.00
1484, 666.00
1485, 667.00
1486, 668.00
1487, 668.00
1488, 668.00
1489, 669.00
1490, 669.00
1491, 670.00
1492, 670.00
1493, 671.00
1494, 671.00
1495, 672.00
1496, 672.00
1497, 672.00
1498, 672.00
1499, 674.00
1500, 673.00
1501, 674.00
1502, 674.00
1503, 675.00
1504, 675.00
1505, 676.00
1506, 677.00
1507, 677.00
1508, 677.00
1509, 678.00
1510, 679.00
1511, 679.00
1512, 679.00
1513, 680.00
1514, 680.00
1515, 680.00
1516, 681.00
1517, 682.00
1518, 682.00
1519, 683.00
1520, 683.00
1521, 684.00
1522, 684.00
1523, 685.00
1524, 686.00
1525, 686.00
1526, 687.00
1527, 687.00
1528, 688.00
1529, 688.00
1530, 688.00
1531, 690.00
1532, 690.00
1533, 690.00
1534, 692.00
1535, 691.00
1536, 692.00
1537, 692.00
1538, 693.00
1539, 693.00
1540, 695.00
1541, 694.00
1542, 695.00
1543, 695.00
1544, 695.00
1545, 697.00
1546, 697.00
1547, 698.00
1548, 699.00
1549, 699.00
1550, 699.00
1551, 700.00
1552, 699.00
1553, 700.00
1554, 700.00
1555, 702.00
1556, 701.00
1557, 703.00
1558, 704.00
1559, 703.00
1560, 704.00
1561, 704.00
1562, 706.00
1563, 707.00
1564, 707.00
1565, 706.00
1566, 707.00
1567, 708.00
1568, 708.00
1569, 709.00
1570, 709.00
1571, 710.00
1572, 712.00
1573, 712.00
1574, 712.00
1575, 712.00
1576, 713.00
1577, 713.00
1578, 714.00
1579, 714.00
1580, 715.00
1581, 715.00
1582, 716.00
1583, 717.00
1584, 718.00
1585, 718.00
1586, 718.00
1587, 718.00
1588, 719.00
1589, 719.00
1590, 720.00
1591, 720.00
1592, 721.00
1593, 722.00
1594, 721.00
1595, 723.00
1596, 723.00
1597, 723.00
1598, 724.00
1599, 723.00
1600, 725.00
1601, 726.00
1602, 726.00
1603, 727.00
1604, 728.00
1605, 727.00
1606, 729.00
1607, 729.00
1608, 729.00
1609, 731.00
1610, 732.00
1611, 731.00
1612, 732.00
1613, 733.00
1614, 734.00
1615, 735.00
1616, 734.00
1617, 736.00
1618, 736.00
1619, 737.00
1620, 737.00
1621, 739.00
1622, 738.00
1623, 740.00
1624, 740.00
1625, 741.00
1626, 742.00
1627, 743.00
1628, 743.00
1629, 744.00
1630, 744.00
1631, 744.00
1632, 745.00
1633, 745.00
1634, 746.00
1635, 748.00
1636, 747.00
1637, 748.00
1638, 748.00
1639, 748.00
1640, 749.00
1641, 750.00
1642, 750.00
1643, 751.00
1644, 751.00
1645, 752.00
1646, 751.00
1647, 752.00
1648, 753.00
1649, 753.00
1650, 753.00

1750, 1040.00
1751, 1041.00
1752, 1040.00
1753, 1041.00
1754, 1041.00
1755, 1040.00
1756, 1042.00
1757, 1040.00
1758, 1041.00
1759, 1040.00
1760, 1040.00
1761, 1040.00
1762, 1042.00
1763, 1041.00
1764, 1040.00
1765, 1040.00
1766, 1041.00
1767, 1040.00
1768, 1039.00
1769, 1039.00
1770, 1040.00
1771, 1040.00
1772, 1038.00
1773, 1040.00
1774, 1040.00
1775, 1038.00
1776, 1038.00
1777, 1039.00
1778, 1038.00
1779, 1037.00
1780, 1038.00
1781, 1039.00
1782, 1038.00
1783, 1037.00
1784, 1037.00
1785, 1037.00
1786, 1035.00
1787, 1038.00
1788, 1036.00
1789, 1037.00
1790, 1037.00
1791, 1035.00
1792, 1035.00
1793, 1035.00
1794, 1035.00
1795, 1034.00
1796, 1035.00
1797, 1034.00
1798, 1033.00
1799, 1034.00
1800, 1034.00
1801, 1034.00
1802, 1034.00
1803, 1034.00
1804, 1033.00
1805, 1031.00
1806, 1033.00
1807, 1033.00
1808, 1032.00
1809, 1032.00
1810, 1032.00
1811, 1031.00
1812, 1032.00
1813, 1032.00
1814, 1032.00
1815, 1031.00
1816, 1030.00
1817, 1029.00
1818, 1029.00
1819, 1030.00
1820, 1028.00
1821, 1029.00
1822, 1029.00
1823, 1027.00
1824, 1027.00
1825, 1027.00
1826, 1026.00
1827, 1025.00
1828, 1024.00
1829, 1026.00
1830, 1024.00
1831, 1023.00
1832, 1023.00
1833, 1021.00
1834, 1020.00
1835, 1019.00
1836, 1018.00
1837, 1018.00
1838, 1018.00
1839, 1017.00
1840, 1015.00
1841, 1014.00
1842, 1014.00
1843, 1013.00
1844, 1011.00
1845, 1012.00
1846, 1011.00
1847, 1010.00
1848, 1007.00
1849, 1006.00
1850, 1005.00
1851, 1006.00
1852, 1003.00
1853, 1002.00
1854, 1002.00
1855, 1000.00
1856, 999.00
1857, 1000.00
1858, 997.00
1859, 998.00
1860, 997.00
1861, 995.00
1862, 994.00
1863, 993.00
1864, 993.00
1865, 991.00
1866, 992.00
1867, 990.00
1868, 990.00
1869, 989.00
1870, 989.00
1871, 989.00
1872, 986.00
1873, 987.00
1874, 985.00
1875, 984.00
1876, 984.00
1877, 986.00
1878, 985.00
1879, 982.00
1880, 983.00
1881, 981.00
1882, 983.00
1883, 983.00
1884, 982.00
1885, 981.00
1886, 983.00
1887, 981.00
1888, 980.00
1889, 981.00
1890, 982.00
1891, 980.00
1892, 979.00
1893, 980.00
1894, 980.00
1895, 980.00
1896, 979.00
1897, 978.00
1898, 979.00
1899, 979.00
1900, 977.00
1901, 978.00
1902, 979.00
1903, 977.00
1904, 978.00
1905, 979.00
1906, 978.00
1907, 978.00
1908, 978.00
1909, 977.00
1910, 979.00
1911, 979.00
1912, 977.00
1913, 979.00
1914, 977.00
1915, 976.00
1916, 978.00
1917, 976.00
1918, 976.00
1919, 977.00
1920, 977.00
1921, 978.00
1922, 978.00
1923, 977.00
1924, 979.00
1925, 977.00
1926, 977.00
1927, 977.00
1928, 977.00
1929, 976.00
1930, 976.00
1931, 976.00
1932, 978.00
1933, 977.00
1934, 978.00
1935, 978.00
1936, 977.00
1937, 975.00
1938, 978.00
1939, 978.00
1940, 977.00
1941, 977.00
1942, 977.00
1943, 979.00
1944, 977.00
1945, 978.00
1946, 978.00
1947, 977.00
1948, 978.00
1949, 979.00
1950, 978.00
1951, 979.00
1952, 980.00
1953, 978.00
1954, 980.00
1955, 978.00
1956, 979.00
1957, 979.00
1958, 980.00
1959, 981.00
1960, 980.00
1961, 980.00
1962, 983.00
1963, 980.00
1964, 980.00
1965, 983.00
1966, 981.00
1967, 981.00
1968, 983.00
1969, 983.00
1970, 981.00
1971, 983.00
1972, 983.00
1973, 982.00
1974, 983.00
1975, 983.00
1976, 982.00
1977, 983.00
1978, 984.00
1979, 985.00
1980, 983.00
1981, 984.00
1982, 985.00
1983, 985.00
1984, 985.00
1985, 984.00
1986, 987.00
1987, 984.00
1988, 986.00
1989, 985.00
1990, 986.00
1991, 988.00
1992, 984.00
1993, 987.00
1994, 987.00
1995, 988.00
1996, 986.00
1997, 988.00
1998, 989.00
1999, 987.00
2000, 991.00
2001, 989.00
2002, 990.00
2003, 988.00
2004, 990.00
2005, 989.00
2006, 990.00
2007, 990.00
2008, 991.00
2009, 989.00
2010, 990.00
2011, 991.00
2012, 991.00
2013, 991.00
2014, 992.00
2015, 991.00
2016, 993.00
2017, 991.00
2018, 991.00
2019, 993.00
2020, 993.00
2021, 992.00
2022, 993.00
2023, 995.00
2024, 994.00
2025, 994.00
2026, 995.00
2027, 995.00
2028, 994.00
2029, 996.00
2030, 997.00
2031, 995.00
2032, 996.00
2033, 997.00
2034, 996.00
2035, 997.00
2036, 996.00
2037, 998.00
2038, 1000.00
2039, 998.00
2040, 1001.00
2041, 997.00
2042, 998.00
2043, 999.00
2044, 1001.00
2045, 1000.00
2046, 1001.00
2047, 1001.00
2048, 1000.00
2049, 1002.00
2050, 1002.00
2051, 1004.00
2052, 1004.00
2053, 1003.00
2054, 1003.00
2055, 1007.00
2056, 1004.00
2057, 1005.00
2058, 1007.00
2059, 1005.00
2060, 1007.00
2061, 1007.00
2062, 1009.00
2063, 1007.00
2064, 1008.00
2065, 1010.00
2066, 1009.00
2067, 1009.00
2068, 1009.00
2069, 1010.00
2070, 1010.00
2071, 1009.00
2072, 1013.00
2073, 1012.00
2074, 1012.00
2075, 1012.00
2076, 1013.00
2077, 1012.00
2078, 1013.00
2079, 1014.00
2080, 1014.00
2081, 1013.00
2082, 1016.00
2083, 1015.00
2084, 1015.00
2085, 1016.00
2086, 1017.00
2087, 1018.00
2088, 1016.00
2089, 1017.00
2090, 1018.00
2091, 1017.00
2092, 1018.00
2093, 1019.00
2094, 1018.00
2095, 1019.00
2096, 1019.00
2097, 1019.00
2098, 1020.00
2099, 1019.00
2100, 1019.00
2101, 1020.00
2102, 1020.00
2103, 1019.00
2104, 1022.00
2105, 1019.00
2106, 1022.00
2107, 1021.00
2108, 1021.00
2109, 1020.00
2110, 1022.00
2111, 1022.00
2112, 1023.00
2113, 1024.00
2114, 1023.00
2115, 1023.00
2116, 1024.00
2117, 1021.00
2118, 1024.00
2119, 1024.00
2120, 1026.00
2121, 1023.00
2122, 1025.00
2123, 1026.00
2124, 1023.00
2125, 1025.00
2126, 1026.00
2127, 1025.00
2128, 1025.00
2129, 1025.00
2130, 1025.00
2131, 1026.00
2132, 1027.00
2133, 1026.00
2134, 1028.00
2135, 1027.00
2136, 1028.00
2137, 1028.00
2138, 1029.00
2139, 1026.00
2140, 1027.00
2141, 1027.00
2142, 1026.00
2143, 1028.00
2144, 1027.00
2145, 1030.00
2146, 1030.00
2147, 1028.00
2148, 1028.00
2149, 1029.00
2150, 1029.00
