FW version: 24
Log Version: 3.0.3

General Info:
       Command/Macro Performed,            Timestamp,             Device ID, COM Port, UART/I2C, Test Name, Host Major, Host Minor, Host Revision, Host Git Commit
            Single_measurement,  2023_06_29_10_49_17,       Insight2_F4_xxx,    USB-C,      USB,          ,          0,          1,             1,      4031237645

Show Spectrometer Status:
l0_version, f4_version, battery_perc, battery_mVolt, accelerometer_temp, accelerometer_x, accelerometer_y, accelerometer_z, compass_temp, compass_x, compass_y, compass_z, lamp_0, lamp_1, gain_0, gain_1
        17,         24,           93,          2064,               5920,           65472,             152,           18476,            0,     65529,     65466,     65518,   2866,   2866,      1,      1

Temperature Statistic Info:
NTC AVG [°C], NTC2 AVG [°C]
      37.925,        37.583

Statistic Info:
M1:  num,      min,      max,   median,      AVG,      STD,M2:  num,      min,      max,   median,      AVG,      STD
     301,  1266.00,  1455.00,  1303.00,  1327.83,  58.4163,     401,  1731.00,  1847.00,  1777.00,  1781.63,  37.4866,

Measurements:
Wavelength, Data Amplitude
1350, 1301.00
1351, 1301.00
1352, 1299.00
1353, 1300.00
1354, 1299.00
1355, 1298.00
1356, 1298.00
1357, 1297.00
1358, 1297.00
1359, 1295.00
1360, 1294.00
1361, 1294.00
1362, 1293.00
1363, 1292.00
1364, 1291.00
1365, 1290.00
1366, 1290.00
1367, 1288.00
1368, 1288.00
1369, 1285.00
1370, 1285.00
1371, 1283.00
1372, 1283.00
1373, 1282.00
1374, 1282.00
1375, 1280.00
1376, 1280.00
1377, 1279.00
1378, 1279.00
1379, 1279.00
1380, 1277.00
1381, 1277.00
1382, 1276.00
1383, 1275.00
1384, 1275.00
1385, 1274.00
1386, 1273.00
1387, 1273.00
1388, 1272.00
1389, 1273.00
1390, 1271.00
1391, 1272.00
1392, 1271.00
1393, 1271.00
1394, 1270.00
1395, 1270.00
1396, 1270.00
1397, 1270.00
1398, 1269.00
1399, 1270.00
1400, 1269.00
1401, 1269.00
1402, 1270.00
1403, 1269.00
1404, 1268.00
1405, 1269.00
1406, 1267.00
1407, 1268.00
1408, 1267.00
1409, 1268.00
1410, 1267.00
1411, 1267.00
1412, 1267.00
1413, 1266.00
1414, 1267.00
1415, 1266.00
1416, 1267.00
1417, 1266.00
1418, 1267.00
1419, 1266.00
1420, 1267.00
1421, 1267.00
1422, 1266.00
1423, 1267.00
1424, 1267.00
1425, 1266.00
1426, 1267.00
1427, 1267.00
1428, 1268.00
1429, 1268.00
1430, 1267.00
1431, 1268.00
1432, 1267.00
1433, 1268.00
1434, 1268.00
1435, 1269.00
1436, 1268.00
1437, 1269.00
1438, 1269.00
1439, 1270.00
1440, 1270.00
1441, 1270.00
1442, 1270.00
1443, 1270.00
1444, 1271.00
1445, 1271.00
1446, 1271.00
1447, 1271.00
1448, 1272.00
1449, 1272.00
1450, 1272.00
1451, 1274.00
1452, 1274.00
1453, 1275.00
1454, 1275.00
1455, 1274.00
1456, 1275.00
1457, 1275.00
1458, 1276.00
1459, 1277.00
1460, 1277.00
1461, 1278.00
1462, 1278.00
1463, 1278.00
1464, 1279.00
1465, 1279.00
1466, 1279.00
1467, 1281.00
1468, 1281.00
1469, 1281.00
1470, 1281.00
1471, 1283.00
1472, 1284.00
1473, 1284.00
1474, 1285.00
1475, 1286.00
1476, 1286.00
1477, 1286.00
1478, 1288.00
1479, 1289.00
1480, 1289.00
1481, 1291.00
1482, 1291.00
1483, 1291.00
1484, 1291.00
1485, 1292.00
1486, 1293.00
1487, 1294.00
1488, 1296.00
1489, 1296.00
1490, 1297.00
1491, 1297.00
1492, 1298.00
1493, 1298.00
1494, 1300.00
1495, 1300.00
1496, 1301.00
1497, 1302.00
1498, 1303.00
1499, 1303.00
1500, 1303.00
1501, 1305.00
1502, 1306.00
1503, 1306.00
1504, 1308.00
1505, 1308.00
1506, 1309.00
1507, 1310.00
1508, 1311.00
1509, 1312.00
1510, 1312.00
1511, 1313.00
1512, 1314.00
1513, 1315.00
1514, 1315.00
1515, 1317.00
1516, 1318.00
1517, 1318.00
1518, 1319.00
1519, 1320.00
1520, 1321.00
1521, 1323.00
1522, 1323.00
1523, 1324.00
1524, 1324.00
1525, 1326.00
1526, 1327.00
1527, 1328.00
1528, 1329.00
1529, 1330.00
1530, 1331.00
1531, 1331.00
1532, 1333.00
1533, 1333.00
1534, 1335.00
1535, 1336.00
1536, 1336.00
1537, 1338.00
1538, 1338.00
1539, 1339.00
1540, 1339.00
1541, 1341.00
1542, 1341.00
1543, 1342.00
1544, 1344.00
1545, 1345.00
1546, 1346.00
1547, 1346.00
1548, 1347.00
1549, 1349.00
1550, 1349.00
1551, 1350.00
1552, 1350.00
1553, 1352.00
1554, 1354.00
1555, 1355.00
1556, 1355.00
1557, 1356.00
1558, 1358.00
1559, 1358.00
1560, 1359.00
1561, 1361.00
1562, 1361.00
1563, 1362.00
1564, 1363.00
1565, 1364.00
1566, 1366.00
1567, 1367.00
1568, 1367.00
1569, 1370.00
1570, 1370.00
1571, 1371.00
1572, 1372.00
1573, 1374.00
1574, 1374.00
1575, 1375.00
1576, 1376.00
1577, 1377.00
1578, 1379.00
1579, 1378.00
1580, 1380.00
1581, 1381.00
1582, 1383.00
1583, 1383.00
1584, 1384.00
1585, 1385.00
1586, 1386.00
1587, 1386.00
1588, 1388.00
1589, 1388.00
1590, 1389.00
1591, 1391.00
1592, 1391.00
1593, 1393.00
1594, 1394.00
1595, 1395.00
1596, 1395.00
1597, 1396.00
1598, 1398.00
1599, 1398.00
1600, 1400.00
1601, 1401.00
1602, 1401.00
1603, 1402.00
1604, 1404.00
1605, 1405.00
1606, 1406.00
1607, 1407.00
1608, 1408.00
1609, 1409.00
1610, 1410.00
1611, 1411.00
1612, 1413.00
1613, 1414.00
1614, 1414.00
1615, 1415.00
1616, 1418.00
1617, 1418.00
1618, 1419.00
1619, 1421.00
1620, 1422.00
1621, 1423.00
1622, 1425.00
1623, 1426.00
1624, 1427.00
1625, 1428.00
1626, 1430.00
1627, 1431.00
1628, 1432.00
1629, 1434.00
1630, 1435.00
1631, 1435.00
1632, 1436.00
1633, 1437.00
1634, 1437.00
1635, 1439.00
1636, 1441.00
1637, 1443.00
1638, 1442.00
1639, 1444.00
1640, 1445.00
1641, 1446.00
1642, 1447.00
1643, 1448.00
1644, 1449.00
1645, 1449.00
1646, 1451.00
1647, 1451.00
1648, 1453.00
1649, 1454.00
1650, 1455.00

1750, 1846.00
1751, 1844.00
1752, 1846.00
1753, 1847.00
1754, 1846.00
1755, 1847.00
1756, 1845.00
1757, 1845.00
1758, 1845.00
1759, 1846.00
1760, 1844.00
1761, 1842.00
1762, 1846.00
1763, 1845.00
1764, 1845.00
1765, 1844.00
1766, 1845.00
1767, 1845.00
1768, 1843.00
1769, 1845.00
1770, 1844.00
1771, 1842.00
1772, 1844.00
1773, 1843.00
1774, 1844.00
1775, 1843.00
1776, 1841.00
1777, 1841.00
1778, 1841.00
1779, 1841.00
1780, 1841.00
1781, 1841.00
1782, 1838.00
1783, 1840.00
1784, 1839.00
1785, 1838.00
1786, 1837.00
1787, 1839.00
1788, 1838.00
1789, 1837.00
1790, 1837.00
1791, 1836.00
1792, 1833.00
1793, 1836.00
1794, 1834.00
1795, 1835.00
1796, 1833.00
1797, 1834.00
1798, 1834.00
1799, 1834.00
1800, 1833.00
1801, 1831.00
1802, 1832.00
1803, 1833.00
1804, 1831.00
1805, 1831.00
1806, 1830.00
1807, 1831.00
1808, 1831.00
1809, 1829.00
1810, 1829.00
1811, 1828.00
1812, 1826.00
1813, 1828.00
1814, 1825.00
1815, 1828.00
1816, 1826.00
1817, 1826.00
1818, 1825.00
1819, 1826.00
1820, 1822.00
1821, 1823.00
1822, 1823.00
1823, 1822.00
1824, 1822.00
1825, 1820.00
1826, 1819.00
1827, 1820.00
1828, 1815.00
1829, 1815.00
1830, 1816.00
1831, 1814.00
1832, 1812.00
1833, 1811.00
1834, 1811.00
1835, 1807.00
1836, 1807.00
1837, 1804.00
1838, 1806.00
1839, 1802.00
1840, 1801.00
1841, 1798.00
1842, 1798.00
1843, 1795.00
1844, 1792.00
1845, 1793.00
1846, 1790.00
1847, 1788.00
1848, 1788.00
1849, 1786.00
1850, 1784.00
1851, 1783.00
1852, 1779.00
1853, 1777.00
1854, 1775.00
1855, 1774.00
1856, 1772.00
1857, 1771.00
1858, 1769.00
1859, 1767.00
1860, 1767.00
1861, 1764.00
1862, 1765.00
1863, 1761.00
1864, 1761.00
1865, 1758.00
1866, 1758.00
1867, 1758.00
1868, 1757.00
1869, 1755.00
1870, 1753.00
1871, 1752.00
1872, 1750.00
1873, 1749.00
1874, 1752.00
1875, 1749.00
1876, 1748.00
1877, 1744.00
1878, 1747.00
1879, 1745.00
1880, 1745.00
1881, 1745.00
1882, 1745.00
1883, 1743.00
1884, 1742.00
1885, 1742.00
1886, 1741.00
1887, 1741.00
1888, 1743.00
1889, 1739.00
1890, 1739.00
1891, 1739.00
1892, 1739.00
1893, 1737.00
1894, 1738.00
1895, 1737.00
1896, 1738.00
1897, 1735.00
1898, 1738.00
1899, 1736.00
1900, 1735.00
1901, 1736.00
1902, 1734.00
1903, 1737.00
1904, 1737.00
1905, 1736.00
1906, 1735.00
1907, 1735.00
1908, 1734.00
1909, 1735.00
1910, 1735.00
1911, 1733.00
1912, 1734.00
1913, 1734.00
1914, 1732.00
1915, 1733.00
1916, 1734.00
1917, 1733.00
1918, 1735.00
1919, 1733.00
1920, 1733.00
1921, 1733.00
1922, 1731.00
1923, 1732.00
1924, 1732.00
1925, 1732.00
1926, 1732.00
1927, 1731.00
1928, 1732.00
1929, 1733.00
1930, 1733.00
1931, 1733.00
1932, 1731.00
1933, 1733.00
1934, 1734.00
1935, 1732.00
1936, 1733.00
1937, 1733.00
1938, 1735.00
1939, 1733.00
1940, 1735.00
1941, 1735.00
1942, 1735.00
1943, 1733.00
1944, 1736.00
1945, 1735.00
1946, 1735.00
1947, 1734.00
1948, 1735.00
1949, 1734.00
1950, 1735.00
1951, 1736.00
1952, 1738.00
1953, 1739.00
1954, 1736.00
1955, 1738.00
1956, 1737.00
1957, 1737.00
1958, 1737.00
1959, 1737.00
1960, 1737.00
1961, 1738.00
1962, 1740.00
1963, 1739.00
1964, 1738.00
1965, 1739.00
1966, 1740.00
1967, 1740.00
1968, 1739.00
1969, 1741.00
1970, 1739.00
1971, 1740.00
1972, 1742.00
1973, 1741.00
1974, 1743.00
1975, 1744.00
1976, 1743.00
1977, 1743.00
1978, 1744.00
1979, 1744.00
1980, 1744.00
1981, 1744.00
1982, 1743.00
1983, 1745.00
1984, 1746.00
1985, 1746.00
1986, 1747.00
1987, 1747.00
1988, 1748.00
1989, 1748.00
1990, 1749.00
1991, 1750.00
1992, 1750.00
1993, 1751.00
1994, 1751.00
1995, 1750.00
1996, 1753.00
1997, 1753.00
1998, 1753.00
1999, 1753.00
2000, 1752.00
2001, 1753.00
2002, 1753.00
2003, 1754.00
2004, 1754.00
2005, 1753.00
2006, 1757.00
2007, 1754.00
2008, 1755.00
2009, 1756.00
2010, 1757.00
2011, 1757.00
2012, 1758.00
2013, 1757.00
2014, 1759.00
2015, 1759.00
2016, 1762.00
2017, 1760.00
2018, 1760.00
2019, 1761.00
2020, 1761.00
2021, 1761.00
2022, 1763.00
2023, 1763.00
2024, 1765.00
2025, 1763.00
2026, 1763.00
2027, 1764.00
2028, 1763.00
2029, 1765.00
2030, 1764.00
2031, 1767.00
2032, 1765.00
2033, 1767.00
2034, 1768.00
2035, 1767.00
2036, 1769.00
2037, 1769.00
2038, 1770.00
2039, 1769.00
2040, 1770.00
2041, 1770.00
2042, 1771.00
2043, 1770.00
2044, 1772.00
2045, 1774.00
2046, 1773.00
2047, 1773.00
2048, 1776.00
2049, 1775.00
2050, 1775.00
2051, 1777.00
2052, 1776.00
2053, 1775.00
2054, 1778.00
2055, 1779.00
2056, 1779.00
2057, 1779.00
2058, 1779.00
2059, 1782.00
2060, 1784.00
2061, 1783.00
2062, 1783.00
2063, 1783.00
2064, 1783.00
2065, 1784.00
2066, 1786.00
2067, 1788.00
2068, 1787.00
2069, 1789.00
2070, 1787.00
2071, 1788.00
2072, 1791.00
2073, 1791.00
2074, 1791.00
2075, 1792.00
2076, 1791.00
2077, 1793.00
2078, 1794.00
2079, 1795.00
2080, 1796.00
2081, 1795.00
2082, 1796.00
2083, 1797.00
2084, 1797.00
2085, 1798.00
2086, 1796.00
2087, 1798.00
2088, 1797.00
2089, 1799.00
2090, 1799.00
2091, 1800.00
2092, 1799.00
2093, 1802.00
2094, 1801.00
2095, 1803.00
2096, 1803.00
2097, 1804.00
2098, 1803.00
2099, 1804.00
2100, 1804.00
2101, 1804.00
2102, 1804.00
2103, 1805.00
2104, 1805.00
2105, 1806.00
2106, 1807.00
2107, 1806.00
2108, 1807.00
2109, 1806.00
2110, 1808.00
2111, 1809.00
2112, 1808.00
2113, 1809.00
2114, 1808.00
2115, 1810.00
2116, 1809.00
2117, 1810.00
2118, 1809.00
2119, 1811.00
2120, 1810.00
2121, 1812.00
2122, 1811.00
2123, 1812.00
2124, 1811.00
2125, 1813.00
2126, 1814.00
2127, 1813.00
2128, 1813.00
2129, 1814.00
2130, 1811.00
2131, 1813.00
2132, 1814.00
2133, 1813.00
2134, 1814.00
2135, 1814.00
2136, 1814.00
2137, 1816.00
2138, 1815.00
2139, 1816.00
2140, 1818.00
2141, 1816.00
2142, 1817.00
2143, 1818.00
2144, 1817.00
2145, 1816.00
2146, 1817.00
2147, 1816.00
2148, 1818.00
2149, 1817.00
2150, 1817.00
