FW version: 24
Log Version: 3.0.3

General Info:
       Command/Macro Performed,            Timestamp,             Device ID, COM Port, UART/I2C, Test Name, Host Major, Host Minor, Host Revision, Host Git Commit
            Single_measurement,  2023_06_29_10_49_28,       Insight2_F4_xxx,    USB-C,      USB,          ,          0,          1,             1,      4031237645

Show Spectrometer Status:
l0_version, f4_version, battery_perc, battery_mVolt, accelerometer_temp, accelerometer_x, accelerometer_y, accelerometer_z, compass_temp, compass_x, compass_y, compass_z, lamp_0, lamp_1, gain_0, gain_1
        17,         24,           93,          2062,               5936,           65412,             188,           18484,            0,     65412,     65468,     65526,   3276,   3276,      1,      1

Temperature Statistic Info:
NTC AVG [°C], NTC2 AVG [°C]
      38.011,        37.726

Statistic Info:
M1:  num,      min,      max,   median,      AVG,      STD,M2:  num,      min,      max,   median,      AVG,      STD
     301,  1627.00,  1863.00,  1673.00,  1703.72,  72.5150,     401,  2149.00,  2291.00,  2205.00,  2210.05,  46.2209,

Measurements:
Wavelength, Data Amplitude
1350, 1673.00
1351, 1673.00
1352, 1672.00
1353, 1672.00
1354, 1670.00
1355, 1670.00
1356, 1669.00
1357, 1667.00
1358, 1667.00
1359, 1665.00
1360, 1665.00
1361, 1663.00
1362, 1662.00
1363, 1660.00
1364, 1661.00
1365, 1659.00
1366, 1658.00
1367, 1657.00
1368, 1654.00
1369, 1654.00
1370, 1653.00
1371, 1651.00
1372, 1650.00
1373, 1649.00
1374, 1648.00
1375, 1648.00
1376, 1645.00
1377, 1643.00
1378, 1644.00
1379, 1643.00
1380, 1641.00
1381, 1641.00
1382, 1640.00
1383, 1639.00
1384, 1639.00
1385, 1639.00
1386, 1636.00
1387, 1636.00
1388, 1637.00
1389, 1635.00
1390, 1634.00
1391, 1635.00
1392, 1634.00
1393, 1634.00
1394, 1632.00
1395, 1632.00
1396, 1632.00
1397, 1633.00
1398, 1631.00
1399, 1631.00
1400, 1631.00
1401, 1630.00
1402, 1630.00
1403, 1631.00
1404, 1629.00
1405, 1629.00
1406, 1630.00
1407, 1630.00
1408, 1630.00
1409, 1628.00
1410, 1629.00
1411, 1630.00
1412, 1629.00
1413, 1627.00
1414, 1627.00
1415, 1628.00
1416, 1628.00
1417, 1628.00
1418, 1628.00
1419, 1627.00
1420, 1627.00
1421, 1627.00
1422, 1628.00
1423, 1628.00
1424, 1628.00
1425, 1629.00
1426, 1628.00
1427, 1628.00
1428, 1628.00
1429, 1628.00
1430, 1628.00
1431, 1628.00
1432, 1629.00
1433, 1629.00
1434, 1629.00
1435, 1630.00
1436, 1630.00
1437, 1630.00
1438, 1631.00
1439, 1631.00
1440, 1631.00
1441, 1631.00
1442, 1632.00
1443, 1632.00
1444, 1632.00
1445, 1633.00
1446, 1633.00
1447, 1633.00
1448, 1634.00
1449, 1634.00
1450, 1635.00
1451, 1636.00
1452, 1636.00
1453, 1637.00
1454, 1637.00
1455, 1638.00
1456, 1637.00
1457, 1639.00
1458, 1639.00
1459, 1640.00
1460, 1639.00
1461, 1641.00
1462, 1642.00
1463, 1642.00
1464, 1642.00
1465, 1642.00
1466, 1644.00
1467, 1644.00
1468, 1646.00
1469, 1647.00
1470, 1647.00
1471, 1647.00
1472, 1648.00
1473, 1650.00
1474, 1650.00
1475, 1650.00
1476, 1651.00
1477, 1653.00
1478, 1653.00
1479, 1654.00
1480, 1656.00
1481, 1657.00
1482, 1657.00
1483, 1657.00
1484, 1658.00
1485, 1659.00
1486, 1659.00
1487, 1661.00
1488, 1663.00
1489, 1663.00
1490, 1663.00
1491, 1664.00
1492, 1666.00
1493, 1667.00
1494, 1668.00
1495, 1669.00
1496, 1670.00
1497, 1670.00
1498, 1671.00
1499, 1672.00
1500, 1673.00
1501, 1675.00
1502, 1674.00
1503, 1676.00
1504, 1678.00
1505, 1679.00
1506, 1679.00
1507, 1680.00
1508, 1682.00
1509, 1683.00
1510, 1683.00
1511, 1684.00
1512, 1685.00
1513, 1687.00
1514, 1688.00
1515, 1689.00
1516, 1690.00
1517, 1691.00
1518, 1692.00
1519, 1694.00
1520, 1694.00
1521, 1695.00
1522, 1697.00
1523, 1699.00
1524, 1699.00
1525, 1701.00
1526, 1702.00
1527, 1703.00
1528, 1705.00
1529, 1705.00
1530, 1706.00
1531, 1707.00
1532, 1708.00
1533, 1709.00
1534, 1710.00
1535, 1711.00
1536, 1713.00
1537, 1715.00
1538, 1716.00
1539, 1716.00
1540, 1719.00
1541, 1719.00
1542, 1721.00
1543, 1722.00
1544, 1723.00
1545, 1724.00
1546, 1725.00
1547, 1725.00
1548, 1728.00
1549, 1727.00
1550, 1731.00
1551, 1731.00
1552, 1732.00
1553, 1732.00
1554, 1734.00
1555, 1736.00
1556, 1737.00
1557, 1739.00
1558, 1740.00
1559, 1741.00
1560, 1743.00
1561, 1743.00
1562, 1745.00
1563, 1747.00
1564, 1748.00
1565, 1748.00
1566, 1751.00
1567, 1752.00
1568, 1754.00
1569, 1755.00
1570, 1756.00
1571, 1758.00
1572, 1758.00
1573, 1760.00
1574, 1762.00
1575, 1764.00
1576, 1763.00
1577, 1765.00
1578, 1767.00
1579, 1768.00
1580, 1769.00
1581, 1771.00
1582, 1771.00
1583, 1773.00
1584, 1774.00
1585, 1775.00
1586, 1777.00
1587, 1777.00
1588, 1779.00
1589, 1781.00
1590, 1781.00
1591, 1782.00
1592, 1783.00
1593, 1785.00
1594, 1784.00
1595, 1786.00
1596, 1788.00
1597, 1789.00
1598, 1791.00
1599, 1792.00
1600, 1793.00
1601, 1794.00
1602, 1796.00
1603, 1796.00
1604, 1797.00
1605, 1799.00
1606, 1801.00
1607, 1802.00
1608, 1803.00
1609, 1805.00
1610, 1806.00
1611, 1807.00
1612, 1810.00
1613, 1811.00
1614, 1812.00
1615, 1814.00
1616, 1815.00
1617, 1817.00
1618, 1818.00
1619, 1820.00
1620, 1822.00
1621, 1823.00
1622, 1824.00
1623, 1825.00
1624, 1827.00
1625, 1828.00
1626, 1829.00
1627, 1831.00
1628, 1834.00
1629, 1834.00
1630, 1835.00
1631, 1837.00
1632, 1839.00
1633, 1840.00
1634, 1841.00
1635, 1843.00
1636, 1843.00
1637, 1845.00
1638, 1847.00
1639, 1847.00
1640, 1848.00
1641, 1850.00
1642, 1851.00
1643, 1853.00
1644, 1854.00
1645, 1854.00
1646, 1856.00
1647, 1857.00
1648, 1859.00
1649, 1860.00
1650, 1863.00

1750, 2288.00
1751, 2290.00
1752, 2290.00
1753, 2290.00
1754, 2291.00
1755, 2290.00
1756, 2291.00
1757, 2291.00
1758, 2291.00
1759, 2289.00
1760, 2291.00
1761, 2289.00
1762, 2289.00
1763, 2289.00
1764, 2290.00
1765, 2288.00
1766, 2291.00
1767, 2287.00
1768, 2289.00
1769, 2288.00
1770, 2288.00
1771, 2287.00
1772, 2288.00
1773, 2289.00
1774, 2287.00
1775, 2285.00
1776, 2285.00
1777, 2284.00
1778, 2285.00
1779, 2283.00
1780, 2285.00
1781, 2285.00
1782, 2283.00
1783, 2282.00
1784, 2282.00
1785, 2281.00
1786, 2283.00
1787, 2280.00
1788, 2279.00
1789, 2281.00
1790, 2278.00
1791, 2279.00
1792, 2278.00
1793, 2278.00
1794, 2275.00
1795, 2277.00
1796, 2276.00
1797, 2276.00
1798, 2275.00
1799, 2273.00
1800, 2274.00
1801, 2273.00
1802, 2273.00
1803, 2274.00
1804, 2272.00
1805, 2272.00
1806, 2272.00
1807, 2272.00
1808, 2270.00
1809, 2269.00
1810, 2269.00
1811, 2269.00
1812, 2267.00
1813, 2268.00
1814, 2268.00
1815, 2265.00
1816, 2265.00
1817, 2266.00
1818, 2265.00
1819, 2262.00
1820, 2263.00
1821, 2261.00
1822, 2261.00
1823, 2260.00
1824, 2259.00
1825, 2257.00
1826, 2256.00
1827, 2255.00
1828, 2255.00
1829, 2251.00
1830, 2251.00
1831, 2250.00
1832, 2248.00
1833, 2247.00
1834, 2246.00
1835, 2243.00
1836, 2244.00
1837, 2239.00
1838, 2237.00
1839, 2235.00
1840, 2235.00
1841, 2232.00
1842, 2229.00
1843, 2227.00
1844, 2226.00
1845, 2225.00
1846, 2222.00
1847, 2219.00
1848, 2217.00
1849, 2215.00
1850, 2214.00
1851, 2210.00
1852, 2208.00
1853, 2207.00
1854, 2206.00
1855, 2200.00
1856, 2201.00
1857, 2197.00
1858, 2195.00
1859, 2192.00
1860, 2189.00
1861, 2188.00
1862, 2187.00
1863, 2185.00
1864, 2184.00
1865, 2183.00
1866, 2179.00
1867, 2179.00
1868, 2180.00
1869, 2177.00
1870, 2176.00
1871, 2173.00
1872, 2172.00
1873, 2171.00
1874, 2171.00
1875, 2169.00
1876, 2167.00
1877, 2166.00
1878, 2166.00
1879, 2165.00
1880, 2165.00
1881, 2165.00
1882, 2164.00
1883, 2163.00
1884, 2163.00
1885, 2162.00
1886, 2161.00
1887, 2161.00
1888, 2159.00
1889, 2161.00
1890, 2158.00
1891, 2159.00
1892, 2160.00
1893, 2158.00
1894, 2156.00
1895, 2158.00
1896, 2155.00
1897, 2157.00
1898, 2155.00
1899, 2154.00
1900, 2155.00
1901, 2155.00
1902, 2154.00
1903, 2154.00
1904, 2155.00
1905, 2152.00
1906, 2153.00
1907, 2154.00
1908, 2154.00
1909, 2151.00
1910, 2153.00
1911, 2150.00
1912, 2150.00
1913, 2152.00
1914, 2151.00
1915, 2150.00
1916, 2151.00
1917, 2151.00
1918, 2150.00
1919, 2153.00
1920, 2151.00
1921, 2152.00
1922, 2152.00
1923, 2151.00
1924, 2150.00
1925, 2151.00
1926, 2151.00
1927, 2151.00
1928, 2151.00
1929, 2151.00
1930, 2151.00
1931, 2150.00
1932, 2151.00
1933, 2150.00
1934, 2150.00
1935, 2151.00
1936, 2151.00
1937, 2149.00
1938, 2150.00
1939, 2151.00
1940, 2151.00
1941, 2149.00
1942, 2153.00
1943, 2152.00
1944, 2152.00
1945, 2151.00
1946, 2153.00
1947, 2153.00
1948, 2153.00
1949, 2152.00
1950, 2153.00
1951, 2153.00
1952, 2154.00
1953, 2154.00
1954, 2154.00
1955, 2156.00
1956, 2155.00
1957, 2155.00
1958, 2157.00
1959, 2155.00
1960, 2156.00
1961, 2157.00
1962, 2156.00
1963, 2158.00
1964, 2157.00
1965, 2158.00
1966, 2158.00
1967, 2159.00
1968, 2160.00
1969, 2160.00
1970, 2161.00
1971, 2160.00
1972, 2160.00
1973, 2161.00
1974, 2163.00
1975, 2161.00
1976, 2164.00
1977, 2164.00
1978, 2164.00
1979, 2165.00
1980, 2164.00
1981, 2166.00
1982, 2166.00
1983, 2167.00
1984, 2166.00
1985, 2166.00
1986, 2168.00
1987, 2169.00
1988, 2169.00
1989, 2170.00
1990, 2169.00
1991, 2170.00
1992, 2171.00
1993, 2173.00
1994, 2172.00
1995, 2172.00
1996, 2173.00
1997, 2173.00
1998, 2174.00
1999, 2176.00
2000, 2175.00
2001, 2175.00
2002, 2175.00
2003, 2175.00
2004, 2176.00
2005, 2178.00
2006, 2178.00
2007, 2179.00
2008, 2179.00
2009, 2178.00
2010, 2179.00
2011, 2180.00
2012, 2180.00
2013, 2180.00
2014, 2182.00
2015, 2182.00
2016, 2180.00
2017, 2183.00
2018, 2182.00
2019, 2183.00
2020, 2185.00
2021, 2183.00
2022, 2185.00
2023, 2185.00
2024, 2186.00
2025, 2185.00
2026, 2188.00
2027, 2186.00
2028, 2188.00
2029, 2187.00
2030, 2188.00
2031, 2187.00
2032, 2189.00
2033, 2191.00
2034, 2192.00
2035, 2190.00
2036, 2196.00
2037, 2192.00
2038, 2195.00
2039, 2193.00
2040, 2195.00
2041, 2197.00
2042, 2195.00
2043, 2198.00
2044, 2197.00
2045, 2201.00
2046, 2200.00
2047, 2199.00
2048, 2201.00
2049, 2201.00
2050, 2201.00
2051, 2203.00
2052, 2205.00
2053, 2204.00
2054, 2205.00
2055, 2205.00
2056, 2206.00
2057, 2208.00
2058, 2207.00
2059, 2210.00
2060, 2209.00
2061, 2211.00
2062, 2211.00
2063, 2212.00
2064, 2212.00
2065, 2213.00
2066, 2216.00
2067, 2215.00
2068, 2217.00
2069, 2217.00
2070, 2219.00
2071, 2221.00
2072, 2218.00
2073, 2221.00
2074, 2220.00
2075, 2221.00
2076, 2223.00
2077, 2223.00
2078, 2226.00
2079, 2224.00
2080, 2224.00
2081, 2224.00
2082, 2226.00
2083, 2226.00
2084, 2227.00
2085, 2226.00
2086, 2228.00
2087, 2231.00
2088, 2230.00
2089, 2229.00
2090, 2231.00
2091, 2229.00
2092, 2233.00
2093, 2233.00
2094, 2234.00
2095, 2234.00
2096, 2233.00
2097, 2235.00
2098, 2238.00
2099, 2236.00
2100, 2236.00
2101, 2236.00
2102, 2237.00
2103, 2239.00
2104, 2237.00
2105, 2238.00
2106, 2239.00
2107, 2238.00
2108, 2238.00
2109, 2240.00
2110, 2241.00
2111, 2242.00
2112, 2241.00
2113, 2243.00
2114, 2242.00
2115, 2243.00
2116, 2244.00
2117, 2243.00
2118, 2243.00
2119, 2244.00
2120, 2241.00
2121, 2244.00
2122, 2246.00
2123, 2246.00
2124, 2245.00
2125, 2246.00
2126, 2246.00
2127, 2246.00
2128, 2246.00
2129, 2247.00
2130, 2249.00
2131, 2247.00
2132, 2249.00
2133, 2249.00
2134, 2249.00
2135, 2249.00
2136, 2251.00
2137, 2249.00
2138, 2250.00
2139, 2252.00
2140, 2250.00
2141, 2251.00
2142, 2251.00
2143, 2254.00
2144, 2252.00
2145, 2252.00
2146, 2252.00
2147, 2253.00
2148, 2251.00
2149, 2252.00
2150, 2253.00
