FW version: 24
Log Version: 3.0.3

General Info:
       Command/Macro Performed,            Timestamp,             Device ID, COM Port, UART/I2C, Test Name, Host Major, Host Minor, Host Revision, Host Git Commit
            Single_measurement,  2023_06_29_10_48_19,       Insight2_F4_xxx,    USB-C,      USB,          ,          0,          1,             1,      4031237645

Show Spectrometer Status:
l0_version, f4_version, battery_perc, battery_mVolt, accelerometer_temp, accelerometer_x, accelerometer_y, accelerometer_z, compass_temp, compass_x, compass_y, compass_z, lamp_0, lamp_1, gain_0, gain_1
        17,         24,           93,          2071,               5888,           65448,             188,           18452,            0,     65529,     65470,     65533,   3276,   3276,      0,      0

Temperature Statistic Info:
NTC AVG [°C], NTC2 AVG [°C]
      37.554,        37.237

Statistic Info:
M1:  num,      min,      max,   median,      AVG,      STD,M2:  num,      min,      max,   median,      AVG,      STD
     301,   564.00,   646.00,   581.00,   591.12,  25.1876,     401,   746.00,   796.00,   765.00,   767.17,  16.1370,

Measurements:
Wavelength, Data Amplitude
1350, 581.00
1351, 581.00
1352, 581.00
1353, 580.00
1354, 580.00
1355, 580.00
1356, 579.00
1357, 578.00
1358, 579.00
1359, 578.00
1360, 578.00
1361, 578.00
1362, 578.00
1363, 577.00
1364, 576.00
1365, 576.00
1366, 575.00
1367, 575.00
1368, 574.00
1369, 574.00
1370, 573.00
1371, 573.00
1372, 573.00
1373, 572.00
1374, 572.00
1375, 572.00
1376, 571.00
1377, 571.00
1378, 570.00
1379, 570.00
1380, 570.00
1381, 570.00
1382, 569.00
1383, 569.00
1384, 569.00
1385, 569.00
1386, 568.00
1387, 568.00
1388, 568.00
1389, 567.00
1390, 567.00
1391, 567.00
1392, 568.00
1393, 567.00
1394, 567.00
1395, 566.00
1396, 566.00
1397, 566.00
1398, 566.00
1399, 566.00
1400, 566.00
1401, 566.00
1402, 565.00
1403, 566.00
1404, 566.00
1405, 565.00
1406, 565.00
1407, 565.00
1408, 565.00
1409, 565.00
1410, 565.00
1411, 565.00
1412, 565.00
1413, 565.00
1414, 564.00
1415, 565.00
1416, 565.00
1417, 565.00
1418, 564.00
1419, 565.00
1420, 565.00
1421, 565.00
1422, 564.00
1423, 565.00
1424, 565.00
1425, 564.00
1426, 565.00
1427, 564.00
1428, 565.00
1429, 565.00
1430, 565.00
1431, 565.00
1432, 565.00
1433, 565.00
1434, 566.00
1435, 565.00
1436, 565.00
1437, 565.00
1438, 566.00
1439, 565.00
1440, 566.00
1441, 566.00
1442, 566.00
1443, 566.00
1444, 566.00
1445, 566.00
1446, 566.00
1447, 567.00
1448, 567.00
1449, 567.00
1450, 567.00
1451, 568.00
1452, 568.00
1453, 568.00
1454, 568.00
1455, 568.00
1456, 568.00
1457, 568.00
1458, 569.00
1459, 568.00
1460, 569.00
1461, 569.00
1462, 569.00
1463, 569.00
1464, 570.00
1465, 570.00
1466, 570.00
1467, 570.00
1468, 570.00
1469, 570.00
1470, 571.00
1471, 571.00
1472, 572.00
1473, 572.00
1474, 572.00
1475, 572.00
1476, 573.00
1477, 573.00
1478, 574.00
1479, 574.00
1480, 574.00
1481, 574.00
1482, 574.00
1483, 575.00
1484, 576.00
1485, 576.00
1486, 576.00
1487, 576.00
1488, 577.00
1489, 577.00
1490, 578.00
1491, 577.00
1492, 578.00
1493, 578.00
1494, 579.00
1495, 578.00
1496, 579.00
1497, 580.00
1498, 580.00
1499, 580.00
1500, 580.00
1501, 581.00
1502, 581.00
1503, 581.00
1504, 582.00
1505, 582.00
1506, 582.00
1507, 583.00
1508, 583.00
1509, 584.00
1510, 584.00
1511, 585.00
1512, 585.00
1513, 586.00
1514, 586.00
1515, 586.00
1516, 586.00
1517, 587.00
1518, 587.00
1519, 588.00
1520, 588.00
1521, 588.00
1522, 588.00
1523, 589.00
1524, 589.00
1525, 589.00
1526, 590.00
1527, 590.00
1528, 592.00
1529, 592.00
1530, 592.00
1531, 592.00
1532, 593.00
1533, 594.00
1534, 594.00
1535, 594.00
1536, 594.00
1537, 595.00
1538, 595.00
1539, 596.00
1540, 596.00
1541, 596.00
1542, 597.00
1543, 598.00
1544, 598.00
1545, 598.00
1546, 599.00
1547, 599.00
1548, 600.00
1549, 600.00
1550, 601.00
1551, 600.00
1552, 601.00
1553, 601.00
1554, 602.00
1555, 602.00
1556, 603.00
1557, 603.00
1558, 603.00
1559, 604.00
1560, 605.00
1561, 605.00
1562, 606.00
1563, 606.00
1564, 606.00
1565, 607.00
1566, 607.00
1567, 608.00
1568, 608.00
1569, 609.00
1570, 609.00
1571, 610.00
1572, 610.00
1573, 610.00
1574, 611.00
1575, 612.00
1576, 612.00
1577, 613.00
1578, 613.00
1579, 614.00
1580, 614.00
1581, 614.00
1582, 614.00
1583, 615.00
1584, 616.00
1585, 616.00
1586, 616.00
1587, 616.00
1588, 617.00
1589, 617.00
1590, 618.00
1591, 618.00
1592, 618.00
1593, 619.00
1594, 620.00
1595, 620.00
1596, 621.00
1597, 621.00
1598, 621.00
1599, 622.00
1600, 622.00
1601, 623.00
1602, 623.00
1603, 624.00
1604, 624.00
1605, 624.00
1606, 625.00
1607, 625.00
1608, 626.00
1609, 626.00
1610, 627.00
1611, 627.00
1612, 628.00
1613, 628.00
1614, 628.00
1615, 629.00
1616, 629.00
1617, 631.00
1618, 631.00
1619, 631.00
1620, 632.00
1621, 632.00
1622, 633.00
1623, 633.00
1624, 634.00
1625, 635.00
1626, 635.00
1627, 636.00
1628, 636.00
1629, 637.00
1630, 637.00
1631, 637.00
1632, 638.00
1633, 639.00
1634, 639.00
1635, 640.00
1636, 640.00
1637, 640.00
1638, 640.00
1639, 641.00
1640, 642.00
1641, 642.00
1642, 642.00
1643, 642.00
1644, 643.00
1645, 643.00
1646, 644.00
1647, 645.00
1648, 645.00
1649, 645.00
1650, 646.00

1750, 796.00
1751, 795.00
1752, 796.00
1753, 795.00
1754, 795.00
1755, 795.00
1756, 795.00
1757, 795.00
1758, 795.00
1759, 795.00
1760, 795.00
1761, 795.00
1762, 795.00
1763, 795.00
1764, 794.00
1765, 795.00
1766, 795.00
1767, 794.00
1768, 794.00
1769, 795.00
1770, 794.00
1771, 794.00
1772, 794.00
1773, 794.00
1774, 794.00
1775, 794.00
1776, 793.00
1777, 794.00
1778, 793.00
1779, 793.00
1780, 792.00
1781, 794.00
1782, 793.00
1783, 792.00
1784, 793.00
1785, 792.00
1786, 792.00
1787, 792.00
1788, 792.00
1789, 791.00
1790, 791.00
1791, 791.00
1792, 791.00
1793, 790.00
1794, 791.00
1795, 791.00
1796, 791.00
1797, 790.00
1798, 790.00
1799, 790.00
1800, 790.00
1801, 789.00
1802, 789.00
1803, 789.00
1804, 789.00
1805, 789.00
1806, 789.00
1807, 789.00
1808, 789.00
1809, 788.00
1810, 788.00
1811, 788.00
1812, 787.00
1813, 787.00
1814, 787.00
1815, 787.00
1816, 786.00
1817, 787.00
1818, 786.00
1819, 786.00
1820, 786.00
1821, 785.00
1822, 785.00
1823, 785.00
1824, 784.00
1825, 784.00
1826, 784.00
1827, 782.00
1828, 782.00
1829, 782.00
1830, 782.00
1831, 781.00
1832, 781.00
1833, 780.00
1834, 779.00
1835, 779.00
1836, 779.00
1837, 778.00
1838, 777.00
1839, 777.00
1840, 776.00
1841, 775.00
1842, 775.00
1843, 774.00
1844, 773.00
1845, 772.00
1846, 772.00
1847, 771.00
1848, 770.00
1849, 769.00
1850, 768.00
1851, 767.00
1852, 767.00
1853, 766.00
1854, 765.00
1855, 765.00
1856, 764.00
1857, 763.00
1858, 762.00
1859, 762.00
1860, 761.00
1861, 760.00
1862, 759.00
1863, 759.00
1864, 759.00
1865, 758.00
1866, 757.00
1867, 756.00
1868, 756.00
1869, 755.00
1870, 756.00
1871, 755.00
1872, 754.00
1873, 754.00
1874, 753.00
1875, 753.00
1876, 753.00
1877, 752.00
1878, 752.00
1879, 751.00
1880, 751.00
1881, 751.00
1882, 751.00
1883, 751.00
1884, 751.00
1885, 751.00
1886, 750.00
1887, 750.00
1888, 750.00
1889, 749.00
1890, 749.00
1891, 749.00
1892, 749.00
1893, 748.00
1894, 749.00
1895, 749.00
1896, 749.00
1897, 748.00
1898, 748.00
1899, 748.00
1900, 748.00
1901, 748.00
1902, 748.00
1903, 748.00
1904, 747.00
1905, 747.00
1906, 747.00
1907, 747.00
1908, 747.00
1909, 747.00
1910, 747.00
1911, 747.00
1912, 748.00
1913, 747.00
1914, 747.00
1915, 747.00
1916, 746.00
1917, 746.00
1918, 747.00
1919, 746.00
1920, 747.00
1921, 746.00
1922, 746.00
1923, 746.00
1924, 746.00
1925, 746.00
1926, 746.00
1927, 746.00
1928, 747.00
1929, 746.00
1930, 746.00
1931, 747.00
1932, 747.00
1933, 746.00
1934, 747.00
1935, 746.00
1936, 747.00
1937, 747.00
1938, 747.00
1939, 747.00
1940, 746.00
1941, 747.00
1942, 746.00
1943, 747.00
1944, 747.00
1945, 747.00
1946, 747.00
1947, 747.00
1948, 747.00
1949, 747.00
1950, 747.00
1951, 748.00
1952, 747.00
1953, 748.00
1954, 748.00
1955, 748.00
1956, 748.00
1957, 748.00
1958, 749.00
1959, 748.00
1960, 749.00
1961, 748.00
1962, 749.00
1963, 749.00
1964, 749.00
1965, 749.00
1966, 749.00
1967, 749.00
1968, 749.00
1969, 750.00
1970, 750.00
1971, 750.00
1972, 750.00
1973, 750.00
1974, 751.00
1975, 751.00
1976, 751.00
1977, 751.00
1978, 751.00
1979, 751.00
1980, 751.00
1981, 751.00
1982, 751.00
1983, 751.00
1984, 752.00
1985, 752.00
1986, 753.00
1987, 753.00
1988, 752.00
1989, 753.00
1990, 753.00
1991, 753.00
1992, 753.00
1993, 753.00
1994, 754.00
1995, 754.00
1996, 754.00
1997, 754.00
1998, 754.00
1999, 755.00
2000, 755.00
2001, 756.00
2002, 755.00
2003, 755.00
2004, 755.00
2005, 756.00
2006, 755.00
2007, 757.00
2008, 756.00
2009, 756.00
2010, 757.00
2011, 757.00
2012, 756.00
2013, 757.00
2014, 757.00
2015, 758.00
2016, 757.00
2017, 758.00
2018, 758.00
2019, 757.00
2020, 758.00
2021, 758.00
2022, 758.00
2023, 758.00
2024, 759.00
2025, 759.00
2026, 759.00
2027, 759.00
2028, 759.00
2029, 759.00
2030, 760.00
2031, 760.00
2032, 760.00
2033, 760.00
2034, 761.00
2035, 761.00
2036, 762.00
2037, 761.00
2038, 761.00
2039, 762.00
2040, 762.00
2041, 763.00
2042, 763.00
2043, 762.00
2044, 763.00
2045, 763.00
2046, 764.00
2047, 764.00
2048, 763.00
2049, 764.00
2050, 765.00
2051, 764.00
2052, 764.00
2053, 765.00
2054, 765.00
2055, 766.00
2056, 766.00
2057, 766.00
2058, 766.00
2059, 767.00
2060, 767.00
2061, 767.00
2062, 768.00
2063, 767.00
2064, 768.00
2065, 768.00
2066, 769.00
2067, 769.00
2068, 770.00
2069, 769.00
2070, 769.00
2071, 770.00
2072, 770.00
2073, 770.00
2074, 771.00
2075, 771.00
2076, 771.00
2077, 772.00
2078, 772.00
2079, 772.00
2080, 772.00
2081, 773.00
2082, 773.00
2083, 772.00
2084, 773.00
2085, 773.00
2086, 773.00
2087, 774.00
2088, 773.00
2089, 774.00
2090, 775.00
2091, 774.00
2092, 775.00
2093, 775.00
2094, 775.00
2095, 776.00
2096, 775.00
2097, 776.00
2098, 776.00
2099, 776.00
2100, 776.00
2101, 776.00
2102, 777.00
2103, 776.00
2104, 777.00
2105, 777.00
2106, 777.00
2107, 777.00
2108, 777.00
2109, 777.00
2110, 777.00
2111, 778.00
2112, 778.00
2113, 778.00
2114, 778.00
2115, 778.00
2116, 779.00
2117, 779.00
2118, 779.00
2119, 779.00
2120, 779.00
2121, 779.00
2122, 779.00
2123, 780.00
2124, 779.00
2125, 779.00
2126, 780.00
2127, 779.00
2128, 780.00
2129, 780.00
2130, 780.00
2131, 781.00
2132, 781.00
2133, 781.00
2134, 780.00
2135, 781.00
2136, 781.00
2137, 781.00
2138, 781.00
2139, 781.00
2140, 781.00
2141, 781.00
2142, 781.00
2143, 781.00
2144, 782.00
2145, 782.00
2146, 781.00
2147, 782.00
2148, 782.00
2149, 782.00
2150, 782.00
