FW version: 24
Log Version: 3.0.3

General Info:
       Command/Macro Performed,            Timestamp,             Device ID, COM Port, UART/I2C, Test Name, Host Major, Host Minor, Host Revision, Host Git Commit
            Single_measurement,  2023_06_27_11_51_49,       Insight2_F4_xxx,    USB-C,      USB,          ,          0,          1,             1,      4031237645

Show Spectrometer Status:
l0_version, f4_version, battery_perc, battery_mVolt, accelerometer_temp, accelerometer_x, accelerometer_y, accelerometer_z, compass_temp, compass_x, compass_y, compass_z, lamp_0, lamp_1, gain_0, gain_1
        17,         24,           95,          2078,               5488,           65304,              56,           18536,            0,     65406,     65400,     65400,   3276,   3276,    1,    1

Temperature Statistic Info:
NTC AVG [°C], NTC2 AVG [°C]
      37.033,        36.750

Statistic Info:
M1:  num,      min,      max,   median,      AVG,      STD,M2:  num,      min,      max,   median,      AVG,      STD
     301,  1866.00,  2128.00,  1919.00,  1952.38,  80.9152,     401,  2438.00,  2601.00,  2506.00,  2510.07,  53.7835,

Measurements:
Wavelength, Data Amplitude
1350, 1915.00
1351, 1914.00
1352, 1913.00
1353, 1912.00
1354, 1910.00
1355, 1910.00
1356, 1910.00
1357, 1909.00
1358, 1910.00
1359, 1906.00
1360, 1906.00
1361, 1905.00
1362, 1905.00
1363, 1903.00
1364, 1902.00
1365, 1900.00
1366, 1900.00
1367, 1898.00
1368, 1896.00
1369, 1895.00
1370, 1895.00
1371, 1893.00
1372, 1892.00
1373, 1889.00
1374, 1889.00
1375, 1887.00
1376, 1887.00
1377, 1885.00
1378, 1884.00
1379, 1884.00
1380, 1883.00
1381, 1880.00
1382, 1880.00
1383, 1879.00
1384, 1879.00
1385, 1877.00
1386, 1876.00
1387, 1876.00
1388, 1875.00
1389, 1875.00
1390, 1876.00
1391, 1875.00
1392, 1873.00
1393, 1873.00
1394, 1872.00
1395, 1872.00
1396, 1872.00
1397, 1871.00
1398, 1871.00
1399, 1871.00
1400, 1870.00
1401, 1869.00
1402, 1871.00
1403, 1870.00
1404, 1869.00
1405, 1869.00
1406, 1869.00
1407, 1869.00
1408, 1867.00
1409, 1869.00
1410, 1869.00
1411, 1868.00
1412, 1869.00
1413, 1868.00
1414, 1867.00
1415, 1866.00
1416, 1867.00
1417, 1868.00
1418, 1867.00
1419, 1867.00
1420, 1866.00
1421, 1867.00
1422, 1866.00
1423, 1868.00
1424, 1867.00
1425, 1867.00
1426, 1867.00
1427, 1866.00
1428, 1867.00
1429, 1867.00
1430, 1867.00
1431, 1869.00
1432, 1869.00
1433, 1869.00
1434, 1869.00
1435, 1868.00
1436, 1870.00
1437, 1871.00
1438, 1872.00
1439, 1871.00
1440, 1872.00
1441, 1872.00
1442, 1872.00
1443, 1873.00
1444, 1874.00
1445, 1873.00
1446, 1873.00
1447, 1874.00
1448, 1875.00
1449, 1875.00
1450, 1877.00
1451, 1877.00
1452, 1878.00
1453, 1877.00
1454, 1878.00
1455, 1878.00
1456, 1879.00
1457, 1880.00
1458, 1881.00
1459, 1881.00
1460, 1881.00
1461, 1882.00
1462, 1883.00
1463, 1884.00
1464, 1885.00
1465, 1886.00
1466, 1886.00
1467, 1887.00
1468, 1888.00
1469, 1889.00
1470, 1890.00
1471, 1891.00
1472, 1891.00
1473, 1893.00
1474, 1893.00
1475, 1893.00
1476, 1896.00
1477, 1896.00
1478, 1897.00
1479, 1898.00
1480, 1899.00
1481, 1901.00
1482, 1901.00
1483, 1903.00
1484, 1904.00
1485, 1905.00
1486, 1905.00
1487, 1907.00
1488, 1907.00
1489, 1908.00
1490, 1910.00
1491, 1910.00
1492, 1913.00
1493, 1913.00
1494, 1914.00
1495, 1915.00
1496, 1917.00
1497, 1917.00
1498, 1919.00
1499, 1919.00
1500, 1919.00
1501, 1921.00
1502, 1923.00
1503, 1924.00
1504, 1925.00
1505, 1925.00
1506, 1926.00
1507, 1928.00
1508, 1929.00
1509, 1930.00
1510, 1931.00
1511, 1932.00
1512, 1934.00
1513, 1935.00
1514, 1936.00
1515, 1937.00
1516, 1938.00
1517, 1940.00
1518, 1942.00
1519, 1943.00
1520, 1943.00
1521, 1944.00
1522, 1947.00
1523, 1947.00
1524, 1948.00
1525, 1950.00
1526, 1952.00
1527, 1953.00
1528, 1954.00
1529, 1955.00
1530, 1956.00
1531, 1958.00
1532, 1959.00
1533, 1960.00
1534, 1962.00
1535, 1963.00
1536, 1964.00
1537, 1964.00
1538, 1967.00
1539, 1967.00
1540, 1969.00
1541, 1971.00
1542, 1972.00
1543, 1973.00
1544, 1975.00
1545, 1975.00
1546, 1977.00
1547, 1977.00
1548, 1978.00
1549, 1981.00
1550, 1982.00
1551, 1983.00
1552, 1985.00
1553, 1986.00
1554, 1987.00
1555, 1989.00
1556, 1990.00
1557, 1992.00
1558, 1993.00
1559, 1994.00
1560, 1997.00
1561, 1998.00
1562, 1999.00
1563, 2000.00
1564, 2002.00
1565, 2003.00
1566, 2005.00
1567, 2007.00
1568, 2008.00
1569, 2010.00
1570, 2012.00
1571, 2013.00
1572, 2013.00
1573, 2015.00
1574, 2018.00
1575, 2018.00
1576, 2020.00
1577, 2021.00
1578, 2023.00
1579, 2024.00
1580, 2025.00
1581, 2027.00
1582, 2028.00
1583, 2029.00
1584, 2030.00
1585, 2031.00
1586, 2033.00
1587, 2034.00
1588, 2037.00
1589, 2038.00
1590, 2039.00
1591, 2040.00
1592, 2040.00
1593, 2043.00
1594, 2043.00
1595, 2045.00
1596, 2046.00
1597, 2048.00
1598, 2049.00
1599, 2050.00
1600, 2052.00
1601, 2053.00
1602, 2054.00
1603, 2057.00
1604, 2058.00
1605, 2059.00
1606, 2059.00
1607, 2061.00
1608, 2063.00
1609, 2065.00
1610, 2067.00
1611, 2069.00
1612, 2070.00
1613, 2071.00
1614, 2074.00
1615, 2075.00
1616, 2075.00
1617, 2078.00
1618, 2080.00
1619, 2081.00
1620, 2083.00
1621, 2085.00
1622, 2086.00
1623, 2088.00
1624, 2090.00
1625, 2092.00
1626, 2093.00
1627, 2094.00
1628, 2096.00
1629, 2098.00
1630, 2100.00
1631, 2101.00
1632, 2103.00
1633, 2103.00
1634, 2105.00
1635, 2107.00
1636, 2108.00
1637, 2110.00
1638, 2111.00
1639, 2112.00
1640, 2113.00
1641, 2115.00
1642, 2115.00
1643, 2118.00
1644, 2120.00
1645, 2120.00
1646, 2120.00
1647, 2123.00
1648, 2125.00
1649, 2127.00
1650, 2128.00

1750, 2601.00
1751, 2601.00
1752, 2600.00
1753, 2601.00
1754, 2600.00
1755, 2601.00
1756, 2600.00
1757, 2600.00
1758, 2600.00
1759, 2599.00
1760, 2600.00
1761, 2601.00
1762, 2599.00
1763, 2600.00
1764, 2600.00
1765, 2601.00
1766, 2598.00
1767, 2598.00
1768, 2598.00
1769, 2597.00
1770, 2598.00
1771, 2597.00
1772, 2598.00
1773, 2597.00
1774, 2597.00
1775, 2595.00
1776, 2595.00
1777, 2596.00
1778, 2596.00
1779, 2594.00
1780, 2593.00
1781, 2593.00
1782, 2593.00
1783, 2592.00
1784, 2592.00
1785, 2594.00
1786, 2590.00
1787, 2590.00
1788, 2591.00
1789, 2589.00
1790, 2588.00
1791, 2588.00
1792, 2588.00
1793, 2587.00
1794, 2585.00
1795, 2585.00
1796, 2584.00
1797, 2585.00
1798, 2586.00
1799, 2582.00
1800, 2585.00
1801, 2583.00
1802, 2582.00
1803, 2580.00
1804, 2582.00
1805, 2581.00
1806, 2580.00
1807, 2581.00
1808, 2578.00
1809, 2579.00
1810, 2577.00
1811, 2577.00
1812, 2577.00
1813, 2576.00
1814, 2576.00
1815, 2576.00
1816, 2572.00
1817, 2573.00
1818, 2569.00
1819, 2572.00
1820, 2569.00
1821, 2570.00
1822, 2568.00
1823, 2567.00
1824, 2566.00
1825, 2565.00
1826, 2563.00
1827, 2562.00
1828, 2561.00
1829, 2559.00
1830, 2559.00
1831, 2555.00
1832, 2554.00
1833, 2553.00
1834, 2551.00
1835, 2548.00
1836, 2545.00
1837, 2546.00
1838, 2544.00
1839, 2541.00
1840, 2538.00
1841, 2536.00
1842, 2536.00
1843, 2530.00
1844, 2529.00
1845, 2527.00
1846, 2526.00
1847, 2522.00
1848, 2521.00
1849, 2516.00
1850, 2512.00
1851, 2510.00
1852, 2507.00
1853, 2506.00
1854, 2503.00
1855, 2500.00
1856, 2499.00
1857, 2498.00
1858, 2494.00
1859, 2491.00
1860, 2490.00
1861, 2485.00
1862, 2485.00
1863, 2482.00
1864, 2481.00
1865, 2478.00
1866, 2475.00
1867, 2472.00
1868, 2473.00
1869, 2471.00
1870, 2471.00
1871, 2469.00
1872, 2466.00
1873, 2465.00
1874, 2463.00
1875, 2462.00
1876, 2459.00
1877, 2460.00
1878, 2459.00
1879, 2459.00
1880, 2457.00
1881, 2456.00
1882, 2456.00
1883, 2454.00
1884, 2454.00
1885, 2453.00
1886, 2453.00
1887, 2452.00
1888, 2450.00
1889, 2451.00
1890, 2451.00
1891, 2452.00
1892, 2447.00
1893, 2448.00
1894, 2446.00
1895, 2447.00
1896, 2445.00
1897, 2446.00
1898, 2446.00
1899, 2446.00
1900, 2447.00
1901, 2442.00
1902, 2443.00
1903, 2443.00
1904, 2441.00
1905, 2442.00
1906, 2443.00
1907, 2442.00
1908, 2441.00
1909, 2440.00
1910, 2441.00
1911, 2440.00
1912, 2441.00
1913, 2440.00
1914, 2439.00
1915, 2442.00
1916, 2439.00
1917, 2442.00
1918, 2440.00
1919, 2440.00
1920, 2439.00
1921, 2439.00
1922, 2439.00
1923, 2441.00
1924, 2438.00
1925, 2440.00
1926, 2439.00
1927, 2439.00
1928, 2438.00
1929, 2440.00
1930, 2440.00
1931, 2440.00
1932, 2440.00
1933, 2439.00
1934, 2440.00
1935, 2439.00
1936, 2439.00
1937, 2441.00
1938, 2440.00
1939, 2441.00
1940, 2441.00
1941, 2438.00
1942, 2441.00
1943, 2440.00
1944, 2443.00
1945, 2441.00
1946, 2442.00
1947, 2442.00
1948, 2442.00
1949, 2443.00
1950, 2441.00
1951, 2442.00
1952, 2444.00
1953, 2442.00
1954, 2444.00
1955, 2445.00
1956, 2444.00
1957, 2447.00
1958, 2444.00
1959, 2445.00
1960, 2447.00
1961, 2449.00
1962, 2446.00
1963, 2446.00
1964, 2448.00
1965, 2448.00
1966, 2449.00
1967, 2450.00
1968, 2450.00
1969, 2451.00
1970, 2451.00
1971, 2451.00
1972, 2453.00
1973, 2454.00
1974, 2453.00
1975, 2455.00
1976, 2455.00
1977, 2454.00
1978, 2455.00
1979, 2458.00
1980, 2457.00
1981, 2457.00
1982, 2459.00
1983, 2459.00
1984, 2460.00
1985, 2461.00
1986, 2461.00
1987, 2460.00
1988, 2460.00
1989, 2463.00
1990, 2462.00
1991, 2465.00
1992, 2463.00
1993, 2465.00
1994, 2465.00
1995, 2467.00
1996, 2468.00
1997, 2469.00
1998, 2468.00
1999, 2468.00
2000, 2467.00
2001, 2470.00
2002, 2470.00
2003, 2471.00
2004, 2470.00
2005, 2471.00
2006, 2473.00
2007, 2472.00
2008, 2473.00
2009, 2475.00
2010, 2475.00
2011, 2475.00
2012, 2476.00
2013, 2477.00
2014, 2477.00
2015, 2479.00
2016, 2479.00
2017, 2479.00
2018, 2479.00
2019, 2479.00
2020, 2481.00
2021, 2482.00
2022, 2481.00
2023, 2483.00
2024, 2483.00
2025, 2483.00
2026, 2484.00
2027, 2485.00
2028, 2485.00
2029, 2487.00
2030, 2487.00
2031, 2487.00
2032, 2487.00
2033, 2489.00
2034, 2491.00
2035, 2491.00
2036, 2489.00
2037, 2493.00
2038, 2493.00
2039, 2493.00
2040, 2493.00
2041, 2494.00
2042, 2495.00
2043, 2497.00
2044, 2497.00
2045, 2499.00
2046, 2500.00
2047, 2500.00
2048, 2502.00
2049, 2503.00
2050, 2503.00
2051, 2503.00
2052, 2504.00
2053, 2505.00
2054, 2506.00
2055, 2507.00
2056, 2508.00
2057, 2510.00
2058, 2511.00
2059, 2509.00
2060, 2513.00
2061, 2514.00
2062, 2513.00
2063, 2515.00
2064, 2516.00
2065, 2515.00
2066, 2519.00
2067, 2518.00
2068, 2519.00
2069, 2520.00
2070, 2521.00
2071, 2523.00
2072, 2522.00
2073, 2523.00
2074, 2524.00
2075, 2527.00
2076, 2527.00
2077, 2524.00
2078, 2529.00
2079, 2527.00
2080, 2530.00
2081, 2530.00
2082, 2531.00
2083, 2530.00
2084, 2534.00
2085, 2534.00
2086, 2533.00
2087, 2536.00
2088, 2536.00
2089, 2537.00
2090, 2537.00
2091, 2539.00
2092, 2538.00
2093, 2538.00
2094, 2540.00
2095, 2541.00
2096, 2541.00
2097, 2541.00
2098, 2543.00
2099, 2543.00
2100, 2542.00
2101, 2545.00
2102, 2545.00
2103, 2543.00
2104, 2544.00
2105, 2545.00
2106, 2545.00
2107, 2545.00
2108, 2548.00
2109, 2546.00
2110, 2548.00
2111, 2549.00
2112, 2549.00
2113, 2550.00
2114, 2550.00
2115, 2551.00
2116, 2550.00
2117, 2551.00
2118, 2552.00
2119, 2551.00
2120, 2552.00
2121, 2552.00
2122, 2552.00
2123, 2553.00
2124, 2553.00
2125, 2554.00
2126, 2553.00
2127, 2553.00
2128, 2554.00
2129, 2557.00
2130, 2554.00
2131, 2555.00
2132, 2556.00
2133, 2557.00
2134, 2556.00
2135, 2558.00
2136, 2557.00
2137, 2559.00
2138, 2559.00
2139, 2558.00
2140, 2557.00
2141, 2559.00
2142, 2560.00
2143, 2559.00
2144, 2561.00
2145, 2560.00
2146, 2560.00
2147, 2559.00
2148, 2561.00
2149, 2561.00
2150, 2561.00
