FW version: 24
Log Version: 3.0.3

General Info:
       Command/Macro Performed,            Timestamp,             Device ID, COM Port, UART/I2C, Test Name, Host Major, Host Minor, Host Revision, Host Git Commit
            Single_measurement,  2023_06_27_11_51_07,       Insight2_F4_xxx,    USB-C,      USB,          ,          0,          1,             1,      4031237645

Show Spectrometer Status:
l0_version, f4_version, battery_perc, battery_mVolt, accelerometer_temp, accelerometer_x, accelerometer_y, accelerometer_z, compass_temp, compass_x, compass_y, compass_z, lamp_0, lamp_1, gain_0, gain_1
        17,         24,           95,          2079,               5440,           65300,              44,           18456,            0,     65404,     65407,     65404,   2047,   2047,    1,    1

Temperature Statistic Info:
NTC AVG [°C], NTC2 AVG [°C]
      36.523,        36.265

Statistic Info:
M1:  num,      min,      max,   median,      AVG,      STD,M2:  num,      min,      max,   median,      AVG,      STD
     301,   745.00,   866.00,   772.00,   785.44,  36.8264,     401,  1107.00,  1182.00,  1141.00,  1141.96,  25.0331,

Measurements:
Wavelength, Data Amplitude
1350, 762.00
1351, 764.00
1352, 763.00
1353, 761.00
1354, 762.00
1355, 762.00
1356, 762.00
1357, 761.00
1358, 761.00
1359, 761.00
1360, 760.00
1361, 759.00
1362, 759.00
1363, 759.00
1364, 758.00
1365, 759.00
1366, 758.00
1367, 757.00
1368, 757.00
1369, 758.00
1370, 756.00
1371, 755.00
1372, 755.00
1373, 754.00
1374, 754.00
1375, 754.00
1376, 752.00
1377, 753.00
1378, 753.00
1379, 752.00
1380, 752.00
1381, 751.00
1382, 751.00
1383, 750.00
1384, 751.00
1385, 750.00
1386, 750.00
1387, 749.00
1388, 750.00
1389, 749.00
1390, 749.00
1391, 749.00
1392, 749.00
1393, 749.00
1394, 748.00
1395, 748.00
1396, 748.00
1397, 748.00
1398, 748.00
1399, 748.00
1400, 748.00
1401, 747.00
1402, 747.00
1403, 747.00
1404, 748.00
1405, 747.00
1406, 747.00
1407, 747.00
1408, 747.00
1409, 745.00
1410, 747.00
1411, 747.00
1412, 747.00
1413, 746.00
1414, 747.00
1415, 747.00
1416, 746.00
1417, 747.00
1418, 746.00
1419, 747.00
1420, 747.00
1421, 747.00
1422, 747.00
1423, 747.00
1424, 747.00
1425, 747.00
1426, 747.00
1427, 747.00
1428, 747.00
1429, 747.00
1430, 748.00
1431, 748.00
1432, 749.00
1433, 748.00
1434, 749.00
1435, 748.00
1436, 748.00
1437, 749.00
1438, 749.00
1439, 750.00
1440, 750.00
1441, 750.00
1442, 750.00
1443, 750.00
1444, 749.00
1445, 749.00
1446, 750.00
1447, 751.00
1448, 751.00
1449, 752.00
1450, 752.00
1451, 752.00
1452, 752.00
1453, 753.00
1454, 753.00
1455, 752.00
1456, 752.00
1457, 754.00
1458, 753.00
1459, 754.00
1460, 754.00
1461, 755.00
1462, 755.00
1463, 756.00
1464, 755.00
1465, 756.00
1466, 757.00
1467, 756.00
1468, 757.00
1469, 757.00
1470, 758.00
1471, 758.00
1472, 759.00
1473, 758.00
1474, 759.00
1475, 760.00
1476, 760.00
1477, 761.00
1478, 761.00
1479, 762.00
1480, 762.00
1481, 763.00
1482, 763.00
1483, 764.00
1484, 765.00
1485, 765.00
1486, 766.00
1487, 766.00
1488, 768.00
1489, 766.00
1490, 767.00
1491, 768.00
1492, 768.00
1493, 768.00
1494, 769.00
1495, 769.00
1496, 771.00
1497, 771.00
1498, 770.00
1499, 772.00
1500, 772.00
1501, 773.00
1502, 773.00
1503, 774.00
1504, 775.00
1505, 775.00
1506, 776.00
1507, 776.00
1508, 776.00
1509, 777.00
1510, 778.00
1511, 779.00
1512, 779.00
1513, 779.00
1514, 781.00
1515, 781.00
1516, 781.00
1517, 782.00
1518, 782.00
1519, 783.00
1520, 783.00
1521, 783.00
1522, 784.00
1523, 784.00
1524, 785.00
1525, 786.00
1526, 787.00
1527, 788.00
1528, 788.00
1529, 789.00
1530, 789.00
1531, 789.00
1532, 791.00
1533, 791.00
1534, 791.00
1535, 792.00
1536, 792.00
1537, 793.00
1538, 794.00
1539, 794.00
1540, 794.00
1541, 796.00
1542, 796.00
1543, 796.00
1544, 796.00
1545, 797.00
1546, 797.00
1547, 798.00
1548, 800.00
1549, 800.00
1550, 800.00
1551, 800.00
1552, 801.00
1553, 802.00
1554, 802.00
1555, 804.00
1556, 803.00
1557, 804.00
1558, 805.00
1559, 805.00
1560, 806.00
1561, 807.00
1562, 806.00
1563, 807.00
1564, 808.00
1565, 810.00
1566, 809.00
1567, 810.00
1568, 811.00
1569, 812.00
1570, 812.00
1571, 813.00
1572, 813.00
1573, 814.00
1574, 814.00
1575, 814.00
1576, 815.00
1577, 817.00
1578, 817.00
1579, 818.00
1580, 818.00
1581, 819.00
1582, 819.00
1583, 821.00
1584, 820.00
1585, 821.00
1586, 822.00
1587, 823.00
1588, 823.00
1589, 823.00
1590, 824.00
1591, 825.00
1592, 825.00
1593, 825.00
1594, 827.00
1595, 827.00
1596, 828.00
1597, 828.00
1598, 828.00
1599, 830.00
1600, 830.00
1601, 832.00
1602, 832.00
1603, 832.00
1604, 833.00
1605, 834.00
1606, 835.00
1607, 835.00
1608, 835.00
1609, 836.00
1610, 838.00
1611, 838.00
1612, 839.00
1613, 838.00
1614, 841.00
1615, 841.00
1616, 841.00
1617, 842.00
1618, 843.00
1619, 843.00
1620, 844.00
1621, 846.00
1622, 846.00
1623, 846.00
1624, 847.00
1625, 848.00
1626, 849.00
1627, 850.00
1628, 851.00
1629, 851.00
1630, 851.00
1631, 853.00
1632, 853.00
1633, 854.00
1634, 855.00
1635, 855.00
1636, 856.00
1637, 857.00
1638, 857.00
1639, 858.00
1640, 858.00
1641, 859.00
1642, 860.00
1643, 861.00
1644, 861.00
1645, 861.00
1646, 862.00
1647, 863.00
1648, 863.00
1649, 863.00
1650, 866.00

1750, 1179.00
1751, 1182.00
1752, 1179.00
1753, 1180.00
1754, 1181.00
1755, 1181.00
1756, 1180.00
1757, 1181.00
1758, 1180.00
1759, 1179.00
1760, 1179.00
1761, 1180.00
1762, 1181.00
1763, 1181.00
1764, 1182.00
1765, 1182.00
1766, 1181.00
1767, 1180.00
1768, 1180.00
1769, 1180.00
1770, 1179.00
1771, 1180.00
1772, 1179.00
1773, 1181.00
1774, 1177.00
1775, 1181.00
1776, 1179.00
1777, 1179.00
1778, 1180.00
1779, 1179.00
1780, 1179.00
1781, 1178.00
1782, 1176.00
1783, 1178.00
1784, 1176.00
1785, 1177.00
1786, 1176.00
1787, 1177.00
1788, 1176.00
1789, 1175.00
1790, 1176.00
1791, 1175.00
1792, 1177.00
1793, 1175.00
1794, 1175.00
1795, 1176.00
1796, 1176.00
1797, 1175.00
1798, 1174.00
1799, 1175.00
1800, 1173.00
1801, 1174.00
1802, 1174.00
1803, 1174.00
1804, 1172.00
1805, 1173.00
1806, 1173.00
1807, 1172.00
1808, 1173.00
1809, 1171.00
1810, 1172.00
1811, 1171.00
1812, 1170.00
1813, 1172.00
1814, 1171.00
1815, 1170.00
1816, 1170.00
1817, 1171.00
1818, 1169.00
1819, 1170.00
1820, 1168.00
1821, 1169.00
1822, 1167.00
1823, 1168.00
1824, 1165.00
1825, 1165.00
1826, 1166.00
1827, 1165.00
1828, 1166.00
1829, 1165.00
1830, 1164.00
1831, 1161.00
1832, 1161.00
1833, 1161.00
1834, 1159.00
1835, 1158.00
1836, 1159.00
1837, 1157.00
1838, 1157.00
1839, 1155.00
1840, 1155.00
1841, 1153.00
1842, 1152.00
1843, 1150.00
1844, 1150.00
1845, 1149.00
1846, 1149.00
1847, 1147.00
1848, 1146.00
1849, 1143.00
1850, 1143.00
1851, 1142.00
1852, 1141.00
1853, 1139.00
1854, 1139.00
1855, 1137.00
1856, 1136.00
1857, 1134.00
1858, 1134.00
1859, 1133.00
1860, 1131.00
1861, 1130.00
1862, 1129.00
1863, 1129.00
1864, 1128.00
1865, 1125.00
1866, 1125.00
1867, 1125.00
1868, 1125.00
1869, 1124.00
1870, 1123.00
1871, 1123.00
1872, 1120.00
1873, 1120.00
1874, 1120.00
1875, 1118.00
1876, 1119.00
1877, 1118.00
1878, 1117.00
1879, 1116.00
1880, 1117.00
1881, 1117.00
1882, 1114.00
1883, 1115.00
1884, 1114.00
1885, 1114.00
1886, 1114.00
1887, 1114.00
1888, 1114.00
1889, 1112.00
1890, 1112.00
1891, 1114.00
1892, 1111.00
1893, 1112.00
1894, 1113.00
1895, 1111.00
1896, 1113.00
1897, 1112.00
1898, 1111.00
1899, 1110.00
1900, 1108.00
1901, 1110.00
1902, 1111.00
1903, 1110.00
1904, 1109.00
1905, 1110.00
1906, 1109.00
1907, 1110.00
1908, 1109.00
1909, 1110.00
1910, 1109.00
1911, 1109.00
1912, 1108.00
1913, 1109.00
1914, 1110.00
1915, 1108.00
1916, 1108.00
1917, 1108.00
1918, 1109.00
1919, 1107.00
1920, 1107.00
1921, 1109.00
1922, 1109.00
1923, 1107.00
1924, 1109.00
1925, 1109.00
1926, 1107.00
1927, 1108.00
1928, 1107.00
1929, 1108.00
1930, 1109.00
1931, 1108.00
1932, 1108.00
1933, 1108.00
1934, 1108.00
1935, 1108.00
1936, 1110.00
1937, 1109.00
1938, 1109.00
1939, 1108.00
1940, 1108.00
1941, 1109.00
1942, 1109.00
1943, 1109.00
1944, 1109.00
1945, 1109.00
1946, 1111.00
1947, 1111.00
1948, 1110.00
1949, 1111.00
1950, 1110.00
1951, 1110.00
1952, 1112.00
1953, 1112.00
1954, 1111.00
1955, 1111.00
1956, 1112.00
1957, 1112.00
1958, 1111.00
1959, 1111.00
1960, 1112.00
1961, 1114.00
1962, 1113.00
1963, 1113.00
1964, 1113.00
1965, 1113.00
1966, 1114.00
1967, 1113.00
1968, 1114.00
1969, 1115.00
1970, 1114.00
1971, 1115.00
1972, 1116.00
1973, 1115.00
1974, 1116.00
1975, 1116.00
1976, 1115.00
1977, 1116.00
1978, 1116.00
1979, 1117.00
1980, 1118.00
1981, 1117.00
1982, 1117.00
1983, 1116.00
1984, 1118.00
1985, 1119.00
1986, 1118.00
1987, 1119.00
1988, 1120.00
1989, 1119.00
1990, 1119.00
1991, 1119.00
1992, 1120.00
1993, 1119.00
1994, 1122.00
1995, 1122.00
1996, 1121.00
1997, 1121.00
1998, 1124.00
1999, 1122.00
2000, 1123.00
2001, 1123.00
2002, 1124.00
2003, 1123.00
2004, 1125.00
2005, 1124.00
2006, 1124.00
2007, 1125.00
2008, 1125.00
2009, 1125.00
2010, 1126.00
2011, 1127.00
2012, 1125.00
2013, 1127.00
2014, 1127.00
2015, 1127.00
2016, 1128.00
2017, 1128.00
2018, 1128.00
2019, 1128.00
2020, 1129.00
2021, 1129.00
2022, 1130.00
2023, 1129.00
2024, 1130.00
2025, 1129.00
2026, 1130.00
2027, 1130.00
2028, 1130.00
2029, 1133.00
2030, 1133.00
2031, 1132.00
2032, 1132.00
2033, 1132.00
2034, 1134.00
2035, 1133.00
2036, 1134.00
2037, 1134.00
2038, 1135.00
2039, 1134.00
2040, 1136.00
2041, 1135.00
2042, 1137.00
2043, 1136.00
2044, 1138.00
2045, 1136.00
2046, 1138.00
2047, 1137.00
2048, 1138.00
2049, 1138.00
2050, 1140.00
2051, 1139.00
2052, 1141.00
2053, 1141.00
2054, 1142.00
2055, 1143.00
2056, 1142.00
2057, 1142.00
2058, 1143.00
2059, 1143.00
2060, 1145.00
2061, 1146.00
2062, 1145.00
2063, 1146.00
2064, 1147.00
2065, 1147.00
2066, 1145.00
2067, 1146.00
2068, 1150.00
2069, 1149.00
2070, 1148.00
2071, 1149.00
2072, 1150.00
2073, 1149.00
2074, 1151.00
2075, 1151.00
2076, 1151.00
2077, 1152.00
2078, 1152.00
2079, 1151.00
2080, 1154.00
2081, 1154.00
2082, 1153.00
2083, 1154.00
2084, 1155.00
2085, 1156.00
2086, 1157.00
2087, 1155.00
2088, 1155.00
2089, 1157.00
2090, 1158.00
2091, 1158.00
2092, 1158.00
2093, 1157.00
2094, 1157.00
2095, 1159.00
2096, 1160.00
2097, 1158.00
2098, 1159.00
2099, 1159.00
2100, 1160.00
2101, 1161.00
2102, 1160.00
2103, 1160.00
2104, 1161.00
2105, 1161.00
2106, 1163.00
2107, 1161.00
2108, 1163.00
2109, 1163.00
2110, 1163.00
2111, 1163.00
2112, 1162.00
2113, 1163.00
2114, 1164.00
2115, 1163.00
2116, 1165.00
2117, 1164.00
2118, 1164.00
2119, 1164.00
2120, 1167.00
2121, 1165.00
2122, 1166.00
2123, 1165.00
2124, 1165.00
2125, 1165.00
2126, 1167.00
2127, 1166.00
2128, 1168.00
2129, 1166.00
2130, 1166.00
2131, 1166.00
2132, 1168.00
2133, 1168.00
2134, 1167.00
2135, 1169.00
2136, 1168.00
2137, 1167.00
2138, 1169.00
2139, 1169.00
2140, 1168.00
2141, 1168.00
2142, 1169.00
2143, 1169.00
2144, 1168.00
2145, 1170.00
2146, 1169.00
2147, 1170.00
2148, 1171.00
2149, 1170.00
2150, 1169.00
