FW version: 24
Log Version: 3.0.3

General Info:
       Command/Macro Performed,            Timestamp,             Device ID, COM Port, UART/I2C, Test Name, Host Major, Host Minor, Host Revision, Host Git Commit
            Single_measurement,  2023_07_04_11_44_45,       Insight2_F4_xxx,    USB-C,      USB,          ,          0,          1,             1,      4031237645

Show Spectrometer Status:
l0_version, f4_version, battery_perc, battery_mVolt, accelerometer_temp, accelerometer_x, accelerometer_y, accelerometer_z, compass_temp, compass_x, compass_y, compass_z, lamp_0, lamp_1, gain_0, gain_1
        17,         24,           33,          1889,               6256,           65312,            2452,           19072,            0,     65383,     65462,     19148,   3276,   3276,      0,      0

Temperature Statistic Info:
NTC AVG [°C], NTC2 AVG [°C]
      38.825,        38.537

Statistic Info:
M1:  num,      min,      max,   median,      AVG,      STD,M2:  num,      min,      max,   median,      AVG,      STD
     301,   700.00,   794.00,   721.00,   731.33,  29.5179,     401,   965.00,  1024.00,   995.00,   994.32,  19.7447,

Measurements:
Wavelength, Data Amplitude
1350, 712.00
1351, 713.00
1352, 712.00
1353, 712.00
1354, 712.00
1355, 712.00
1356, 712.00
1357, 712.00
1358, 711.00
1359, 711.00
1360, 710.00
1361, 710.00
1362, 710.00
1363, 710.00
1364, 709.00
1365, 709.00
1366, 709.00
1367, 708.00
1368, 708.00
1369, 708.00
1370, 707.00
1371, 707.00
1372, 706.00
1373, 706.00
1374, 706.00
1375, 705.00
1376, 705.00
1377, 705.00
1378, 705.00
1379, 704.00
1380, 705.00
1381, 704.00
1382, 703.00
1383, 703.00
1384, 703.00
1385, 703.00
1386, 702.00
1387, 703.00
1388, 702.00
1389, 702.00
1390, 701.00
1391, 702.00
1392, 702.00
1393, 701.00
1394, 702.00
1395, 701.00
1396, 701.00
1397, 701.00
1398, 701.00
1399, 701.00
1400, 701.00
1401, 701.00
1402, 700.00
1403, 701.00
1404, 700.00
1405, 701.00
1406, 700.00
1407, 701.00
1408, 700.00
1409, 700.00
1410, 701.00
1411, 700.00
1412, 701.00
1413, 700.00
1414, 700.00
1415, 700.00
1416, 700.00
1417, 700.00
1418, 700.00
1419, 700.00
1420, 700.00
1421, 700.00
1422, 700.00
1423, 700.00
1424, 701.00
1425, 701.00
1426, 700.00
1427, 700.00
1428, 701.00
1429, 700.00
1430, 701.00
1431, 701.00
1432, 701.00
1433, 702.00
1434, 702.00
1435, 701.00
1436, 701.00
1437, 702.00
1438, 702.00
1439, 702.00
1440, 703.00
1441, 702.00
1442, 702.00
1443, 703.00
1444, 703.00
1445, 703.00
1446, 704.00
1447, 703.00
1448, 704.00
1449, 704.00
1450, 704.00
1451, 704.00
1452, 705.00
1453, 705.00
1454, 706.00
1455, 705.00
1456, 706.00
1457, 706.00
1458, 706.00
1459, 707.00
1460, 707.00
1461, 707.00
1462, 707.00
1463, 708.00
1464, 708.00
1465, 709.00
1466, 708.00
1467, 709.00
1468, 710.00
1469, 710.00
1470, 710.00
1471, 709.00
1472, 711.00
1473, 711.00
1474, 711.00
1475, 712.00
1476, 712.00
1477, 713.00
1478, 712.00
1479, 713.00
1480, 713.00
1481, 714.00
1482, 714.00
1483, 714.00
1484, 715.00
1485, 715.00
1486, 716.00
1487, 716.00
1488, 717.00
1489, 717.00
1490, 717.00
1491, 718.00
1492, 718.00
1493, 718.00
1494, 719.00
1495, 719.00
1496, 720.00
1497, 720.00
1498, 720.00
1499, 721.00
1500, 721.00
1501, 722.00
1502, 721.00
1503, 722.00
1504, 722.00
1505, 723.00
1506, 724.00
1507, 724.00
1508, 724.00
1509, 725.00
1510, 725.00
1511, 725.00
1512, 726.00
1513, 726.00
1514, 727.00
1515, 727.00
1516, 727.00
1517, 728.00
1518, 729.00
1519, 729.00
1520, 729.00
1521, 730.00
1522, 730.00
1523, 731.00
1524, 731.00
1525, 732.00
1526, 732.00
1527, 732.00
1528, 733.00
1529, 734.00
1530, 733.00
1531, 734.00
1532, 735.00
1533, 735.00
1534, 736.00
1535, 736.00
1536, 737.00
1537, 737.00
1538, 737.00
1539, 738.00
1540, 738.00
1541, 739.00
1542, 739.00
1543, 740.00
1544, 740.00
1545, 741.00
1546, 741.00
1547, 742.00
1548, 742.00
1549, 742.00
1550, 743.00
1551, 743.00
1552, 744.00
1553, 745.00
1554, 745.00
1555, 745.00
1556, 746.00
1557, 746.00
1558, 747.00
1559, 748.00
1560, 748.00
1561, 748.00
1562, 749.00
1563, 750.00
1564, 750.00
1565, 750.00
1566, 751.00
1567, 752.00
1568, 753.00
1569, 753.00
1570, 753.00
1571, 754.00
1572, 754.00
1573, 754.00
1574, 755.00
1575, 756.00
1576, 756.00
1577, 757.00
1578, 758.00
1579, 758.00
1580, 759.00
1581, 759.00
1582, 759.00
1583, 759.00
1584, 760.00
1585, 760.00
1586, 761.00
1587, 761.00
1588, 762.00
1589, 762.00
1590, 763.00
1591, 763.00
1592, 763.00
1593, 764.00
1594, 764.00
1595, 765.00
1596, 765.00
1597, 766.00
1598, 766.00
1599, 767.00
1600, 767.00
1601, 768.00
1602, 768.00
1603, 769.00
1604, 770.00
1605, 770.00
1606, 770.00
1607, 771.00
1608, 771.00
1609, 772.00
1610, 773.00
1611, 773.00
1612, 774.00
1613, 775.00
1614, 775.00
1615, 775.00
1616, 776.00
1617, 777.00
1618, 777.00
1619, 778.00
1620, 779.00
1621, 779.00
1622, 780.00
1623, 780.00
1624, 781.00
1625, 782.00
1626, 782.00
1627, 783.00
1628, 784.00
1629, 784.00
1630, 784.00
1631, 785.00
1632, 785.00
1633, 786.00
1634, 786.00
1635, 787.00
1636, 787.00
1637, 788.00
1638, 789.00
1639, 789.00
1640, 790.00
1641, 790.00
1642, 791.00
1643, 791.00
1644, 791.00
1645, 792.00
1646, 792.00
1647, 793.00
1648, 793.00
1649, 794.00
1650, 794.00

1750, 1024.00
1751, 1024.00
1752, 1024.00
1753, 1023.00
1754, 1024.00
1755, 1023.00
1756, 1023.00
1757, 1024.00
1758, 1024.00
1759, 1023.00
1760, 1024.00
1761, 1024.00
1762, 1023.00
1763, 1024.00
1764, 1023.00
1765, 1023.00
1766, 1022.00
1767, 1023.00
1768, 1022.00
1769, 1022.00
1770, 1023.00
1771, 1022.00
1772, 1023.00
1773, 1021.00
1774, 1022.00
1775, 1022.00
1776, 1022.00
1777, 1021.00
1778, 1021.00
1779, 1020.00
1780, 1021.00
1781, 1020.00
1782, 1019.00
1783, 1019.00
1784, 1019.00
1785, 1019.00
1786, 1019.00
1787, 1019.00
1788, 1019.00
1789, 1019.00
1790, 1019.00
1791, 1018.00
1792, 1018.00
1793, 1019.00
1794, 1018.00
1795, 1017.00
1796, 1018.00
1797, 1017.00
1798, 1018.00
1799, 1017.00
1800, 1017.00
1801, 1017.00
1802, 1016.00
1803, 1017.00
1804, 1017.00
1805, 1016.00
1806, 1016.00
1807, 1016.00
1808, 1016.00
1809, 1015.00
1810, 1015.00
1811, 1015.00
1812, 1015.00
1813, 1016.00
1814, 1015.00
1815, 1015.00
1816, 1015.00
1817, 1014.00
1818, 1014.00
1819, 1014.00
1820, 1013.00
1821, 1013.00
1822, 1014.00
1823, 1012.00
1824, 1012.00
1825, 1011.00
1826, 1012.00
1827, 1011.00
1828, 1011.00
1829, 1010.00
1830, 1009.00
1831, 1010.00
1832, 1009.00
1833, 1009.00
1834, 1008.00
1835, 1007.00
1836, 1007.00
1837, 1006.00
1838, 1005.00
1839, 1005.00
1840, 1004.00
1841, 1003.00
1842, 1003.00
1843, 1002.00
1844, 1001.00
1845, 1000.00
1846, 999.00
1847, 998.00
1848, 998.00
1849, 996.00
1850, 995.00
1851, 995.00
1852, 994.00
1853, 992.00
1854, 991.00
1855, 990.00
1856, 989.00
1857, 989.00
1858, 988.00
1859, 987.00
1860, 986.00
1861, 985.00
1862, 984.00
1863, 983.00
1864, 982.00
1865, 981.00
1866, 981.00
1867, 980.00
1868, 979.00
1869, 979.00
1870, 978.00
1871, 977.00
1872, 977.00
1873, 976.00
1874, 976.00
1875, 975.00
1876, 975.00
1877, 975.00
1878, 974.00
1879, 974.00
1880, 973.00
1881, 972.00
1882, 972.00
1883, 972.00
1884, 972.00
1885, 971.00
1886, 970.00
1887, 970.00
1888, 970.00
1889, 970.00
1890, 970.00
1891, 969.00
1892, 969.00
1893, 969.00
1894, 969.00
1895, 969.00
1896, 968.00
1897, 969.00
1898, 968.00
1899, 968.00
1900, 968.00
1901, 967.00
1902, 967.00
1903, 967.00
1904, 967.00
1905, 967.00
1906, 967.00
1907, 967.00
1908, 967.00
1909, 967.00
1910, 967.00
1911, 966.00
1912, 967.00
1913, 967.00
1914, 966.00
1915, 966.00
1916, 966.00
1917, 967.00
1918, 966.00
1919, 966.00
1920, 966.00
1921, 967.00
1922, 965.00
1923, 966.00
1924, 966.00
1925, 966.00
1926, 967.00
1927, 966.00
1928, 966.00
1929, 966.00
1930, 966.00
1931, 966.00
1932, 967.00
1933, 966.00
1934, 966.00
1935, 967.00
1936, 967.00
1937, 967.00
1938, 966.00
1939, 967.00
1940, 967.00
1941, 967.00
1942, 967.00
1943, 967.00
1944, 968.00
1945, 967.00
1946, 968.00
1947, 968.00
1948, 968.00
1949, 968.00
1950, 968.00
1951, 969.00
1952, 968.00
1953, 969.00
1954, 969.00
1955, 969.00
1956, 969.00
1957, 969.00
1958, 970.00
1959, 970.00
1960, 970.00
1961, 970.00
1962, 970.00
1963, 971.00
1964, 971.00
1965, 972.00
1966, 971.00
1967, 972.00
1968, 972.00
1969, 972.00
1970, 973.00
1971, 973.00
1972, 973.00
1973, 973.00
1974, 973.00
1975, 975.00
1976, 973.00
1977, 974.00
1978, 975.00
1979, 975.00
1980, 975.00
1981, 975.00
1982, 975.00
1983, 976.00
1984, 976.00
1985, 978.00
1986, 977.00
1987, 977.00
1988, 978.00
1989, 978.00
1990, 977.00
1991, 978.00
1992, 979.00
1993, 980.00
1994, 979.00
1995, 979.00
1996, 979.00
1997, 980.00
1998, 980.00
1999, 980.00
2000, 981.00
2001, 980.00
2002, 981.00
2003, 982.00
2004, 981.00
2005, 982.00
2006, 982.00
2007, 982.00
2008, 982.00
2009, 983.00
2010, 983.00
2011, 983.00
2012, 984.00
2013, 985.00
2014, 984.00
2015, 985.00
2016, 985.00
2017, 985.00
2018, 986.00
2019, 985.00
2020, 985.00
2021, 986.00
2022, 986.00
2023, 987.00
2024, 987.00
2025, 987.00
2026, 987.00
2027, 988.00
2028, 988.00
2029, 988.00
2030, 988.00
2031, 989.00
2032, 989.00
2033, 991.00
2034, 989.00
2035, 991.00
2036, 990.00
2037, 991.00
2038, 991.00
2039, 991.00
2040, 991.00
2041, 991.00
2042, 992.00
2043, 992.00
2044, 993.00
2045, 993.00
2046, 993.00
2047, 994.00
2048, 994.00
2049, 994.00
2050, 994.00
2051, 995.00
2052, 996.00
2053, 996.00
2054, 996.00
2055, 996.00
2056, 998.00
2057, 996.00
2058, 998.00
2059, 998.00
2060, 999.00
2061, 999.00
2062, 999.00
2063, 1000.00
2064, 999.00
2065, 1000.00
2066, 1001.00
2067, 1001.00
2068, 1002.00
2069, 1002.00
2070, 1001.00
2071, 1003.00
2072, 1003.00
2073, 1003.00
2074, 1004.00
2075, 1004.00
2076, 1005.00
2077, 1005.00
2078, 1005.00
2079, 1005.00
2080, 1005.00
2081, 1006.00
2082, 1006.00
2083, 1006.00
2084, 1006.00
2085, 1007.00
2086, 1007.00
2087, 1008.00
2088, 1008.00
2089, 1008.00
2090, 1007.00
2091, 1009.00
2092, 1009.00
2093, 1009.00
2094, 1009.00
2095, 1010.00
2096, 1010.00
2097, 1011.00
2098, 1011.00
2099, 1010.00
2100, 1011.00
2101, 1010.00
2102, 1011.00
2103, 1012.00
2104, 1011.00
2105, 1011.00
2106, 1011.00
2107, 1012.00
2108, 1012.00
2109, 1012.00
2110, 1013.00
2111, 1012.00
2112, 1013.00
2113, 1012.00
2114, 1013.00
2115, 1013.00
2116, 1014.00
2117, 1013.00
2118, 1014.00
2119, 1013.00
2120, 1013.00
2121, 1015.00
2122, 1014.00
2123, 1014.00
2124, 1014.00
2125, 1014.00
2126, 1015.00
2127, 1015.00
2128, 1014.00
2129, 1015.00
2130, 1015.00
2131, 1015.00
2132, 1015.00
2133, 1015.00
2134, 1015.00
2135, 1015.00
2136, 1016.00
2137, 1015.00
2138, 1015.00
2139, 1016.00
2140, 1016.00
2141, 1016.00
2142, 1015.00
2143, 1016.00
2144, 1017.00
2145, 1017.00
2146, 1017.00
2147, 1016.00
2148, 1016.00
2149, 1017.00
2150, 1017.00
