FW version: 24
Log Version: 3.0.3

General Info:
       Command/Macro Performed,            Timestamp,             Device ID, COM Port, UART/I2C, Test Name, Host Major, Host Minor, Host Revision, Host Git Commit
            Single_measurement,  2023_07_04_11_45_00,       Insight2_F4_xxx,    USB-C,      USB,          ,          0,          1,             1,      4031237645

Show Spectrometer Status:
l0_version, f4_version, battery_perc, battery_mVolt, accelerometer_temp, accelerometer_x, accelerometer_y, accelerometer_z, compass_temp, compass_x, compass_y, compass_z, lamp_0, lamp_1, gain_0, gain_1
        17,         24,           33,          1878,               6256,           65308,            2428,           19264,            0,     65374,     65405,     19279,   2047,   2047,      1,      1

Temperature Statistic Info:
NTC AVG [°C], NTC2 AVG [°C]
      38.882,        38.566

Statistic Info:
M1:  num,      min,      max,   median,      AVG,      STD,M2:  num,      min,      max,   median,      AVG,      STD
     301,   810.00,   931.00,   840.00,   851.27,  38.5717,     401,  1265.00,  1343.00,  1308.00,  1306.17,  26.8948,

Measurements:
Wavelength, Data Amplitude
1350, 822.00
1351, 822.00
1352, 821.00
1353, 822.00
1354, 821.00
1355, 821.00
1356, 821.00
1357, 821.00
1358, 821.00
1359, 821.00
1360, 820.00
1361, 820.00
1362, 820.00
1363, 819.00
1364, 819.00
1365, 819.00
1366, 818.00
1367, 818.00
1368, 818.00
1369, 817.00
1370, 818.00
1371, 817.00
1372, 816.00
1373, 816.00
1374, 815.00
1375, 815.00
1376, 815.00
1377, 813.00
1378, 814.00
1379, 814.00
1380, 813.00
1381, 814.00
1382, 813.00
1383, 812.00
1384, 813.00
1385, 812.00
1386, 813.00
1387, 812.00
1388, 811.00
1389, 813.00
1390, 811.00
1391, 812.00
1392, 811.00
1393, 811.00
1394, 811.00
1395, 811.00
1396, 811.00
1397, 811.00
1398, 811.00
1399, 810.00
1400, 811.00
1401, 812.00
1402, 811.00
1403, 810.00
1404, 810.00
1405, 810.00
1406, 811.00
1407, 810.00
1408, 811.00
1409, 810.00
1410, 810.00
1411, 810.00
1412, 811.00
1413, 810.00
1414, 811.00
1415, 810.00
1416, 810.00
1417, 810.00
1418, 811.00
1419, 810.00
1420, 810.00
1421, 810.00
1422, 810.00
1423, 811.00
1424, 812.00
1425, 810.00
1426, 811.00
1427, 812.00
1428, 811.00
1429, 812.00
1430, 812.00
1431, 812.00
1432, 812.00
1433, 812.00
1434, 813.00
1435, 813.00
1436, 813.00
1437, 815.00
1438, 814.00
1439, 814.00
1440, 814.00
1441, 815.00
1442, 814.00
1443, 815.00
1444, 815.00
1445, 814.00
1446, 815.00
1447, 817.00
1448, 817.00
1449, 816.00
1450, 817.00
1451, 817.00
1452, 817.00
1453, 817.00
1454, 818.00
1455, 818.00
1456, 819.00
1457, 820.00
1458, 818.00
1459, 820.00
1460, 820.00
1461, 820.00
1462, 821.00
1463, 821.00
1464, 822.00
1465, 822.00
1466, 823.00
1467, 822.00
1468, 824.00
1469, 823.00
1470, 823.00
1471, 824.00
1472, 825.00
1473, 825.00
1474, 825.00
1475, 826.00
1476, 826.00
1477, 826.00
1478, 827.00
1479, 829.00
1480, 829.00
1481, 830.00
1482, 830.00
1483, 830.00
1484, 831.00
1485, 832.00
1486, 832.00
1487, 832.00
1488, 834.00
1489, 834.00
1490, 834.00
1491, 834.00
1492, 836.00
1493, 836.00
1494, 837.00
1495, 837.00
1496, 838.00
1497, 838.00
1498, 839.00
1499, 839.00
1500, 840.00
1501, 841.00
1502, 841.00
1503, 841.00
1504, 842.00
1505, 842.00
1506, 843.00
1507, 842.00
1508, 844.00
1509, 845.00
1510, 845.00
1511, 845.00
1512, 846.00
1513, 846.00
1514, 846.00
1515, 847.00
1516, 848.00
1517, 849.00
1518, 849.00
1519, 850.00
1520, 851.00
1521, 851.00
1522, 851.00
1523, 852.00
1524, 853.00
1525, 854.00
1526, 854.00
1527, 855.00
1528, 856.00
1529, 856.00
1530, 856.00
1531, 857.00
1532, 858.00
1533, 858.00
1534, 859.00
1535, 859.00
1536, 861.00
1537, 860.00
1538, 862.00
1539, 862.00
1540, 863.00
1541, 863.00
1542, 864.00
1543, 864.00
1544, 865.00
1545, 866.00
1546, 866.00
1547, 866.00
1548, 867.00
1549, 867.00
1550, 868.00
1551, 869.00
1552, 870.00
1553, 870.00
1554, 870.00
1555, 871.00
1556, 871.00
1557, 872.00
1558, 873.00
1559, 874.00
1560, 874.00
1561, 875.00
1562, 875.00
1563, 876.00
1564, 877.00
1565, 878.00
1566, 879.00
1567, 878.00
1568, 880.00
1569, 880.00
1570, 881.00
1571, 881.00
1572, 881.00
1573, 882.00
1574, 882.00
1575, 884.00
1576, 885.00
1577, 885.00
1578, 885.00
1579, 886.00
1580, 887.00
1581, 887.00
1582, 888.00
1583, 888.00
1584, 888.00
1585, 889.00
1586, 890.00
1587, 890.00
1588, 892.00
1589, 891.00
1590, 891.00
1591, 893.00
1592, 894.00
1593, 894.00
1594, 894.00
1595, 895.00
1596, 895.00
1597, 895.00
1598, 897.00
1599, 898.00
1600, 898.00
1601, 899.00
1602, 899.00
1603, 899.00
1604, 901.00
1605, 902.00
1606, 902.00
1607, 903.00
1608, 904.00
1609, 905.00
1610, 905.00
1611, 906.00
1612, 906.00
1613, 907.00
1614, 908.00
1615, 909.00
1616, 910.00
1617, 910.00
1618, 910.00
1619, 911.00
1620, 913.00
1621, 913.00
1622, 914.00
1623, 914.00
1624, 915.00
1625, 917.00
1626, 917.00
1627, 919.00
1628, 918.00
1629, 919.00
1630, 920.00
1631, 921.00
1632, 921.00
1633, 921.00
1634, 922.00
1635, 923.00
1636, 924.00
1637, 925.00
1638, 925.00
1639, 925.00
1640, 925.00
1641, 926.00
1642, 927.00
1643, 927.00
1644, 927.00
1645, 927.00
1646, 930.00
1647, 929.00
1648, 930.00
1649, 930.00
1650, 931.00

1750, 1340.00
1751, 1341.00
1752, 1341.00
1753, 1341.00
1754, 1339.00
1755, 1340.00
1756, 1341.00
1757, 1340.00
1758, 1341.00
1759, 1342.00
1760, 1342.00
1761, 1342.00
1762, 1339.00
1763, 1343.00
1764, 1341.00
1765, 1340.00
1766, 1340.00
1767, 1339.00
1768, 1340.00
1769, 1341.00
1770, 1339.00
1771, 1339.00
1772, 1340.00
1773, 1338.00
1774, 1339.00
1775, 1339.00
1776, 1338.00
1777, 1340.00
1778, 1339.00
1779, 1339.00
1780, 1339.00
1781, 1339.00
1782, 1337.00
1783, 1336.00
1784, 1338.00
1785, 1337.00
1786, 1337.00
1787, 1337.00
1788, 1336.00
1789, 1336.00
1790, 1334.00
1791, 1337.00
1792, 1335.00
1793, 1337.00
1794, 1336.00
1795, 1335.00
1796, 1336.00
1797, 1335.00
1798, 1334.00
1799, 1335.00
1800, 1333.00
1801, 1334.00
1802, 1333.00
1803, 1332.00
1804, 1334.00
1805, 1335.00
1806, 1334.00
1807, 1332.00
1808, 1331.00
1809, 1332.00
1810, 1331.00
1811, 1332.00
1812, 1332.00
1813, 1330.00
1814, 1331.00
1815, 1331.00
1816, 1332.00
1817, 1331.00
1818, 1330.00
1819, 1330.00
1820, 1329.00
1821, 1331.00
1822, 1329.00
1823, 1327.00
1824, 1327.00
1825, 1328.00
1826, 1329.00
1827, 1327.00
1828, 1328.00
1829, 1326.00
1830, 1326.00
1831, 1324.00
1832, 1323.00
1833, 1324.00
1834, 1323.00
1835, 1322.00
1836, 1321.00
1837, 1321.00
1838, 1319.00
1839, 1318.00
1840, 1317.00
1841, 1317.00
1842, 1316.00
1843, 1315.00
1844, 1314.00
1845, 1310.00
1846, 1313.00
1847, 1310.00
1848, 1308.00
1849, 1307.00
1850, 1306.00
1851, 1304.00
1852, 1305.00
1853, 1302.00
1854, 1303.00
1855, 1299.00
1856, 1302.00
1857, 1300.00
1858, 1296.00
1859, 1294.00
1860, 1294.00
1861, 1294.00
1862, 1291.00
1863, 1290.00
1864, 1290.00
1865, 1289.00
1866, 1286.00
1867, 1287.00
1868, 1286.00
1869, 1284.00
1870, 1282.00
1871, 1282.00
1872, 1282.00
1873, 1281.00
1874, 1279.00
1875, 1280.00
1876, 1278.00
1877, 1278.00
1878, 1278.00
1879, 1277.00
1880, 1275.00
1881, 1275.00
1882, 1274.00
1883, 1275.00
1884, 1274.00
1885, 1275.00
1886, 1273.00
1887, 1272.00
1888, 1271.00
1889, 1272.00
1890, 1271.00
1891, 1271.00
1892, 1272.00
1893, 1270.00
1894, 1271.00
1895, 1273.00
1896, 1269.00
1897, 1270.00
1898, 1270.00
1899, 1269.00
1900, 1268.00
1901, 1269.00
1902, 1269.00
1903, 1270.00
1904, 1268.00
1905, 1269.00
1906, 1268.00
1907, 1269.00
1908, 1268.00
1909, 1267.00
1910, 1268.00
1911, 1268.00
1912, 1266.00
1913, 1269.00
1914, 1268.00
1915, 1268.00
1916, 1267.00
1917, 1268.00
1918, 1266.00
1919, 1268.00
1920, 1267.00
1921, 1267.00
1922, 1268.00
1923, 1267.00
1924, 1265.00
1925, 1266.00
1926, 1267.00
1927, 1267.00
1928, 1267.00
1929, 1267.00
1930, 1267.00
1931, 1268.00
1932, 1269.00
1933, 1267.00
1934, 1268.00
1935, 1269.00
1936, 1269.00
1937, 1268.00
1938, 1269.00
1939, 1269.00
1940, 1269.00
1941, 1268.00
1942, 1268.00
1943, 1269.00
1944, 1268.00
1945, 1270.00
1946, 1268.00
1947, 1270.00
1948, 1272.00
1949, 1270.00
1950, 1271.00
1951, 1271.00
1952, 1270.00
1953, 1271.00
1954, 1272.00
1955, 1271.00
1956, 1272.00
1957, 1273.00
1958, 1274.00
1959, 1271.00
1960, 1274.00
1961, 1273.00
1962, 1275.00
1963, 1273.00
1964, 1275.00
1965, 1274.00
1966, 1275.00
1967, 1275.00
1968, 1277.00
1969, 1275.00
1970, 1277.00
1971, 1276.00
1972, 1277.00
1973, 1276.00
1974, 1279.00
1975, 1277.00
1976, 1279.00
1977, 1280.00
1978, 1278.00
1979, 1281.00
1980, 1282.00
1981, 1280.00
1982, 1281.00
1983, 1281.00
1984, 1281.00
1985, 1283.00
1986, 1283.00
1987, 1281.00
1988, 1284.00
1989, 1284.00
1990, 1283.00
1991, 1285.00
1992, 1286.00
1993, 1284.00
1994, 1286.00
1995, 1286.00
1996, 1286.00
1997, 1287.00
1998, 1286.00
1999, 1287.00
2000, 1288.00
2001, 1289.00
2002, 1289.00
2003, 1289.00
2004, 1290.00
2005, 1291.00
2006, 1290.00
2007, 1290.00
2008, 1290.00
2009, 1290.00
2010, 1291.00
2011, 1292.00
2012, 1292.00
2013, 1293.00
2014, 1293.00
2015, 1293.00
2016, 1293.00
2017, 1295.00
2018, 1295.00
2019, 1295.00
2020, 1296.00
2021, 1295.00
2022, 1298.00
2023, 1295.00
2024, 1297.00
2025, 1296.00
2026, 1297.00
2027, 1298.00
2028, 1298.00
2029, 1299.00
2030, 1299.00
2031, 1298.00
2032, 1302.00
2033, 1300.00
2034, 1300.00
2035, 1301.00
2036, 1300.00
2037, 1302.00
2038, 1302.00
2039, 1303.00
2040, 1305.00
2041, 1304.00
2042, 1305.00
2043, 1305.00
2044, 1306.00
2045, 1306.00
2046, 1306.00
2047, 1307.00
2048, 1307.00
2049, 1309.00
2050, 1308.00
2051, 1310.00
2052, 1310.00
2053, 1310.00
2054, 1310.00
2055, 1309.00
2056, 1311.00
2057, 1313.00
2058, 1314.00
2059, 1313.00
2060, 1315.00
2061, 1314.00
2062, 1315.00
2063, 1315.00
2064, 1316.00
2065, 1314.00
2066, 1318.00
2067, 1318.00
2068, 1319.00
2069, 1319.00
2070, 1320.00
2071, 1321.00
2072, 1320.00
2073, 1322.00
2074, 1321.00
2075, 1323.00
2076, 1323.00
2077, 1322.00
2078, 1324.00
2079, 1324.00
2080, 1323.00
2081, 1327.00
2082, 1325.00
2083, 1326.00
2084, 1324.00
2085, 1326.00
2086, 1326.00
2087, 1326.00
2088, 1328.00
2089, 1327.00
2090, 1329.00
2091, 1330.00
2092, 1331.00
2093, 1331.00
2094, 1329.00
2095, 1330.00
2096, 1330.00
2097, 1330.00
2098, 1333.00
2099, 1332.00
2100, 1334.00
2101, 1332.00
2102, 1331.00
2103, 1333.00
2104, 1332.00
2105, 1331.00
2106, 1334.00
2107, 1334.00
2108, 1332.00
2109, 1335.00
2110, 1335.00
2111, 1334.00
2112, 1335.00
2113, 1336.00
2114, 1336.00
2115, 1335.00
2116, 1336.00
2117, 1335.00
2118, 1335.00
2119, 1336.00
2120, 1337.00
2121, 1337.00
2122, 1337.00
2123, 1336.00
2124, 1338.00
2125, 1337.00
2126, 1336.00
2127, 1337.00
2128, 1339.00
2129, 1337.00
2130, 1339.00
2131, 1340.00
2132, 1338.00
2133, 1340.00
2134, 1338.00
2135, 1338.00
2136, 1340.00
2137, 1338.00
2138, 1339.00
2139, 1340.00
2140, 1341.00
2141, 1341.00
2142, 1341.00
2143, 1340.00
2144, 1342.00
2145, 1340.00
2146, 1342.00
2147, 1341.00
2148, 1342.00
2149, 1341.00
2150, 1343.00
