FW version: 24
Log Version: 3.0.3

General Info:
       Command/Macro Performed,            Timestamp,             Device ID, COM Port, UART/I2C, Test Name, Host Major, Host Minor, Host Revision, Host Git Commit
            Single_measurement,  2023_07_04_11_14_25,       Insight2_F4_xxx,    USB-C,      USB,          ,          0,          1,             1,      4031237645

Show Spectrometer Status:
l0_version, f4_version, battery_perc, battery_mVolt, accelerometer_temp, accelerometer_x, accelerometer_y, accelerometer_z, compass_temp, compass_x, compass_y, compass_z, lamp_0, lamp_1, gain_0, gain_1
        17,         24,           22,          1854,               6048,           64796,            2352,           19240,            0,     65405,     65343,     19325,   2047,   2047,      1,      1

Temperature Statistic Info:
NTC AVG [°C], NTC2 AVG [°C]
      37.783,        37.468

Statistic Info:
M1:  num,      min,      max,   median,      AVG,      STD,M2:  num,      min,      max,   median,      AVG,      STD
     301,   860.00,  1004.00,   892.00,   908.55,  45.7241,     401,  1256.00,  1349.00,  1296.00,  1298.68,  30.7208,

Measurements:
Wavelength, Data Amplitude
1350, 883.00
1351, 883.00
1352, 882.00
1353, 882.00
1354, 881.00
1355, 881.00
1356, 881.00
1357, 880.00
1358, 880.00
1359, 879.00
1360, 879.00
1361, 878.00
1362, 878.00
1363, 877.00
1364, 876.00
1365, 876.00
1366, 876.00
1367, 875.00
1368, 873.00
1369, 873.00
1370, 873.00
1371, 872.00
1372, 871.00
1373, 871.00
1374, 871.00
1375, 869.00
1376, 869.00
1377, 868.00
1378, 868.00
1379, 867.00
1380, 867.00
1381, 867.00
1382, 867.00
1383, 865.00
1384, 865.00
1385, 865.00
1386, 864.00
1387, 863.00
1388, 864.00
1389, 863.00
1390, 863.00
1391, 864.00
1392, 862.00
1393, 864.00
1394, 863.00
1395, 863.00
1396, 863.00
1397, 863.00
1398, 862.00
1399, 862.00
1400, 862.00
1401, 862.00
1402, 862.00
1403, 862.00
1404, 862.00
1405, 862.00
1406, 860.00
1407, 861.00
1408, 861.00
1409, 861.00
1410, 860.00
1411, 862.00
1412, 861.00
1413, 861.00
1414, 860.00
1415, 861.00
1416, 861.00
1417, 861.00
1418, 861.00
1419, 861.00
1420, 861.00
1421, 860.00
1422, 860.00
1423, 861.00
1424, 861.00
1425, 862.00
1426, 861.00
1427, 861.00
1428, 861.00
1429, 861.00
1430, 862.00
1431, 862.00
1432, 862.00
1433, 862.00
1434, 862.00
1435, 864.00
1436, 863.00
1437, 863.00
1438, 863.00
1439, 863.00
1440, 863.00
1441, 864.00
1442, 863.00
1443, 864.00
1444, 864.00
1445, 865.00
1446, 865.00
1447, 865.00
1448, 866.00
1449, 866.00
1450, 867.00
1451, 867.00
1452, 867.00
1453, 867.00
1454, 867.00
1455, 867.00
1456, 868.00
1457, 868.00
1458, 869.00
1459, 869.00
1460, 870.00
1461, 870.00
1462, 871.00
1463, 871.00
1464, 870.00
1465, 872.00
1466, 873.00
1467, 872.00
1468, 873.00
1469, 873.00
1470, 874.00
1471, 874.00
1472, 875.00
1473, 876.00
1474, 876.00
1475, 875.00
1476, 877.00
1477, 878.00
1478, 878.00
1479, 879.00
1480, 879.00
1481, 879.00
1482, 880.00
1483, 881.00
1484, 882.00
1485, 882.00
1486, 882.00
1487, 883.00
1488, 883.00
1489, 883.00
1490, 884.00
1491, 885.00
1492, 885.00
1493, 887.00
1494, 888.00
1495, 889.00
1496, 889.00
1497, 889.00
1498, 890.00
1499, 891.00
1500, 892.00
1501, 893.00
1502, 892.00
1503, 893.00
1504, 894.00
1505, 894.00
1506, 895.00
1507, 895.00
1508, 896.00
1509, 897.00
1510, 898.00
1511, 899.00
1512, 898.00
1513, 900.00
1514, 900.00
1515, 901.00
1516, 901.00
1517, 902.00
1518, 904.00
1519, 904.00
1520, 904.00
1521, 905.00
1522, 906.00
1523, 907.00
1524, 908.00
1525, 908.00
1526, 909.00
1527, 910.00
1528, 911.00
1529, 912.00
1530, 912.00
1531, 912.00
1532, 914.00
1533, 915.00
1534, 915.00
1535, 916.00
1536, 916.00
1537, 917.00
1538, 918.00
1539, 918.00
1540, 920.00
1541, 921.00
1542, 921.00
1543, 921.00
1544, 923.00
1545, 923.00
1546, 924.00
1547, 924.00
1548, 926.00
1549, 926.00
1550, 926.00
1551, 927.00
1552, 929.00
1553, 929.00
1554, 930.00
1555, 930.00
1556, 931.00
1557, 933.00
1558, 933.00
1559, 933.00
1560, 935.00
1561, 936.00
1562, 936.00
1563, 936.00
1564, 937.00
1565, 939.00
1566, 939.00
1567, 939.00
1568, 940.00
1569, 942.00
1570, 943.00
1571, 942.00
1572, 944.00
1573, 945.00
1574, 946.00
1575, 946.00
1576, 946.00
1577, 948.00
1578, 948.00
1579, 949.00
1580, 951.00
1581, 952.00
1582, 951.00
1583, 953.00
1584, 953.00
1585, 953.00
1586, 954.00
1587, 955.00
1588, 955.00
1589, 957.00
1590, 958.00
1591, 959.00
1592, 958.00
1593, 959.00
1594, 960.00
1595, 961.00
1596, 962.00
1597, 962.00
1598, 964.00
1599, 964.00
1600, 964.00
1601, 966.00
1602, 966.00
1603, 967.00
1604, 968.00
1605, 969.00
1606, 970.00
1607, 970.00
1608, 972.00
1609, 972.00
1610, 973.00
1611, 974.00
1612, 975.00
1613, 976.00
1614, 977.00
1615, 977.00
1616, 979.00
1617, 980.00
1618, 980.00
1619, 982.00
1620, 982.00
1621, 983.00
1622, 985.00
1623, 985.00
1624, 987.00
1625, 988.00
1626, 988.00
1627, 988.00
1628, 990.00
1629, 991.00
1630, 991.00
1631, 992.00
1632, 993.00
1633, 994.00
1634, 995.00
1635, 995.00
1636, 996.00
1637, 997.00
1638, 997.00
1639, 999.00
1640, 999.00
1641, 999.00
1642, 999.00
1643, 1000.00
1644, 1000.00
1645, 1001.00
1646, 1001.00
1647, 1003.00
1648, 1003.00
1649, 1004.00
1650, 1004.00

1750, 1347.00
1751, 1346.00
1752, 1347.00
1753, 1348.00
1754, 1349.00
1755, 1347.00
1756, 1347.00
1757, 1348.00
1758, 1347.00
1759, 1349.00
1760, 1348.00
1761, 1348.00
1762, 1348.00
1763, 1348.00
1764, 1348.00
1765, 1347.00
1766, 1348.00
1767, 1349.00
1768, 1346.00
1769, 1347.00
1770, 1347.00
1771, 1347.00
1772, 1347.00
1773, 1347.00
1774, 1344.00
1775, 1348.00
1776, 1345.00
1777, 1344.00
1778, 1344.00
1779, 1345.00
1780, 1347.00
1781, 1344.00
1782, 1344.00
1783, 1344.00
1784, 1345.00
1785, 1344.00
1786, 1344.00
1787, 1342.00
1788, 1344.00
1789, 1342.00
1790, 1343.00
1791, 1342.00
1792, 1340.00
1793, 1340.00
1794, 1342.00
1795, 1340.00
1796, 1339.00
1797, 1339.00
1798, 1339.00
1799, 1339.00
1800, 1339.00
1801, 1339.00
1802, 1339.00
1803, 1339.00
1804, 1338.00
1805, 1336.00
1806, 1337.00
1807, 1337.00
1808, 1339.00
1809, 1337.00
1810, 1338.00
1811, 1336.00
1812, 1336.00
1813, 1336.00
1814, 1335.00
1815, 1334.00
1816, 1334.00
1817, 1333.00
1818, 1333.00
1819, 1332.00
1820, 1332.00
1821, 1333.00
1822, 1331.00
1823, 1331.00
1824, 1330.00
1825, 1330.00
1826, 1329.00
1827, 1326.00
1828, 1327.00
1829, 1327.00
1830, 1325.00
1831, 1324.00
1832, 1325.00
1833, 1321.00
1834, 1320.00
1835, 1320.00
1836, 1316.00
1837, 1317.00
1838, 1316.00
1839, 1315.00
1840, 1314.00
1841, 1314.00
1842, 1311.00
1843, 1309.00
1844, 1310.00
1845, 1307.00
1846, 1305.00
1847, 1304.00
1848, 1301.00
1849, 1300.00
1850, 1299.00
1851, 1299.00
1852, 1296.00
1853, 1296.00
1854, 1294.00
1855, 1293.00
1856, 1290.00
1857, 1292.00
1858, 1288.00
1859, 1288.00
1860, 1286.00
1861, 1284.00
1862, 1282.00
1863, 1282.00
1864, 1282.00
1865, 1279.00
1866, 1279.00
1867, 1279.00
1868, 1277.00
1869, 1274.00
1870, 1276.00
1871, 1274.00
1872, 1273.00
1873, 1273.00
1874, 1272.00
1875, 1269.00
1876, 1269.00
1877, 1269.00
1878, 1267.00
1879, 1268.00
1880, 1269.00
1881, 1267.00
1882, 1267.00
1883, 1265.00
1884, 1266.00
1885, 1265.00
1886, 1265.00
1887, 1265.00
1888, 1263.00
1889, 1264.00
1890, 1263.00
1891, 1265.00
1892, 1265.00
1893, 1263.00
1894, 1261.00
1895, 1263.00
1896, 1261.00
1897, 1263.00
1898, 1262.00
1899, 1262.00
1900, 1261.00
1901, 1261.00
1902, 1261.00
1903, 1259.00
1904, 1260.00
1905, 1260.00
1906, 1259.00
1907, 1259.00
1908, 1261.00
1909, 1257.00
1910, 1259.00
1911, 1257.00
1912, 1258.00
1913, 1257.00
1914, 1258.00
1915, 1258.00
1916, 1259.00
1917, 1259.00
1918, 1258.00
1919, 1259.00
1920, 1258.00
1921, 1258.00
1922, 1257.00
1923, 1258.00
1924, 1259.00
1925, 1259.00
1926, 1258.00
1927, 1259.00
1928, 1259.00
1929, 1258.00
1930, 1257.00
1931, 1258.00
1932, 1259.00
1933, 1259.00
1934, 1257.00
1935, 1258.00
1936, 1259.00
1937, 1258.00
1938, 1256.00
1939, 1258.00
1940, 1258.00
1941, 1260.00
1942, 1259.00
1943, 1258.00
1944, 1260.00
1945, 1260.00
1946, 1259.00
1947, 1260.00
1948, 1259.00
1949, 1260.00
1950, 1259.00
1951, 1260.00
1952, 1260.00
1953, 1262.00
1954, 1261.00
1955, 1263.00
1956, 1261.00
1957, 1261.00
1958, 1263.00
1959, 1260.00
1960, 1262.00
1961, 1261.00
1962, 1262.00
1963, 1263.00
1964, 1263.00
1965, 1264.00
1966, 1263.00
1967, 1264.00
1968, 1264.00
1969, 1264.00
1970, 1264.00
1971, 1265.00
1972, 1266.00
1973, 1266.00
1974, 1267.00
1975, 1268.00
1976, 1268.00
1977, 1269.00
1978, 1268.00
1979, 1268.00
1980, 1268.00
1981, 1268.00
1982, 1270.00
1983, 1270.00
1984, 1269.00
1985, 1269.00
1986, 1270.00
1987, 1272.00
1988, 1274.00
1989, 1271.00
1990, 1272.00
1991, 1272.00
1992, 1272.00
1993, 1273.00
1994, 1273.00
1995, 1274.00
1996, 1274.00
1997, 1275.00
1998, 1274.00
1999, 1275.00
2000, 1275.00
2001, 1276.00
2002, 1276.00
2003, 1275.00
2004, 1276.00
2005, 1275.00
2006, 1279.00
2007, 1277.00
2008, 1279.00
2009, 1279.00
2010, 1279.00
2011, 1277.00
2012, 1278.00
2013, 1278.00
2014, 1281.00
2015, 1280.00
2016, 1280.00
2017, 1281.00
2018, 1282.00
2019, 1281.00
2020, 1282.00
2021, 1282.00
2022, 1282.00
2023, 1284.00
2024, 1283.00
2025, 1284.00
2026, 1284.00
2027, 1286.00
2028, 1285.00
2029, 1285.00
2030, 1287.00
2031, 1286.00
2032, 1287.00
2033, 1286.00
2034, 1289.00
2035, 1289.00
2036, 1288.00
2037, 1286.00
2038, 1289.00
2039, 1289.00
2040, 1289.00
2041, 1290.00
2042, 1291.00
2043, 1293.00
2044, 1293.00
2045, 1294.00
2046, 1290.00
2047, 1292.00
2048, 1292.00
2049, 1294.00
2050, 1294.00
2051, 1295.00
2052, 1296.00
2053, 1295.00
2054, 1297.00
2055, 1298.00
2056, 1297.00
2057, 1297.00
2058, 1299.00
2059, 1300.00
2060, 1301.00
2061, 1301.00
2062, 1301.00
2063, 1302.00
2064, 1303.00
2065, 1301.00
2066, 1303.00
2067, 1304.00
2068, 1305.00
2069, 1305.00
2070, 1305.00
2071, 1304.00
2072, 1307.00
2073, 1307.00
2074, 1307.00
2075, 1307.00
2076, 1310.00
2077, 1310.00
2078, 1310.00
2079, 1311.00
2080, 1312.00
2081, 1311.00
2082, 1312.00
2083, 1312.00
2084, 1314.00
2085, 1312.00
2086, 1314.00
2087, 1314.00
2088, 1313.00
2089, 1315.00
2090, 1316.00
2091, 1318.00
2092, 1315.00
2093, 1318.00
2094, 1316.00
2095, 1317.00
2096, 1318.00
2097, 1318.00
2098, 1319.00
2099, 1317.00
2100, 1319.00
2101, 1320.00
2102, 1321.00
2103, 1321.00
2104, 1322.00
2105, 1323.00
2106, 1322.00
2107, 1322.00
2108, 1322.00
2109, 1323.00
2110, 1324.00
2111, 1323.00
2112, 1321.00
2113, 1324.00
2114, 1323.00
2115, 1324.00
2116, 1323.00
2117, 1325.00
2118, 1324.00
2119, 1325.00
2120, 1325.00
2121, 1327.00
2122, 1325.00
2123, 1327.00
2124, 1327.00
2125, 1327.00
2126, 1326.00
2127, 1326.00
2128, 1329.00
2129, 1326.00
2130, 1327.00
2131, 1328.00
2132, 1328.00
2133, 1330.00
2134, 1327.00
2135, 1327.00
2136, 1329.00
2137, 1330.00
2138, 1328.00
2139, 1332.00
2140, 1330.00
2141, 1331.00
2142, 1330.00
2143, 1331.00
2144, 1330.00
2145, 1331.00
2146, 1330.00
2147, 1329.00
2148, 1332.00
2149, 1333.00
2150, 1332.00
