FW version: 24
Log Version: 3.0.3

General Info:
       Command/Macro Performed,            Timestamp,             Device ID, COM Port, UART/I2C, Test Name, Host Major, Host Minor, Host Revision, Host Git Commit
            Single_measurement,  2023_07_04_11_15_08,       Insight2_F4_xxx,    USB-C,      USB,          ,          0,          1,             1,      4031237645

Show Spectrometer Status:
l0_version, f4_version, battery_perc, battery_mVolt, accelerometer_temp, accelerometer_x, accelerometer_y, accelerometer_z, compass_temp, compass_x, compass_y, compass_z, lamp_0, lamp_1, gain_0, gain_1
        17,         24,           23,          1859,               6064,           64764,            2364,           19324,            0,     65532,     65343,     19325,   2866,   2866,      1,      1

Temperature Statistic Info:
NTC AVG [°C], NTC2 AVG [°C]
      38.099,        37.755

Statistic Info:
M1:  num,      min,      max,   median,      AVG,      STD,M2:  num,      min,      max,   median,      AVG,      STD
     301,  1678.00,  1945.00,  1732.00,  1765.30,  82.7361,     401,  2235.00,  2399.00,  2302.00,  2306.78,  53.5867,

Measurements:
Wavelength, Data Amplitude
1350, 1727.00
1351, 1727.00
1352, 1726.00
1353, 1725.00
1354, 1723.00
1355, 1722.00
1356, 1722.00
1357, 1720.00
1358, 1719.00
1359, 1718.00
1360, 1718.00
1361, 1718.00
1362, 1715.00
1363, 1714.00
1364, 1714.00
1365, 1712.00
1366, 1711.00
1367, 1709.00
1368, 1707.00
1369, 1705.00
1370, 1705.00
1371, 1704.00
1372, 1703.00
1373, 1700.00
1374, 1700.00
1375, 1698.00
1376, 1698.00
1377, 1696.00
1378, 1694.00
1379, 1695.00
1380, 1693.00
1381, 1694.00
1382, 1691.00
1383, 1691.00
1384, 1689.00
1385, 1689.00
1386, 1689.00
1387, 1688.00
1388, 1687.00
1389, 1687.00
1390, 1686.00
1391, 1685.00
1392, 1685.00
1393, 1685.00
1394, 1684.00
1395, 1684.00
1396, 1683.00
1397, 1683.00
1398, 1683.00
1399, 1682.00
1400, 1682.00
1401, 1681.00
1402, 1681.00
1403, 1681.00
1404, 1681.00
1405, 1681.00
1406, 1681.00
1407, 1681.00
1408, 1680.00
1409, 1680.00
1410, 1679.00
1411, 1680.00
1412, 1680.00
1413, 1680.00
1414, 1679.00
1415, 1679.00
1416, 1679.00
1417, 1678.00
1418, 1678.00
1419, 1679.00
1420, 1679.00
1421, 1679.00
1422, 1679.00
1423, 1678.00
1424, 1679.00
1425, 1679.00
1426, 1679.00
1427, 1679.00
1428, 1679.00
1429, 1679.00
1430, 1681.00
1431, 1679.00
1432, 1680.00
1433, 1679.00
1434, 1681.00
1435, 1681.00
1436, 1682.00
1437, 1681.00
1438, 1682.00
1439, 1683.00
1440, 1683.00
1441, 1683.00
1442, 1684.00
1443, 1684.00
1444, 1685.00
1445, 1685.00
1446, 1685.00
1447, 1686.00
1448, 1687.00
1449, 1687.00
1450, 1687.00
1451, 1688.00
1452, 1689.00
1453, 1689.00
1454, 1689.00
1455, 1690.00
1456, 1691.00
1457, 1692.00
1458, 1693.00
1459, 1693.00
1460, 1693.00
1461, 1695.00
1462, 1693.00
1463, 1696.00
1464, 1697.00
1465, 1697.00
1466, 1697.00
1467, 1698.00
1468, 1699.00
1469, 1701.00
1470, 1702.00
1471, 1703.00
1472, 1703.00
1473, 1703.00
1474, 1705.00
1475, 1706.00
1476, 1706.00
1477, 1708.00
1478, 1708.00
1479, 1710.00
1480, 1711.00
1481, 1711.00
1482, 1712.00
1483, 1713.00
1484, 1716.00
1485, 1716.00
1486, 1717.00
1487, 1718.00
1488, 1719.00
1489, 1720.00
1490, 1721.00
1491, 1722.00
1492, 1723.00
1493, 1725.00
1494, 1726.00
1495, 1727.00
1496, 1728.00
1497, 1729.00
1498, 1729.00
1499, 1731.00
1500, 1732.00
1501, 1732.00
1502, 1734.00
1503, 1735.00
1504, 1736.00
1505, 1737.00
1506, 1738.00
1507, 1740.00
1508, 1741.00
1509, 1742.00
1510, 1744.00
1511, 1745.00
1512, 1744.00
1513, 1746.00
1514, 1748.00
1515, 1749.00
1516, 1751.00
1517, 1750.00
1518, 1752.00
1519, 1754.00
1520, 1755.00
1521, 1757.00
1522, 1757.00
1523, 1759.00
1524, 1760.00
1525, 1761.00
1526, 1763.00
1527, 1765.00
1528, 1765.00
1529, 1767.00
1530, 1768.00
1531, 1770.00
1532, 1770.00
1533, 1771.00
1534, 1773.00
1535, 1776.00
1536, 1777.00
1537, 1779.00
1538, 1779.00
1539, 1780.00
1540, 1782.00
1541, 1784.00
1542, 1785.00
1543, 1786.00
1544, 1787.00
1545, 1789.00
1546, 1791.00
1547, 1791.00
1548, 1793.00
1549, 1795.00
1550, 1796.00
1551, 1797.00
1552, 1798.00
1553, 1801.00
1554, 1802.00
1555, 1803.00
1556, 1805.00
1557, 1805.00
1558, 1807.00
1559, 1809.00
1560, 1810.00
1561, 1812.00
1562, 1813.00
1563, 1815.00
1564, 1816.00
1565, 1818.00
1566, 1820.00
1567, 1821.00
1568, 1823.00
1569, 1824.00
1570, 1825.00
1571, 1827.00
1572, 1828.00
1573, 1830.00
1574, 1832.00
1575, 1833.00
1576, 1834.00
1577, 1835.00
1578, 1838.00
1579, 1839.00
1580, 1839.00
1581, 1842.00
1582, 1843.00
1583, 1843.00
1584, 1845.00
1585, 1846.00
1586, 1848.00
1587, 1850.00
1588, 1850.00
1589, 1852.00
1590, 1853.00
1591, 1855.00
1592, 1856.00
1593, 1857.00
1594, 1859.00
1595, 1860.00
1596, 1861.00
1597, 1863.00
1598, 1864.00
1599, 1866.00
1600, 1867.00
1601, 1868.00
1602, 1869.00
1603, 1872.00
1604, 1873.00
1605, 1874.00
1606, 1875.00
1607, 1877.00
1608, 1879.00
1609, 1880.00
1610, 1882.00
1611, 1884.00
1612, 1886.00
1613, 1887.00
1614, 1889.00
1615, 1891.00
1616, 1893.00
1617, 1895.00
1618, 1895.00
1619, 1898.00
1620, 1899.00
1621, 1901.00
1622, 1902.00
1623, 1905.00
1624, 1906.00
1625, 1909.00
1626, 1910.00
1627, 1911.00
1628, 1913.00
1629, 1915.00
1630, 1915.00
1631, 1917.00
1632, 1919.00
1633, 1920.00
1634, 1922.00
1635, 1923.00
1636, 1924.00
1637, 1927.00
1638, 1928.00
1639, 1928.00
1640, 1930.00
1641, 1932.00
1642, 1932.00
1643, 1934.00
1644, 1936.00
1645, 1936.00
1646, 1939.00
1647, 1940.00
1648, 1942.00
1649, 1944.00
1650, 1945.00

1750, 2398.00
1751, 2395.00
1752, 2398.00
1753, 2399.00
1754, 2398.00
1755, 2397.00
1756, 2398.00
1757, 2398.00
1758, 2397.00
1759, 2397.00
1760, 2396.00
1761, 2397.00
1762, 2398.00
1763, 2396.00
1764, 2396.00
1765, 2399.00
1766, 2397.00
1767, 2396.00
1768, 2396.00
1769, 2395.00
1770, 2396.00
1771, 2394.00
1772, 2395.00
1773, 2395.00
1774, 2393.00
1775, 2396.00
1776, 2392.00
1777, 2392.00
1778, 2392.00
1779, 2391.00
1780, 2391.00
1781, 2391.00
1782, 2390.00
1783, 2389.00
1784, 2389.00
1785, 2387.00
1786, 2389.00
1787, 2387.00
1788, 2388.00
1789, 2387.00
1790, 2385.00
1791, 2386.00
1792, 2385.00
1793, 2384.00
1794, 2384.00
1795, 2383.00
1796, 2381.00
1797, 2381.00
1798, 2382.00
1799, 2380.00
1800, 2380.00
1801, 2379.00
1802, 2380.00
1803, 2379.00
1804, 2379.00
1805, 2377.00
1806, 2378.00
1807, 2376.00
1808, 2377.00
1809, 2377.00
1810, 2374.00
1811, 2375.00
1812, 2373.00
1813, 2373.00
1814, 2373.00
1815, 2370.00
1816, 2370.00
1817, 2371.00
1818, 2370.00
1819, 2367.00
1820, 2369.00
1821, 2367.00
1822, 2366.00
1823, 2365.00
1824, 2364.00
1825, 2364.00
1826, 2362.00
1827, 2359.00
1828, 2358.00
1829, 2357.00
1830, 2353.00
1831, 2351.00
1832, 2349.00
1833, 2348.00
1834, 2347.00
1835, 2346.00
1836, 2342.00
1837, 2342.00
1838, 2340.00
1839, 2337.00
1840, 2335.00
1841, 2333.00
1842, 2332.00
1843, 2327.00
1844, 2324.00
1845, 2323.00
1846, 2320.00
1847, 2318.00
1848, 2314.00
1849, 2313.00
1850, 2310.00
1851, 2308.00
1852, 2306.00
1853, 2304.00
1854, 2300.00
1855, 2296.00
1856, 2294.00
1857, 2291.00
1858, 2289.00
1859, 2288.00
1860, 2284.00
1861, 2284.00
1862, 2283.00
1863, 2281.00
1864, 2276.00
1865, 2274.00
1866, 2273.00
1867, 2272.00
1868, 2269.00
1869, 2267.00
1870, 2264.00
1871, 2263.00
1872, 2263.00
1873, 2261.00
1874, 2261.00
1875, 2259.00
1876, 2257.00
1877, 2257.00
1878, 2255.00
1879, 2256.00
1880, 2256.00
1881, 2251.00
1882, 2253.00
1883, 2253.00
1884, 2251.00
1885, 2251.00
1886, 2247.00
1887, 2248.00
1888, 2250.00
1889, 2248.00
1890, 2248.00
1891, 2247.00
1892, 2246.00
1893, 2246.00
1894, 2245.00
1895, 2244.00
1896, 2243.00
1897, 2243.00
1898, 2244.00
1899, 2242.00
1900, 2241.00
1901, 2242.00
1902, 2241.00
1903, 2240.00
1904, 2243.00
1905, 2241.00
1906, 2240.00
1907, 2239.00
1908, 2239.00
1909, 2239.00
1910, 2238.00
1911, 2239.00
1912, 2240.00
1913, 2238.00
1914, 2239.00
1915, 2237.00
1916, 2238.00
1917, 2236.00
1918, 2236.00
1919, 2237.00
1920, 2238.00
1921, 2237.00
1922, 2237.00
1923, 2236.00
1924, 2239.00
1925, 2237.00
1926, 2237.00
1927, 2237.00
1928, 2239.00
1929, 2237.00
1930, 2236.00
1931, 2237.00
1932, 2237.00
1933, 2237.00
1934, 2235.00
1935, 2237.00
1936, 2239.00
1937, 2238.00
1938, 2237.00
1939, 2238.00
1940, 2237.00
1941, 2239.00
1942, 2239.00
1943, 2240.00
1944, 2238.00
1945, 2240.00
1946, 2238.00
1947, 2240.00
1948, 2239.00
1949, 2240.00
1950, 2242.00
1951, 2241.00
1952, 2241.00
1953, 2241.00
1954, 2241.00
1955, 2242.00
1956, 2243.00
1957, 2242.00
1958, 2242.00
1959, 2243.00
1960, 2244.00
1961, 2245.00
1962, 2246.00
1963, 2245.00
1964, 2247.00
1965, 2245.00
1966, 2246.00
1967, 2247.00
1968, 2247.00
1969, 2247.00
1970, 2250.00
1971, 2250.00
1972, 2249.00
1973, 2250.00
1974, 2250.00
1975, 2252.00
1976, 2252.00
1977, 2252.00
1978, 2252.00
1979, 2252.00
1980, 2254.00
1981, 2254.00
1982, 2254.00
1983, 2256.00
1984, 2255.00
1985, 2258.00
1986, 2258.00
1987, 2259.00
1988, 2259.00
1989, 2259.00
1990, 2262.00
1991, 2261.00
1992, 2262.00
1993, 2263.00
1994, 2262.00
1995, 2264.00
1996, 2263.00
1997, 2264.00
1998, 2264.00
1999, 2265.00
2000, 2265.00
2001, 2267.00
2002, 2267.00
2003, 2267.00
2004, 2268.00
2005, 2269.00
2006, 2270.00
2007, 2270.00
2008, 2272.00
2009, 2270.00
2010, 2270.00
2011, 2272.00
2012, 2270.00
2013, 2274.00
2014, 2273.00
2015, 2273.00
2016, 2274.00
2017, 2274.00
2018, 2274.00
2019, 2276.00
2020, 2276.00
2021, 2279.00
2022, 2279.00
2023, 2278.00
2024, 2278.00
2025, 2279.00
2026, 2281.00
2027, 2283.00
2028, 2282.00
2029, 2284.00
2030, 2283.00
2031, 2283.00
2032, 2286.00
2033, 2286.00
2034, 2286.00
2035, 2286.00
2036, 2289.00
2037, 2288.00
2038, 2289.00
2039, 2289.00
2040, 2289.00
2041, 2292.00
2042, 2293.00
2043, 2292.00
2044, 2293.00
2045, 2295.00
2046, 2294.00
2047, 2295.00
2048, 2296.00
2049, 2299.00
2050, 2297.00
2051, 2300.00
2052, 2300.00
2053, 2300.00
2054, 2302.00
2055, 2303.00
2056, 2304.00
2057, 2304.00
2058, 2306.00
2059, 2307.00
2060, 2306.00
2061, 2309.00
2062, 2309.00
2063, 2309.00
2064, 2311.00
2065, 2312.00
2066, 2311.00
2067, 2314.00
2068, 2314.00
2069, 2315.00
2070, 2317.00
2071, 2316.00
2072, 2319.00
2073, 2319.00
2074, 2318.00
2075, 2320.00
2076, 2322.00
2077, 2322.00
2078, 2324.00
2079, 2327.00
2080, 2325.00
2081, 2325.00
2082, 2327.00
2083, 2326.00
2084, 2327.00
2085, 2329.00
2086, 2330.00
2087, 2330.00
2088, 2329.00
2089, 2331.00
2090, 2333.00
2091, 2333.00
2092, 2333.00
2093, 2335.00
2094, 2335.00
2095, 2335.00
2096, 2335.00
2097, 2336.00
2098, 2339.00
2099, 2337.00
2100, 2338.00
2101, 2339.00
2102, 2340.00
2103, 2340.00
2104, 2339.00
2105, 2342.00
2106, 2342.00
2107, 2343.00
2108, 2340.00
2109, 2344.00
2110, 2344.00
2111, 2344.00
2112, 2344.00
2113, 2345.00
2114, 2346.00
2115, 2345.00
2116, 2345.00
2117, 2346.00
2118, 2346.00
2119, 2347.00
2120, 2347.00
2121, 2347.00
2122, 2347.00
2123, 2349.00
2124, 2349.00
2125, 2351.00
2126, 2350.00
2127, 2352.00
2128, 2351.00
2129, 2352.00
2130, 2350.00
2131, 2352.00
2132, 2354.00
2133, 2354.00
2134, 2354.00
2135, 2353.00
2136, 2354.00
2137, 2354.00
2138, 2354.00
2139, 2354.00
2140, 2356.00
2141, 2357.00
2142, 2357.00
2143, 2356.00
2144, 2357.00
2145, 2358.00
2146, 2359.00
2147, 2358.00
2148, 2356.00
2149, 2359.00
2150, 2357.00
