FW version: 24
Log Version: 3.0.3

General Info:
       Command/Macro Performed,            Timestamp,             Device ID, COM Port, UART/I2C, Test Name, Host Major, Host Minor, Host Revision, Host Git Commit
            Single_measurement,  2023_06_30_11_40_22,       Insight2_F4_xxx,    USB-C,      USB,          ,          0,          1,             1,      4031237645

Show Spectrometer Status:
l0_version, f4_version, battery_perc, battery_mVolt, accelerometer_temp, accelerometer_x, accelerometer_y, accelerometer_z, compass_temp, compass_x, compass_y, compass_z, lamp_0, lamp_1, gain_0, gain_1
        17,         24,           95,          2079,               6000,           65440,             376,           18532,            0,     65452,     65403,     65535,   2866,   2866,      1,      1

Temperature Statistic Info:
NTC AVG [°C], NTC2 AVG [°C]
      38.710,        38.450

Statistic Info:
M1:  num,      min,      max,   median,      AVG,      STD,M2:  num,      min,      max,   median,      AVG,      STD
     301,  1799.00,  2090.00,  1858.00,  1894.50,  90.2239,     401,  2397.00,  2570.00,  2466.00,  2471.31,  56.5464,

Measurements:
Wavelength, Data Amplitude
1350, 1853.00
1351, 1854.00
1352, 1851.00
1353, 1851.00
1354, 1849.00
1355, 1848.00
1356, 1846.00
1357, 1846.00
1358, 1846.00
1359, 1843.00
1360, 1845.00
1361, 1842.00
1362, 1841.00
1363, 1840.00
1364, 1837.00
1365, 1836.00
1366, 1833.00
1367, 1835.00
1368, 1832.00
1369, 1830.00
1370, 1829.00
1371, 1827.00
1372, 1826.00
1373, 1825.00
1374, 1823.00
1375, 1823.00
1376, 1820.00
1377, 1819.00
1378, 1818.00
1379, 1818.00
1380, 1816.00
1381, 1816.00
1382, 1813.00
1383, 1814.00
1384, 1813.00
1385, 1811.00
1386, 1811.00
1387, 1810.00
1388, 1809.00
1389, 1808.00
1390, 1809.00
1391, 1809.00
1392, 1807.00
1393, 1808.00
1394, 1806.00
1395, 1805.00
1396, 1805.00
1397, 1805.00
1398, 1804.00
1399, 1803.00
1400, 1803.00
1401, 1803.00
1402, 1803.00
1403, 1803.00
1404, 1803.00
1405, 1801.00
1406, 1801.00
1407, 1802.00
1408, 1801.00
1409, 1801.00
1410, 1801.00
1411, 1800.00
1412, 1800.00
1413, 1801.00
1414, 1800.00
1415, 1800.00
1416, 1801.00
1417, 1801.00
1418, 1800.00
1419, 1799.00
1420, 1801.00
1421, 1800.00
1422, 1800.00
1423, 1801.00
1424, 1800.00
1425, 1801.00
1426, 1800.00
1427, 1801.00
1428, 1801.00
1429, 1801.00
1430, 1801.00
1431, 1802.00
1432, 1803.00
1433, 1803.00
1434, 1803.00
1435, 1802.00
1436, 1803.00
1437, 1803.00
1438, 1804.00
1439, 1804.00
1440, 1805.00
1441, 1806.00
1442, 1807.00
1443, 1807.00
1444, 1806.00
1445, 1806.00
1446, 1808.00
1447, 1807.00
1448, 1808.00
1449, 1810.00
1450, 1809.00
1451, 1811.00
1452, 1811.00
1453, 1811.00
1454, 1811.00
1455, 1813.00
1456, 1813.00
1457, 1814.00
1458, 1815.00
1459, 1816.00
1460, 1816.00
1461, 1817.00
1462, 1817.00
1463, 1819.00
1464, 1819.00
1465, 1820.00
1466, 1821.00
1467, 1821.00
1468, 1824.00
1469, 1823.00
1470, 1825.00
1471, 1825.00
1472, 1827.00
1473, 1829.00
1474, 1827.00
1475, 1830.00
1476, 1831.00
1477, 1831.00
1478, 1833.00
1479, 1835.00
1480, 1834.00
1481, 1836.00
1482, 1837.00
1483, 1838.00
1484, 1839.00
1485, 1841.00
1486, 1841.00
1487, 1842.00
1488, 1843.00
1489, 1845.00
1490, 1845.00
1491, 1848.00
1492, 1848.00
1493, 1849.00
1494, 1851.00
1495, 1852.00
1496, 1852.00
1497, 1855.00
1498, 1855.00
1499, 1858.00
1500, 1858.00
1501, 1859.00
1502, 1861.00
1503, 1863.00
1504, 1862.00
1505, 1864.00
1506, 1865.00
1507, 1866.00
1508, 1867.00
1509, 1869.00
1510, 1871.00
1511, 1872.00
1512, 1873.00
1513, 1873.00
1514, 1875.00
1515, 1877.00
1516, 1878.00
1517, 1879.00
1518, 1881.00
1519, 1882.00
1520, 1883.00
1521, 1884.00
1522, 1885.00
1523, 1887.00
1524, 1889.00
1525, 1890.00
1526, 1891.00
1527, 1893.00
1528, 1895.00
1529, 1897.00
1530, 1898.00
1531, 1899.00
1532, 1901.00
1533, 1902.00
1534, 1903.00
1535, 1905.00
1536, 1906.00
1537, 1908.00
1538, 1909.00
1539, 1912.00
1540, 1913.00
1541, 1914.00
1542, 1915.00
1543, 1917.00
1544, 1918.00
1545, 1921.00
1546, 1921.00
1547, 1923.00
1548, 1925.00
1549, 1925.00
1550, 1928.00
1551, 1929.00
1552, 1930.00
1553, 1931.00
1554, 1933.00
1555, 1934.00
1556, 1937.00
1557, 1939.00
1558, 1940.00
1559, 1941.00
1560, 1943.00
1561, 1944.00
1562, 1946.00
1563, 1948.00
1564, 1950.00
1565, 1952.00
1566, 1953.00
1567, 1955.00
1568, 1955.00
1569, 1959.00
1570, 1959.00
1571, 1961.00
1572, 1962.00
1573, 1964.00
1574, 1966.00
1575, 1968.00
1576, 1970.00
1577, 1971.00
1578, 1973.00
1579, 1975.00
1580, 1975.00
1581, 1977.00
1582, 1980.00
1583, 1980.00
1584, 1981.00
1585, 1983.00
1586, 1985.00
1587, 1986.00
1588, 1987.00
1589, 1989.00
1590, 1991.00
1591, 1993.00
1592, 1993.00
1593, 1994.00
1594, 1996.00
1595, 1998.00
1596, 2000.00
1597, 2002.00
1598, 2003.00
1599, 2003.00
1600, 2005.00
1601, 2006.00
1602, 2009.00
1603, 2009.00
1604, 2011.00
1605, 2014.00
1606, 2015.00
1607, 2018.00
1608, 2018.00
1609, 2020.00
1610, 2022.00
1611, 2024.00
1612, 2026.00
1613, 2027.00
1614, 2029.00
1615, 2031.00
1616, 2034.00
1617, 2036.00
1618, 2037.00
1619, 2039.00
1620, 2040.00
1621, 2042.00
1622, 2043.00
1623, 2046.00
1624, 2048.00
1625, 2051.00
1626, 2052.00
1627, 2054.00
1628, 2055.00
1629, 2056.00
1630, 2059.00
1631, 2059.00
1632, 2063.00
1633, 2064.00
1634, 2066.00
1635, 2067.00
1636, 2069.00
1637, 2070.00
1638, 2071.00
1639, 2073.00
1640, 2074.00
1641, 2076.00
1642, 2080.00
1643, 2080.00
1644, 2081.00
1645, 2083.00
1646, 2084.00
1647, 2086.00
1648, 2087.00
1649, 2089.00
1650, 2090.00

1750, 2568.00
1751, 2569.00
1752, 2569.00
1753, 2567.00
1754, 2569.00
1755, 2569.00
1756, 2569.00
1757, 2567.00
1758, 2569.00
1759, 2570.00
1760, 2567.00
1761, 2569.00
1762, 2570.00
1763, 2570.00
1764, 2568.00
1765, 2565.00
1766, 2568.00
1767, 2567.00
1768, 2568.00
1769, 2568.00
1770, 2566.00
1771, 2565.00
1772, 2566.00
1773, 2563.00
1774, 2563.00
1775, 2564.00
1776, 2563.00
1777, 2562.00
1778, 2563.00
1779, 2561.00
1780, 2561.00
1781, 2559.00
1782, 2562.00
1783, 2559.00
1784, 2560.00
1785, 2559.00
1786, 2558.00
1787, 2559.00
1788, 2557.00
1789, 2557.00
1790, 2554.00
1791, 2555.00
1792, 2555.00
1793, 2554.00
1794, 2553.00
1795, 2552.00
1796, 2552.00
1797, 2549.00
1798, 2550.00
1799, 2550.00
1800, 2551.00
1801, 2547.00
1802, 2549.00
1803, 2549.00
1804, 2547.00
1805, 2545.00
1806, 2545.00
1807, 2546.00
1808, 2546.00
1809, 2544.00
1810, 2546.00
1811, 2543.00
1812, 2543.00
1813, 2541.00
1814, 2542.00
1815, 2539.00
1816, 2540.00
1817, 2538.00
1818, 2538.00
1819, 2538.00
1820, 2536.00
1821, 2535.00
1822, 2534.00
1823, 2533.00
1824, 2530.00
1825, 2529.00
1826, 2529.00
1827, 2527.00
1828, 2525.00
1829, 2523.00
1830, 2519.00
1831, 2520.00
1832, 2518.00
1833, 2514.00
1834, 2513.00
1835, 2511.00
1836, 2509.00
1837, 2507.00
1838, 2506.00
1839, 2503.00
1840, 2501.00
1841, 2498.00
1842, 2495.00
1843, 2492.00
1844, 2491.00
1845, 2486.00
1846, 2486.00
1847, 2481.00
1848, 2481.00
1849, 2477.00
1850, 2473.00
1851, 2471.00
1852, 2469.00
1853, 2467.00
1854, 2462.00
1855, 2461.00
1856, 2457.00
1857, 2455.00
1858, 2453.00
1859, 2449.00
1860, 2448.00
1861, 2445.00
1862, 2444.00
1863, 2440.00
1864, 2440.00
1865, 2441.00
1866, 2437.00
1867, 2434.00
1868, 2433.00
1869, 2431.00
1870, 2429.00
1871, 2427.00
1872, 2425.00
1873, 2425.00
1874, 2425.00
1875, 2422.00
1876, 2420.00
1877, 2420.00
1878, 2419.00
1879, 2418.00
1880, 2415.00
1881, 2414.00
1882, 2414.00
1883, 2414.00
1884, 2413.00
1885, 2412.00
1886, 2413.00
1887, 2411.00
1888, 2410.00
1889, 2411.00
1890, 2408.00
1891, 2407.00
1892, 2407.00
1893, 2407.00
1894, 2405.00
1895, 2405.00
1896, 2405.00
1897, 2405.00
1898, 2407.00
1899, 2405.00
1900, 2405.00
1901, 2403.00
1902, 2403.00
1903, 2402.00
1904, 2401.00
1905, 2402.00
1906, 2403.00
1907, 2401.00
1908, 2400.00
1909, 2401.00
1910, 2400.00
1911, 2400.00
1912, 2400.00
1913, 2401.00
1914, 2398.00
1915, 2398.00
1916, 2398.00
1917, 2399.00
1918, 2399.00
1919, 2399.00
1920, 2398.00
1921, 2398.00
1922, 2397.00
1923, 2399.00
1924, 2400.00
1925, 2398.00
1926, 2399.00
1927, 2399.00
1928, 2398.00
1929, 2397.00
1930, 2398.00
1931, 2397.00
1932, 2398.00
1933, 2397.00
1934, 2398.00
1935, 2398.00
1936, 2399.00
1937, 2398.00
1938, 2399.00
1939, 2398.00
1940, 2399.00
1941, 2398.00
1942, 2400.00
1943, 2398.00
1944, 2401.00
1945, 2398.00
1946, 2402.00
1947, 2402.00
1948, 2401.00
1949, 2401.00
1950, 2402.00
1951, 2402.00
1952, 2403.00
1953, 2402.00
1954, 2405.00
1955, 2404.00
1956, 2405.00
1957, 2404.00
1958, 2405.00
1959, 2405.00
1960, 2405.00
1961, 2406.00
1962, 2406.00
1963, 2407.00
1964, 2407.00
1965, 2407.00
1966, 2407.00
1967, 2408.00
1968, 2411.00
1969, 2410.00
1970, 2410.00
1971, 2412.00
1972, 2412.00
1973, 2411.00
1974, 2412.00
1975, 2412.00
1976, 2412.00
1977, 2415.00
1978, 2413.00
1979, 2416.00
1980, 2415.00
1981, 2418.00
1982, 2416.00
1983, 2417.00
1984, 2417.00
1985, 2420.00
1986, 2420.00
1987, 2420.00
1988, 2422.00
1989, 2422.00
1990, 2421.00
1991, 2423.00
1992, 2422.00
1993, 2423.00
1994, 2424.00
1995, 2426.00
1996, 2425.00
1997, 2427.00
1998, 2425.00
1999, 2428.00
2000, 2427.00
2001, 2428.00
2002, 2428.00
2003, 2429.00
2004, 2430.00
2005, 2431.00
2006, 2431.00
2007, 2432.00
2008, 2431.00
2009, 2433.00
2010, 2434.00
2011, 2434.00
2012, 2434.00
2013, 2434.00
2014, 2437.00
2015, 2437.00
2016, 2436.00
2017, 2437.00
2018, 2437.00
2019, 2438.00
2020, 2440.00
2021, 2440.00
2022, 2441.00
2023, 2441.00
2024, 2441.00
2025, 2443.00
2026, 2442.00
2027, 2443.00
2028, 2447.00
2029, 2445.00
2030, 2445.00
2031, 2447.00
2032, 2448.00
2033, 2448.00
2034, 2448.00
2035, 2450.00
2036, 2451.00
2037, 2453.00
2038, 2451.00
2039, 2453.00
2040, 2454.00
2041, 2454.00
2042, 2454.00
2043, 2455.00
2044, 2455.00
2045, 2458.00
2046, 2458.00
2047, 2460.00
2048, 2459.00
2049, 2460.00
2050, 2462.00
2051, 2463.00
2052, 2465.00
2053, 2465.00
2054, 2466.00
2055, 2467.00
2056, 2468.00
2057, 2470.00
2058, 2470.00
2059, 2470.00
2060, 2472.00
2061, 2473.00
2062, 2474.00
2063, 2472.00
2064, 2476.00
2065, 2475.00
2066, 2477.00
2067, 2478.00
2068, 2479.00
2069, 2480.00
2070, 2480.00
2071, 2483.00
2072, 2483.00
2073, 2485.00
2074, 2485.00
2075, 2483.00
2076, 2487.00
2077, 2487.00
2078, 2486.00
2079, 2489.00
2080, 2491.00
2081, 2490.00
2082, 2492.00
2083, 2493.00
2084, 2494.00
2085, 2494.00
2086, 2495.00
2087, 2494.00
2088, 2497.00
2089, 2496.00
2090, 2499.00
2091, 2497.00
2092, 2499.00
2093, 2500.00
2094, 2499.00
2095, 2500.00
2096, 2502.00
2097, 2504.00
2098, 2504.00
2099, 2505.00
2100, 2503.00
2101, 2506.00
2102, 2504.00
2103, 2506.00
2104, 2506.00
2105, 2507.00
2106, 2506.00
2107, 2507.00
2108, 2509.00
2109, 2510.00
2110, 2511.00
2111, 2512.00
2112, 2510.00
2113, 2510.00
2114, 2510.00
2115, 2511.00
2116, 2513.00
2117, 2513.00
2118, 2512.00
2119, 2513.00
2120, 2514.00
2121, 2514.00
2122, 2513.00
2123, 2513.00
2124, 2514.00
2125, 2515.00
2126, 2516.00
2127, 2516.00
2128, 2518.00
2129, 2517.00
2130, 2518.00
2131, 2518.00
2132, 2518.00
2133, 2518.00
2134, 2519.00
2135, 2519.00
2136, 2519.00
2137, 2521.00
2138, 2520.00
2139, 2519.00
2140, 2521.00
2141, 2521.00
2142, 2521.00
2143, 2522.00
2144, 2522.00
2145, 2523.00
2146, 2523.00
2147, 2524.00
2148, 2523.00
2149, 2524.00
2150, 2524.00
