FW version: 24
Log Version: 3.0.3

General Info:
       Command/Macro Performed,            Timestamp,             Device ID, COM Port, UART/I2C, Test Name, Host Major, Host Minor, Host Revision, Host Git Commit
            Single_measurement,  2023_06_30_11_39_52,       Insight2_F4_xxx,    USB-C,      USB,          ,          0,          1,             1,      4031237645

Show Spectrometer Status:
l0_version, f4_version, battery_perc, battery_mVolt, accelerometer_temp, accelerometer_x, accelerometer_y, accelerometer_z, compass_temp, compass_x, compass_y, compass_z, lamp_0, lamp_1, gain_0, gain_1
        17,         24,           95,          2078,               6000,           65480,             380,           18524,            0,     65528,     65404,     65535,   2047,   2047,      1,      1

Temperature Statistic Info:
NTC AVG [°C], NTC2 AVG [°C]
      38.595,        38.275

Statistic Info:
M1:  num,      min,      max,   median,      AVG,      STD,M2:  num,      min,      max,   median,      AVG,      STD
     301,   920.00,  1079.00,   955.00,   973.27,  50.2243,     401,  1345.00,  1443.00,  1385.00,  1388.75,  32.4383,

Measurements:
Wavelength, Data Amplitude
1350, 946.00
1351, 945.00
1352, 946.00
1353, 944.00
1354, 943.00
1355, 943.00
1356, 943.00
1357, 942.00
1358, 942.00
1359, 942.00
1360, 941.00
1361, 940.00
1362, 939.00
1363, 939.00
1364, 938.00
1365, 938.00
1366, 936.00
1367, 936.00
1368, 935.00
1369, 934.00
1370, 934.00
1371, 935.00
1372, 932.00
1373, 930.00
1374, 932.00
1375, 931.00
1376, 930.00
1377, 930.00
1378, 929.00
1379, 928.00
1380, 928.00
1381, 927.00
1382, 927.00
1383, 927.00
1384, 925.00
1385, 925.00
1386, 925.00
1387, 925.00
1388, 924.00
1389, 924.00
1390, 923.00
1391, 924.00
1392, 923.00
1393, 924.00
1394, 922.00
1395, 923.00
1396, 923.00
1397, 923.00
1398, 922.00
1399, 921.00
1400, 922.00
1401, 922.00
1402, 921.00
1403, 922.00
1404, 921.00
1405, 921.00
1406, 921.00
1407, 921.00
1408, 921.00
1409, 922.00
1410, 921.00
1411, 922.00
1412, 922.00
1413, 921.00
1414, 920.00
1415, 920.00
1416, 921.00
1417, 920.00
1418, 921.00
1419, 921.00
1420, 921.00
1421, 921.00
1422, 921.00
1423, 922.00
1424, 921.00
1425, 921.00
1426, 921.00
1427, 922.00
1428, 921.00
1429, 922.00
1430, 922.00
1431, 922.00
1432, 921.00
1433, 922.00
1434, 922.00
1435, 922.00
1436, 923.00
1437, 923.00
1438, 924.00
1439, 924.00
1440, 923.00
1441, 924.00
1442, 924.00
1443, 925.00
1444, 925.00
1445, 925.00
1446, 925.00
1447, 927.00
1448, 926.00
1449, 926.00
1450, 928.00
1451, 927.00
1452, 928.00
1453, 928.00
1454, 928.00
1455, 929.00
1456, 929.00
1457, 929.00
1458, 929.00
1459, 929.00
1460, 931.00
1461, 932.00
1462, 932.00
1463, 931.00
1464, 932.00
1465, 933.00
1466, 933.00
1467, 933.00
1468, 934.00
1469, 935.00
1470, 936.00
1471, 935.00
1472, 937.00
1473, 937.00
1474, 937.00
1475, 937.00
1476, 939.00
1477, 939.00
1478, 941.00
1479, 940.00
1480, 940.00
1481, 941.00
1482, 942.00
1483, 943.00
1484, 944.00
1485, 944.00
1486, 945.00
1487, 946.00
1488, 946.00
1489, 947.00
1490, 948.00
1491, 948.00
1492, 949.00
1493, 950.00
1494, 950.00
1495, 951.00
1496, 951.00
1497, 952.00
1498, 953.00
1499, 954.00
1500, 955.00
1501, 955.00
1502, 955.00
1503, 956.00
1504, 956.00
1505, 957.00
1506, 958.00
1507, 958.00
1508, 959.00
1509, 960.00
1510, 961.00
1511, 961.00
1512, 963.00
1513, 964.00
1514, 965.00
1515, 965.00
1516, 966.00
1517, 967.00
1518, 967.00
1519, 969.00
1520, 969.00
1521, 970.00
1522, 970.00
1523, 971.00
1524, 972.00
1525, 973.00
1526, 974.00
1527, 975.00
1528, 975.00
1529, 976.00
1530, 977.00
1531, 978.00
1532, 978.00
1533, 979.00
1534, 980.00
1535, 981.00
1536, 981.00
1537, 983.00
1538, 984.00
1539, 984.00
1540, 985.00
1541, 986.00
1542, 986.00
1543, 987.00
1544, 987.00
1545, 989.00
1546, 989.00
1547, 991.00
1548, 990.00
1549, 993.00
1550, 993.00
1551, 994.00
1552, 995.00
1553, 995.00
1554, 996.00
1555, 997.00
1556, 998.00
1557, 999.00
1558, 1000.00
1559, 1001.00
1560, 1002.00
1561, 1002.00
1562, 1002.00
1563, 1004.00
1564, 1005.00
1565, 1006.00
1566, 1006.00
1567, 1007.00
1568, 1009.00
1569, 1009.00
1570, 1011.00
1571, 1011.00
1572, 1012.00
1573, 1013.00
1574, 1013.00
1575, 1014.00
1576, 1015.00
1577, 1016.00
1578, 1017.00
1579, 1018.00
1580, 1019.00
1581, 1021.00
1582, 1021.00
1583, 1021.00
1584, 1021.00
1585, 1024.00
1586, 1024.00
1587, 1024.00
1588, 1025.00
1589, 1026.00
1590, 1027.00
1591, 1028.00
1592, 1028.00
1593, 1030.00
1594, 1030.00
1595, 1031.00
1596, 1031.00
1597, 1032.00
1598, 1034.00
1599, 1035.00
1600, 1035.00
1601, 1036.00
1602, 1037.00
1603, 1038.00
1604, 1038.00
1605, 1039.00
1606, 1041.00
1607, 1041.00
1608, 1042.00
1609, 1043.00
1610, 1044.00
1611, 1045.00
1612, 1047.00
1613, 1047.00
1614, 1048.00
1615, 1049.00
1616, 1050.00
1617, 1052.00
1618, 1052.00
1619, 1053.00
1620, 1054.00
1621, 1056.00
1622, 1057.00
1623, 1058.00
1624, 1059.00
1625, 1060.00
1626, 1061.00
1627, 1062.00
1628, 1062.00
1629, 1063.00
1630, 1064.00
1631, 1066.00
1632, 1066.00
1633, 1067.00
1634, 1068.00
1635, 1068.00
1636, 1069.00
1637, 1070.00
1638, 1070.00
1639, 1071.00
1640, 1073.00
1641, 1073.00
1642, 1074.00
1643, 1074.00
1644, 1075.00
1645, 1076.00
1646, 1076.00
1647, 1077.00
1648, 1077.00
1649, 1079.00
1650, 1079.00

1750, 1441.00
1751, 1442.00
1752, 1443.00
1753, 1441.00
1754, 1441.00
1755, 1440.00
1756, 1443.00
1757, 1441.00
1758, 1441.00
1759, 1440.00
1760, 1441.00
1761, 1440.00
1762, 1442.00
1763, 1442.00
1764, 1442.00
1765, 1441.00
1766, 1442.00
1767, 1442.00
1768, 1440.00
1769, 1441.00
1770, 1440.00
1771, 1442.00
1772, 1441.00
1773, 1439.00
1774, 1440.00
1775, 1439.00
1776, 1439.00
1777, 1439.00
1778, 1439.00
1779, 1438.00
1780, 1438.00
1781, 1439.00
1782, 1437.00
1783, 1438.00
1784, 1437.00
1785, 1437.00
1786, 1438.00
1787, 1435.00
1788, 1436.00
1789, 1436.00
1790, 1434.00
1791, 1434.00
1792, 1435.00
1793, 1433.00
1794, 1434.00
1795, 1434.00
1796, 1433.00
1797, 1434.00
1798, 1435.00
1799, 1431.00
1800, 1431.00
1801, 1430.00
1802, 1431.00
1803, 1431.00
1804, 1431.00
1805, 1430.00
1806, 1429.00
1807, 1431.00
1808, 1430.00
1809, 1429.00
1810, 1428.00
1811, 1428.00
1812, 1429.00
1813, 1427.00
1814, 1428.00
1815, 1427.00
1816, 1427.00
1817, 1425.00
1818, 1425.00
1819, 1425.00
1820, 1423.00
1821, 1423.00
1822, 1421.00
1823, 1421.00
1824, 1422.00
1825, 1421.00
1826, 1421.00
1827, 1419.00
1828, 1419.00
1829, 1415.00
1830, 1416.00
1831, 1414.00
1832, 1416.00
1833, 1413.00
1834, 1413.00
1835, 1411.00
1836, 1409.00
1837, 1408.00
1838, 1407.00
1839, 1407.00
1840, 1404.00
1841, 1405.00
1842, 1401.00
1843, 1399.00
1844, 1397.00
1845, 1396.00
1846, 1395.00
1847, 1394.00
1848, 1392.00
1849, 1390.00
1850, 1390.00
1851, 1389.00
1852, 1387.00
1853, 1385.00
1854, 1380.00
1855, 1383.00
1856, 1380.00
1857, 1379.00
1858, 1377.00
1859, 1377.00
1860, 1375.00
1861, 1374.00
1862, 1374.00
1863, 1373.00
1864, 1371.00
1865, 1368.00
1866, 1367.00
1867, 1365.00
1868, 1365.00
1869, 1364.00
1870, 1363.00
1871, 1363.00
1872, 1361.00
1873, 1360.00
1874, 1360.00
1875, 1359.00
1876, 1358.00
1877, 1360.00
1878, 1357.00
1879, 1355.00
1880, 1356.00
1881, 1357.00
1882, 1356.00
1883, 1355.00
1884, 1353.00
1885, 1354.00
1886, 1352.00
1887, 1353.00
1888, 1353.00
1889, 1352.00
1890, 1350.00
1891, 1352.00
1892, 1350.00
1893, 1351.00
1894, 1351.00
1895, 1350.00
1896, 1350.00
1897, 1349.00
1898, 1349.00
1899, 1348.00
1900, 1351.00
1901, 1350.00
1902, 1348.00
1903, 1349.00
1904, 1349.00
1905, 1348.00
1906, 1349.00
1907, 1347.00
1908, 1346.00
1909, 1347.00
1910, 1347.00
1911, 1348.00
1912, 1347.00
1913, 1347.00
1914, 1346.00
1915, 1345.00
1916, 1345.00
1917, 1345.00
1918, 1346.00
1919, 1346.00
1920, 1345.00
1921, 1346.00
1922, 1347.00
1923, 1347.00
1924, 1347.00
1925, 1345.00
1926, 1346.00
1927, 1345.00
1928, 1348.00
1929, 1347.00
1930, 1346.00
1931, 1346.00
1932, 1346.00
1933, 1346.00
1934, 1346.00
1935, 1346.00
1936, 1347.00
1937, 1347.00
1938, 1347.00
1939, 1347.00
1940, 1346.00
1941, 1348.00
1942, 1348.00
1943, 1346.00
1944, 1348.00
1945, 1349.00
1946, 1348.00
1947, 1347.00
1948, 1347.00
1949, 1347.00
1950, 1349.00
1951, 1349.00
1952, 1350.00
1953, 1348.00
1954, 1349.00
1955, 1350.00
1956, 1350.00
1957, 1349.00
1958, 1352.00
1959, 1348.00
1960, 1351.00
1961, 1352.00
1962, 1351.00
1963, 1350.00
1964, 1352.00
1965, 1352.00
1966, 1351.00
1967, 1352.00
1968, 1353.00
1969, 1353.00
1970, 1353.00
1971, 1352.00
1972, 1355.00
1973, 1355.00
1974, 1355.00
1975, 1355.00
1976, 1355.00
1977, 1355.00
1978, 1356.00
1979, 1357.00
1980, 1357.00
1981, 1357.00
1982, 1357.00
1983, 1358.00
1984, 1359.00
1985, 1358.00
1986, 1361.00
1987, 1361.00
1988, 1359.00
1989, 1359.00
1990, 1360.00
1991, 1361.00
1992, 1361.00
1993, 1361.00
1994, 1363.00
1995, 1362.00
1996, 1362.00
1997, 1363.00
1998, 1365.00
1999, 1363.00
2000, 1362.00
2001, 1364.00
2002, 1364.00
2003, 1366.00
2004, 1364.00
2005, 1365.00
2006, 1366.00
2007, 1366.00
2008, 1366.00
2009, 1367.00
2010, 1367.00
2011, 1367.00
2012, 1368.00
2013, 1369.00
2014, 1368.00
2015, 1369.00
2016, 1370.00
2017, 1371.00
2018, 1369.00
2019, 1370.00
2020, 1370.00
2021, 1371.00
2022, 1371.00
2023, 1371.00
2024, 1372.00
2025, 1373.00
2026, 1374.00
2027, 1374.00
2028, 1375.00
2029, 1374.00
2030, 1375.00
2031, 1375.00
2032, 1376.00
2033, 1377.00
2034, 1378.00
2035, 1378.00
2036, 1377.00
2037, 1378.00
2038, 1380.00
2039, 1377.00
2040, 1379.00
2041, 1381.00
2042, 1378.00
2043, 1381.00
2044, 1381.00
2045, 1382.00
2046, 1381.00
2047, 1383.00
2048, 1383.00
2049, 1383.00
2050, 1384.00
2051, 1385.00
2052, 1385.00
2053, 1385.00
2054, 1385.00
2055, 1388.00
2056, 1389.00
2057, 1389.00
2058, 1389.00
2059, 1390.00
2060, 1390.00
2061, 1391.00
2062, 1392.00
2063, 1391.00
2064, 1394.00
2065, 1393.00
2066, 1396.00
2067, 1396.00
2068, 1396.00
2069, 1396.00
2070, 1396.00
2071, 1396.00
2072, 1397.00
2073, 1397.00
2074, 1397.00
2075, 1399.00
2076, 1399.00
2077, 1399.00
2078, 1402.00
2079, 1400.00
2080, 1403.00
2081, 1401.00
2082, 1400.00
2083, 1404.00
2084, 1403.00
2085, 1403.00
2086, 1403.00
2087, 1403.00
2088, 1407.00
2089, 1406.00
2090, 1407.00
2091, 1406.00
2092, 1408.00
2093, 1407.00
2094, 1408.00
2095, 1409.00
2096, 1408.00
2097, 1409.00
2098, 1409.00
2099, 1410.00
2100, 1411.00
2101, 1409.00
2102, 1411.00
2103, 1412.00
2104, 1411.00
2105, 1412.00
2106, 1414.00
2107, 1413.00
2108, 1413.00
2109, 1413.00
2110, 1413.00
2111, 1414.00
2112, 1414.00
2113, 1413.00
2114, 1415.00
2115, 1415.00
2116, 1415.00
2117, 1415.00
2118, 1415.00
2119, 1416.00
2120, 1416.00
2121, 1415.00
2122, 1417.00
2123, 1418.00
2124, 1418.00
2125, 1417.00
2126, 1418.00
2127, 1418.00
2128, 1418.00
2129, 1419.00
2130, 1418.00
2131, 1420.00
2132, 1421.00
2133, 1421.00
2134, 1419.00
2135, 1421.00
2136, 1418.00
2137, 1420.00
2138, 1422.00
2139, 1421.00
2140, 1420.00
2141, 1421.00
2142, 1421.00
2143, 1421.00
2144, 1423.00
2145, 1422.00
2146, 1421.00
2147, 1423.00
2148, 1422.00
2149, 1423.00
2150, 1421.00
