FW version: 24
Log Version: 3.0.3

General Info:
       Command/Macro Performed,            Timestamp,             Device ID, COM Port, UART/I2C, Test Name, Host Major, Host Minor, Host Revision, Host Git Commit
            Single_measurement,  2023_06_30_11_40_41,       Insight2_F4_xxx,    USB-C,      USB,          ,          0,          1,             1,      4031237645

Show Spectrometer Status:
l0_version, f4_version, battery_perc, battery_mVolt, accelerometer_temp, accelerometer_x, accelerometer_y, accelerometer_z, compass_temp, compass_x, compass_y, compass_z, lamp_0, lamp_1, gain_0, gain_1
        17,         24,           95,          2079,               6000,               4,             340,           18520,            0,     65325,     65372,     65532,   3276,   3276,      1,      1

Temperature Statistic Info:
NTC AVG [°C], NTC2 AVG [°C]
      38.825,        38.537

Statistic Info:
M1:  num,      min,      max,   median,      AVG,      STD,M2:  num,      min,      max,   median,      AVG,      STD
     301,  2315.00,  2676.00,  2387.00,  2433.81, 112.0997,     401,  2975.00,  3191.00,  3059.00,  3067.53,  70.0312,

Measurements:
Wavelength, Data Amplitude
1350, 2386.00
1351, 2386.00
1352, 2385.00
1353, 2384.00
1354, 2381.00
1355, 2381.00
1356, 2380.00
1357, 2377.00
1358, 2377.00
1359, 2375.00
1360, 2373.00
1361, 2371.00
1362, 2370.00
1363, 2368.00
1364, 2365.00
1365, 2365.00
1366, 2362.00
1367, 2361.00
1368, 2359.00
1369, 2356.00
1370, 2355.00
1371, 2353.00
1372, 2351.00
1373, 2348.00
1374, 2347.00
1375, 2346.00
1376, 2343.00
1377, 2343.00
1378, 2340.00
1379, 2340.00
1380, 2339.00
1381, 2336.00
1382, 2336.00
1383, 2334.00
1384, 2333.00
1385, 2331.00
1386, 2331.00
1387, 2330.00
1388, 2330.00
1389, 2328.00
1390, 2327.00
1391, 2326.00
1392, 2325.00
1393, 2326.00
1394, 2324.00
1395, 2324.00
1396, 2323.00
1397, 2323.00
1398, 2322.00
1399, 2321.00
1400, 2321.00
1401, 2320.00
1402, 2320.00
1403, 2320.00
1404, 2319.00
1405, 2319.00
1406, 2317.00
1407, 2318.00
1408, 2317.00
1409, 2318.00
1410, 2318.00
1411, 2317.00
1412, 2316.00
1413, 2316.00
1414, 2316.00
1415, 2316.00
1416, 2316.00
1417, 2317.00
1418, 2316.00
1419, 2316.00
1420, 2315.00
1421, 2316.00
1422, 2315.00
1423, 2316.00
1424, 2316.00
1425, 2317.00
1426, 2316.00
1427, 2316.00
1428, 2317.00
1429, 2317.00
1430, 2318.00
1431, 2317.00
1432, 2317.00
1433, 2319.00
1434, 2319.00
1435, 2318.00
1436, 2320.00
1437, 2321.00
1438, 2320.00
1439, 2321.00
1440, 2322.00
1441, 2321.00
1442, 2322.00
1443, 2323.00
1444, 2323.00
1445, 2325.00
1446, 2325.00
1447, 2327.00
1448, 2326.00
1449, 2328.00
1450, 2329.00
1451, 2328.00
1452, 2329.00
1453, 2329.00
1454, 2330.00
1455, 2332.00
1456, 2332.00
1457, 2333.00
1458, 2335.00
1459, 2335.00
1460, 2337.00
1461, 2337.00
1462, 2336.00
1463, 2339.00
1464, 2339.00
1465, 2340.00
1466, 2342.00
1467, 2343.00
1468, 2344.00
1469, 2345.00
1470, 2347.00
1471, 2347.00
1472, 2349.00
1473, 2350.00
1474, 2352.00
1475, 2352.00
1476, 2353.00
1477, 2355.00
1478, 2356.00
1479, 2358.00
1480, 2359.00
1481, 2358.00
1482, 2362.00
1483, 2363.00
1484, 2364.00
1485, 2367.00
1486, 2368.00
1487, 2369.00
1488, 2370.00
1489, 2372.00
1490, 2373.00
1491, 2374.00
1492, 2376.00
1493, 2377.00
1494, 2379.00
1495, 2381.00
1496, 2382.00
1497, 2383.00
1498, 2384.00
1499, 2386.00
1500, 2387.00
1501, 2389.00
1502, 2390.00
1503, 2391.00
1504, 2393.00
1505, 2394.00
1506, 2395.00
1507, 2397.00
1508, 2399.00
1509, 2401.00
1510, 2403.00
1511, 2404.00
1512, 2407.00
1513, 2407.00
1514, 2409.00
1515, 2411.00
1516, 2413.00
1517, 2414.00
1518, 2417.00
1519, 2418.00
1520, 2420.00
1521, 2421.00
1522, 2423.00
1523, 2425.00
1524, 2426.00
1525, 2428.00
1526, 2430.00
1527, 2431.00
1528, 2434.00
1529, 2436.00
1530, 2437.00
1531, 2439.00
1532, 2439.00
1533, 2443.00
1534, 2444.00
1535, 2446.00
1536, 2448.00
1537, 2449.00
1538, 2451.00
1539, 2453.00
1540, 2455.00
1541, 2456.00
1542, 2458.00
1543, 2461.00
1544, 2462.00
1545, 2465.00
1546, 2466.00
1547, 2468.00
1548, 2469.00
1549, 2471.00
1550, 2475.00
1551, 2476.00
1552, 2477.00
1553, 2480.00
1554, 2481.00
1555, 2483.00
1556, 2485.00
1557, 2488.00
1558, 2490.00
1559, 2491.00
1560, 2494.00
1561, 2496.00
1562, 2499.00
1563, 2501.00
1564, 2503.00
1565, 2504.00
1566, 2507.00
1567, 2509.00
1568, 2513.00
1569, 2513.00
1570, 2516.00
1571, 2518.00
1572, 2520.00
1573, 2521.00
1574, 2524.00
1575, 2525.00
1576, 2527.00
1577, 2529.00
1578, 2531.00
1579, 2533.00
1580, 2535.00
1581, 2535.00
1582, 2539.00
1583, 2541.00
1584, 2542.00
1585, 2545.00
1586, 2546.00
1587, 2547.00
1588, 2550.00
1589, 2551.00
1590, 2553.00
1591, 2556.00
1592, 2557.00
1593, 2560.00
1594, 2561.00
1595, 2563.00
1596, 2564.00
1597, 2567.00
1598, 2569.00
1599, 2571.00
1600, 2572.00
1601, 2575.00
1602, 2576.00
1603, 2577.00
1604, 2579.00
1605, 2581.00
1606, 2585.00
1607, 2587.00
1608, 2588.00
1609, 2591.00
1610, 2592.00
1611, 2595.00
1612, 2598.00
1613, 2600.00
1614, 2602.00
1615, 2605.00
1616, 2607.00
1617, 2609.00
1618, 2611.00
1619, 2612.00
1620, 2615.00
1621, 2618.00
1622, 2619.00
1623, 2622.00
1624, 2625.00
1625, 2627.00
1626, 2629.00
1627, 2632.00
1628, 2633.00
1629, 2636.00
1630, 2638.00
1631, 2641.00
1632, 2642.00
1633, 2645.00
1634, 2646.00
1635, 2647.00
1636, 2650.00
1637, 2651.00
1638, 2653.00
1639, 2655.00
1640, 2657.00
1641, 2659.00
1642, 2661.00
1643, 2664.00
1644, 2665.00
1645, 2667.00
1646, 2668.00
1647, 2671.00
1648, 2672.00
1649, 2675.00
1650, 2676.00

1750, 3189.00
1751, 3190.00
1752, 3191.00
1753, 3191.00
1754, 3189.00
1755, 3190.00
1756, 3190.00
1757, 3190.00
1758, 3191.00
1759, 3188.00
1760, 3189.00
1761, 3189.00
1762, 3189.00
1763, 3187.00
1764, 3188.00
1765, 3190.00
1766, 3188.00
1767, 3189.00
1768, 3189.00
1769, 3187.00
1770, 3186.00
1771, 3186.00
1772, 3185.00
1773, 3185.00
1774, 3184.00
1775, 3184.00
1776, 3184.00
1777, 3181.00
1778, 3182.00
1779, 3181.00
1780, 3181.00
1781, 3180.00
1782, 3180.00
1783, 3179.00
1784, 3180.00
1785, 3178.00
1786, 3177.00
1787, 3173.00
1788, 3174.00
1789, 3174.00
1790, 3173.00
1791, 3172.00
1792, 3171.00
1793, 3169.00
1794, 3169.00
1795, 3170.00
1796, 3168.00
1797, 3168.00
1798, 3166.00
1799, 3166.00
1800, 3165.00
1801, 3166.00
1802, 3165.00
1803, 3161.00
1804, 3165.00
1805, 3163.00
1806, 3162.00
1807, 3161.00
1808, 3159.00
1809, 3158.00
1810, 3158.00
1811, 3157.00
1812, 3155.00
1813, 3156.00
1814, 3154.00
1815, 3154.00
1816, 3153.00
1817, 3153.00
1818, 3151.00
1819, 3151.00
1820, 3149.00
1821, 3145.00
1822, 3146.00
1823, 3142.00
1824, 3141.00
1825, 3140.00
1826, 3139.00
1827, 3137.00
1828, 3135.00
1829, 3135.00
1830, 3131.00
1831, 3129.00
1832, 3127.00
1833, 3124.00
1834, 3122.00
1835, 3118.00
1836, 3117.00
1837, 3113.00
1838, 3108.00
1839, 3107.00
1840, 3104.00
1841, 3102.00
1842, 3099.00
1843, 3092.00
1844, 3091.00
1845, 3089.00
1846, 3084.00
1847, 3080.00
1848, 3079.00
1849, 3074.00
1850, 3071.00
1851, 3065.00
1852, 3066.00
1853, 3061.00
1854, 3059.00
1855, 3055.00
1856, 3054.00
1857, 3049.00
1858, 3046.00
1859, 3043.00
1860, 3040.00
1861, 3035.00
1862, 3034.00
1863, 3031.00
1864, 3029.00
1865, 3027.00
1866, 3024.00
1867, 3021.00
1868, 3021.00
1869, 3018.00
1870, 3015.00
1871, 3013.00
1872, 3011.00
1873, 3009.00
1874, 3009.00
1875, 3006.00
1876, 3005.00
1877, 3005.00
1878, 3005.00
1879, 3001.00
1880, 2999.00
1881, 3001.00
1882, 2998.00
1883, 2998.00
1884, 2998.00
1885, 2996.00
1886, 2994.00
1887, 2992.00
1888, 2991.00
1889, 2989.00
1890, 2991.00
1891, 2989.00
1892, 2989.00
1893, 2990.00
1894, 2989.00
1895, 2989.00
1896, 2987.00
1897, 2987.00
1898, 2986.00
1899, 2984.00
1900, 2983.00
1901, 2983.00
1902, 2983.00
1903, 2984.00
1904, 2984.00
1905, 2982.00
1906, 2982.00
1907, 2985.00
1908, 2980.00
1909, 2979.00
1910, 2979.00
1911, 2978.00
1912, 2979.00
1913, 2980.00
1914, 2977.00
1915, 2980.00
1916, 2979.00
1917, 2977.00
1918, 2977.00
1919, 2975.00
1920, 2978.00
1921, 2978.00
1922, 2979.00
1923, 2976.00
1924, 2976.00
1925, 2979.00
1926, 2977.00
1927, 2976.00
1928, 2979.00
1929, 2978.00
1930, 2978.00
1931, 2978.00
1932, 2976.00
1933, 2978.00
1934, 2978.00
1935, 2979.00
1936, 2977.00
1937, 2978.00
1938, 2978.00
1939, 2978.00
1940, 2980.00
1941, 2980.00
1942, 2979.00
1943, 2979.00
1944, 2982.00
1945, 2980.00
1946, 2979.00
1947, 2981.00
1948, 2980.00
1949, 2981.00
1950, 2981.00
1951, 2982.00
1952, 2982.00
1953, 2982.00
1954, 2983.00
1955, 2984.00
1956, 2985.00
1957, 2986.00
1958, 2987.00
1959, 2987.00
1960, 2985.00
1961, 2988.00
1962, 2988.00
1963, 2986.00
1964, 2989.00
1965, 2989.00
1966, 2989.00
1967, 2990.00
1968, 2991.00
1969, 2991.00
1970, 2993.00
1971, 2994.00
1972, 2994.00
1973, 2993.00
1974, 2995.00
1975, 2993.00
1976, 2996.00
1977, 2998.00
1978, 2998.00
1979, 2999.00
1980, 3000.00
1981, 2998.00
1982, 2999.00
1983, 3000.00
1984, 3002.00
1985, 3003.00
1986, 3003.00
1987, 3004.00
1988, 3005.00
1989, 3005.00
1990, 3005.00
1991, 3007.00
1992, 3007.00
1993, 3008.00
1994, 3008.00
1995, 3009.00
1996, 3011.00
1997, 3011.00
1998, 3010.00
1999, 3011.00
2000, 3012.00
2001, 3014.00
2002, 3015.00
2003, 3016.00
2004, 3017.00
2005, 3018.00
2006, 3018.00
2007, 3018.00
2008, 3021.00
2009, 3019.00
2010, 3019.00
2011, 3021.00
2012, 3019.00
2013, 3022.00
2014, 3023.00
2015, 3024.00
2016, 3023.00
2017, 3028.00
2018, 3027.00
2019, 3027.00
2020, 3028.00
2021, 3030.00
2022, 3030.00
2023, 3031.00
2024, 3030.00
2025, 3030.00
2026, 3032.00
2027, 3034.00
2028, 3033.00
2029, 3035.00
2030, 3039.00
2031, 3037.00
2032, 3037.00
2033, 3040.00
2034, 3040.00
2035, 3041.00
2036, 3040.00
2037, 3043.00
2038, 3043.00
2039, 3043.00
2040, 3045.00
2041, 3046.00
2042, 3047.00
2043, 3049.00
2044, 3049.00
2045, 3049.00
2046, 3050.00
2047, 3050.00
2048, 3054.00
2049, 3054.00
2050, 3057.00
2051, 3057.00
2052, 3058.00
2053, 3059.00
2054, 3059.00
2055, 3062.00
2056, 3061.00
2057, 3062.00
2058, 3065.00
2059, 3065.00
2060, 3068.00
2061, 3068.00
2062, 3067.00
2063, 3071.00
2064, 3073.00
2065, 3071.00
2066, 3072.00
2067, 3075.00
2068, 3076.00
2069, 3076.00
2070, 3079.00
2071, 3080.00
2072, 3081.00
2073, 3082.00
2074, 3083.00
2075, 3085.00
2076, 3085.00
2077, 3085.00
2078, 3088.00
2079, 3087.00
2080, 3089.00
2081, 3090.00
2082, 3091.00
2083, 3092.00
2084, 3093.00
2085, 3093.00
2086, 3095.00
2087, 3095.00
2088, 3097.00
2089, 3098.00
2090, 3099.00
2091, 3101.00
2092, 3099.00
2093, 3101.00
2094, 3103.00
2095, 3103.00
2096, 3104.00
2097, 3104.00
2098, 3103.00
2099, 3106.00
2100, 3106.00
2101, 3106.00
2102, 3107.00
2103, 3108.00
2104, 3108.00
2105, 3112.00
2106, 3108.00
2107, 3111.00
2108, 3110.00
2109, 3113.00
2110, 3113.00
2111, 3113.00
2112, 3113.00
2113, 3114.00
2114, 3115.00
2115, 3115.00
2116, 3115.00
2117, 3117.00
2118, 3116.00
2119, 3116.00
2120, 3115.00
2121, 3120.00
2122, 3119.00
2123, 3121.00
2124, 3119.00
2125, 3119.00
2126, 3121.00
2127, 3119.00
2128, 3122.00
2129, 3123.00
2130, 3122.00
2131, 3121.00
2132, 3124.00
2133, 3124.00
2134, 3123.00
2135, 3125.00
2136, 3124.00
2137, 3125.00
2138, 3125.00
2139, 3125.00
2140, 3129.00
2141, 3127.00
2142, 3127.00
2143, 3129.00
2144, 3127.00
2145, 3128.00
2146, 3129.00
2147, 3129.00
2148, 3130.00
2149, 3132.00
2150, 3130.00
