FW version: 24
Log Version: 3.0.3

General Info:
       Command/Macro Performed,            Timestamp,             Device ID, COM Port, UART/I2C, Test Name, Host Major, Host Minor, Host Revision, Host Git Commit
            Single_measurement,  2023_06_30_11_40_30,       Insight2_F4_xxx,    USB-C,      USB,          ,          0,          1,             1,      4031237645

Show Spectrometer Status:
l0_version, f4_version, battery_perc, battery_mVolt, accelerometer_temp, accelerometer_x, accelerometer_y, accelerometer_z, compass_temp, compass_x, compass_y, compass_z, lamp_0, lamp_1, gain_0, gain_1
        17,         24,           95,          2079,               6016,              20,             380,           18560,            0,     65332,     65404,     65530,   2866,   2866,      1,      1

Temperature Statistic Info:
NTC AVG [°C], NTC2 AVG [°C]
      38.768,        38.450

Statistic Info:
M1:  num,      min,      max,   median,      AVG,      STD,M2:  num,      min,      max,   median,      AVG,      STD
     301,  1799.00,  2092.00,  1858.00,  1894.34,  90.3532,     401,  2395.00,  2570.00,  2466.00,  2471.01,  56.5126,

Measurements:
Wavelength, Data Amplitude
1350, 1853.00
1351, 1852.00
1352, 1851.00
1353, 1850.00
1354, 1849.00
1355, 1849.00
1356, 1848.00
1357, 1847.00
1358, 1847.00
1359, 1843.00
1360, 1842.00
1361, 1840.00
1362, 1840.00
1363, 1838.00
1364, 1837.00
1365, 1836.00
1366, 1834.00
1367, 1834.00
1368, 1833.00
1369, 1830.00
1370, 1831.00
1371, 1828.00
1372, 1826.00
1373, 1824.00
1374, 1824.00
1375, 1821.00
1376, 1821.00
1377, 1818.00
1378, 1818.00
1379, 1817.00
1380, 1816.00
1381, 1815.00
1382, 1815.00
1383, 1814.00
1384, 1812.00
1385, 1811.00
1386, 1810.00
1387, 1809.00
1388, 1809.00
1389, 1808.00
1390, 1807.00
1391, 1808.00
1392, 1808.00
1393, 1807.00
1394, 1807.00
1395, 1805.00
1396, 1805.00
1397, 1805.00
1398, 1803.00
1399, 1803.00
1400, 1803.00
1401, 1803.00
1402, 1802.00
1403, 1802.00
1404, 1802.00
1405, 1803.00
1406, 1802.00
1407, 1802.00
1408, 1801.00
1409, 1802.00
1410, 1801.00
1411, 1801.00
1412, 1801.00
1413, 1800.00
1414, 1799.00
1415, 1799.00
1416, 1800.00
1417, 1800.00
1418, 1800.00
1419, 1801.00
1420, 1800.00
1421, 1800.00
1422, 1800.00
1423, 1801.00
1424, 1801.00
1425, 1799.00
1426, 1800.00
1427, 1801.00
1428, 1801.00
1429, 1801.00
1430, 1801.00
1431, 1801.00
1432, 1801.00
1433, 1802.00
1434, 1803.00
1435, 1803.00
1436, 1803.00
1437, 1804.00
1438, 1804.00
1439, 1804.00
1440, 1804.00
1441, 1805.00
1442, 1805.00
1443, 1805.00
1444, 1805.00
1445, 1807.00
1446, 1808.00
1447, 1809.00
1448, 1808.00
1449, 1809.00
1450, 1810.00
1451, 1810.00
1452, 1810.00
1453, 1811.00
1454, 1812.00
1455, 1812.00
1456, 1813.00
1457, 1813.00
1458, 1814.00
1459, 1815.00
1460, 1815.00
1461, 1817.00
1462, 1817.00
1463, 1818.00
1464, 1819.00
1465, 1819.00
1466, 1820.00
1467, 1822.00
1468, 1822.00
1469, 1823.00
1470, 1824.00
1471, 1825.00
1472, 1826.00
1473, 1827.00
1474, 1828.00
1475, 1830.00
1476, 1830.00
1477, 1831.00
1478, 1833.00
1479, 1834.00
1480, 1834.00
1481, 1836.00
1482, 1837.00
1483, 1838.00
1484, 1839.00
1485, 1840.00
1486, 1841.00
1487, 1843.00
1488, 1844.00
1489, 1845.00
1490, 1847.00
1491, 1847.00
1492, 1848.00
1493, 1849.00
1494, 1850.00
1495, 1852.00
1496, 1853.00
1497, 1854.00
1498, 1855.00
1499, 1855.00
1500, 1858.00
1501, 1859.00
1502, 1860.00
1503, 1860.00
1504, 1863.00
1505, 1863.00
1506, 1864.00
1507, 1866.00
1508, 1867.00
1509, 1869.00
1510, 1870.00
1511, 1871.00
1512, 1872.00
1513, 1874.00
1514, 1875.00
1515, 1876.00
1516, 1878.00
1517, 1881.00
1518, 1881.00
1519, 1881.00
1520, 1883.00
1521, 1885.00
1522, 1885.00
1523, 1887.00
1524, 1889.00
1525, 1890.00
1526, 1893.00
1527, 1894.00
1528, 1895.00
1529, 1896.00
1530, 1898.00
1531, 1898.00
1532, 1901.00
1533, 1902.00
1534, 1904.00
1535, 1905.00
1536, 1905.00
1537, 1908.00
1538, 1910.00
1539, 1910.00
1540, 1912.00
1541, 1913.00
1542, 1915.00
1543, 1917.00
1544, 1917.00
1545, 1919.00
1546, 1921.00
1547, 1922.00
1548, 1923.00
1549, 1924.00
1550, 1927.00
1551, 1929.00
1552, 1931.00
1553, 1932.00
1554, 1933.00
1555, 1935.00
1556, 1937.00
1557, 1938.00
1558, 1939.00
1559, 1941.00
1560, 1943.00
1561, 1945.00
1562, 1946.00
1563, 1948.00
1564, 1950.00
1565, 1951.00
1566, 1953.00
1567, 1955.00
1568, 1956.00
1569, 1959.00
1570, 1959.00
1571, 1962.00
1572, 1963.00
1573, 1965.00
1574, 1965.00
1575, 1969.00
1576, 1970.00
1577, 1971.00
1578, 1973.00
1579, 1973.00
1580, 1976.00
1581, 1977.00
1582, 1979.00
1583, 1980.00
1584, 1981.00
1585, 1983.00
1586, 1984.00
1587, 1986.00
1588, 1987.00
1589, 1989.00
1590, 1990.00
1591, 1991.00
1592, 1993.00
1593, 1995.00
1594, 1995.00
1595, 1997.00
1596, 1998.00
1597, 2001.00
1598, 2002.00
1599, 2003.00
1600, 2005.00
1601, 2007.00
1602, 2009.00
1603, 2010.00
1604, 2012.00
1605, 2013.00
1606, 2015.00
1607, 2017.00
1608, 2018.00
1609, 2020.00
1610, 2023.00
1611, 2024.00
1612, 2027.00
1613, 2027.00
1614, 2029.00
1615, 2031.00
1616, 2034.00
1617, 2035.00
1618, 2037.00
1619, 2038.00
1620, 2040.00
1621, 2042.00
1622, 2045.00
1623, 2046.00
1624, 2048.00
1625, 2049.00
1626, 2053.00
1627, 2055.00
1628, 2056.00
1629, 2058.00
1630, 2059.00
1631, 2059.00
1632, 2063.00
1633, 2065.00
1634, 2067.00
1635, 2067.00
1636, 2069.00
1637, 2071.00
1638, 2072.00
1639, 2073.00
1640, 2075.00
1641, 2076.00
1642, 2078.00
1643, 2079.00
1644, 2082.00
1645, 2083.00
1646, 2084.00
1647, 2086.00
1648, 2087.00
1649, 2089.00
1650, 2092.00

1750, 2568.00
1751, 2569.00
1752, 2568.00
1753, 2569.00
1754, 2569.00
1755, 2569.00
1756, 2570.00
1757, 2568.00
1758, 2568.00
1759, 2569.00
1760, 2567.00
1761, 2568.00
1762, 2566.00
1763, 2567.00
1764, 2568.00
1765, 2567.00
1766, 2567.00
1767, 2567.00
1768, 2567.00
1769, 2567.00
1770, 2565.00
1771, 2563.00
1772, 2565.00
1773, 2564.00
1774, 2563.00
1775, 2563.00
1776, 2561.00
1777, 2562.00
1778, 2562.00
1779, 2563.00
1780, 2563.00
1781, 2559.00
1782, 2562.00
1783, 2559.00
1784, 2560.00
1785, 2556.00
1786, 2557.00
1787, 2556.00
1788, 2556.00
1789, 2555.00
1790, 2555.00
1791, 2554.00
1792, 2553.00
1793, 2554.00
1794, 2552.00
1795, 2553.00
1796, 2552.00
1797, 2552.00
1798, 2550.00
1799, 2549.00
1800, 2548.00
1801, 2549.00
1802, 2549.00
1803, 2548.00
1804, 2546.00
1805, 2546.00
1806, 2545.00
1807, 2546.00
1808, 2543.00
1809, 2545.00
1810, 2544.00
1811, 2542.00
1812, 2541.00
1813, 2541.00
1814, 2542.00
1815, 2539.00
1816, 2539.00
1817, 2538.00
1818, 2538.00
1819, 2535.00
1820, 2534.00
1821, 2535.00
1822, 2535.00
1823, 2531.00
1824, 2530.00
1825, 2530.00
1826, 2528.00
1827, 2526.00
1828, 2525.00
1829, 2523.00
1830, 2519.00
1831, 2518.00
1832, 2518.00
1833, 2515.00
1834, 2514.00
1835, 2511.00
1836, 2511.00
1837, 2508.00
1838, 2504.00
1839, 2503.00
1840, 2499.00
1841, 2498.00
1842, 2493.00
1843, 2493.00
1844, 2491.00
1845, 2487.00
1846, 2485.00
1847, 2483.00
1848, 2480.00
1849, 2476.00
1850, 2471.00
1851, 2469.00
1852, 2468.00
1853, 2466.00
1854, 2464.00
1855, 2460.00
1856, 2456.00
1857, 2456.00
1858, 2454.00
1859, 2451.00
1860, 2448.00
1861, 2445.00
1862, 2443.00
1863, 2442.00
1864, 2439.00
1865, 2436.00
1866, 2435.00
1867, 2435.00
1868, 2431.00
1869, 2431.00
1870, 2429.00
1871, 2428.00
1872, 2425.00
1873, 2422.00
1874, 2422.00
1875, 2423.00
1876, 2419.00
1877, 2420.00
1878, 2418.00
1879, 2417.00
1880, 2416.00
1881, 2415.00
1882, 2415.00
1883, 2414.00
1884, 2413.00
1885, 2413.00
1886, 2411.00
1887, 2413.00
1888, 2410.00
1889, 2407.00
1890, 2409.00
1891, 2408.00
1892, 2406.00
1893, 2406.00
1894, 2405.00
1895, 2405.00
1896, 2404.00
1897, 2404.00
1898, 2403.00
1899, 2403.00
1900, 2402.00
1901, 2403.00
1902, 2403.00
1903, 2403.00
1904, 2401.00
1905, 2401.00
1906, 2401.00
1907, 2399.00
1908, 2400.00
1909, 2401.00
1910, 2400.00
1911, 2401.00
1912, 2399.00
1913, 2400.00
1914, 2397.00
1915, 2399.00
1916, 2397.00
1917, 2398.00
1918, 2398.00
1919, 2397.00
1920, 2401.00
1921, 2398.00
1922, 2398.00
1923, 2399.00
1924, 2399.00
1925, 2399.00
1926, 2397.00
1927, 2397.00
1928, 2395.00
1929, 2399.00
1930, 2398.00
1931, 2396.00
1932, 2399.00
1933, 2397.00
1934, 2397.00
1935, 2398.00
1936, 2398.00
1937, 2398.00
1938, 2397.00
1939, 2400.00
1940, 2399.00
1941, 2398.00
1942, 2397.00
1943, 2400.00
1944, 2400.00
1945, 2399.00
1946, 2399.00
1947, 2402.00
1948, 2402.00
1949, 2403.00
1950, 2400.00
1951, 2400.00
1952, 2402.00
1953, 2403.00
1954, 2401.00
1955, 2403.00
1956, 2403.00
1957, 2404.00
1958, 2403.00
1959, 2405.00
1960, 2407.00
1961, 2405.00
1962, 2405.00
1963, 2408.00
1964, 2408.00
1965, 2408.00
1966, 2408.00
1967, 2409.00
1968, 2410.00
1969, 2409.00
1970, 2409.00
1971, 2412.00
1972, 2410.00
1973, 2412.00
1974, 2414.00
1975, 2414.00
1976, 2414.00
1977, 2413.00
1978, 2417.00
1979, 2415.00
1980, 2415.00
1981, 2417.00
1982, 2416.00
1983, 2418.00
1984, 2417.00
1985, 2420.00
1986, 2421.00
1987, 2423.00
1988, 2419.00
1989, 2423.00
1990, 2421.00
1991, 2423.00
1992, 2421.00
1993, 2424.00
1994, 2423.00
1995, 2425.00
1996, 2425.00
1997, 2425.00
1998, 2427.00
1999, 2427.00
2000, 2429.00
2001, 2427.00
2002, 2428.00
2003, 2429.00
2004, 2429.00
2005, 2431.00
2006, 2431.00
2007, 2431.00
2008, 2431.00
2009, 2434.00
2010, 2433.00
2011, 2433.00
2012, 2435.00
2013, 2435.00
2014, 2435.00
2015, 2436.00
2016, 2436.00
2017, 2437.00
2018, 2438.00
2019, 2438.00
2020, 2440.00
2021, 2439.00
2022, 2440.00
2023, 2440.00
2024, 2442.00
2025, 2443.00
2026, 2442.00
2027, 2444.00
2028, 2443.00
2029, 2446.00
2030, 2445.00
2031, 2446.00
2032, 2448.00
2033, 2449.00
2034, 2449.00
2035, 2449.00
2036, 2451.00
2037, 2452.00
2038, 2451.00
2039, 2453.00
2040, 2452.00
2041, 2456.00
2042, 2454.00
2043, 2455.00
2044, 2456.00
2045, 2459.00
2046, 2458.00
2047, 2460.00
2048, 2458.00
2049, 2461.00
2050, 2462.00
2051, 2463.00
2052, 2463.00
2053, 2465.00
2054, 2466.00
2055, 2468.00
2056, 2467.00
2057, 2469.00
2058, 2470.00
2059, 2470.00
2060, 2470.00
2061, 2472.00
2062, 2474.00
2063, 2472.00
2064, 2474.00
2065, 2475.00
2066, 2477.00
2067, 2478.00
2068, 2479.00
2069, 2479.00
2070, 2481.00
2071, 2481.00
2072, 2482.00
2073, 2482.00
2074, 2483.00
2075, 2485.00
2076, 2486.00
2077, 2490.00
2078, 2490.00
2079, 2487.00
2080, 2490.00
2081, 2492.00
2082, 2491.00
2083, 2492.00
2084, 2493.00
2085, 2494.00
2086, 2495.00
2087, 2494.00
2088, 2495.00
2089, 2496.00
2090, 2497.00
2091, 2499.00
2092, 2498.00
2093, 2498.00
2094, 2500.00
2095, 2502.00
2096, 2500.00
2097, 2504.00
2098, 2505.00
2099, 2503.00
2100, 2504.00
2101, 2504.00
2102, 2505.00
2103, 2504.00
2104, 2507.00
2105, 2506.00
2106, 2507.00
2107, 2510.00
2108, 2509.00
2109, 2509.00
2110, 2509.00
2111, 2509.00
2112, 2510.00
2113, 2509.00
2114, 2511.00
2115, 2511.00
2116, 2512.00
2117, 2513.00
2118, 2512.00
2119, 2512.00
2120, 2513.00
2121, 2512.00
2122, 2514.00
2123, 2515.00
2124, 2514.00
2125, 2515.00
2126, 2516.00
2127, 2514.00
2128, 2515.00
2129, 2516.00
2130, 2517.00
2131, 2516.00
2132, 2519.00
2133, 2519.00
2134, 2521.00
2135, 2518.00
2136, 2518.00
2137, 2520.00
2138, 2521.00
2139, 2520.00
2140, 2522.00
2141, 2522.00
2142, 2523.00
2143, 2521.00
2144, 2522.00
2145, 2523.00
2146, 2523.00
2147, 2524.00
2148, 2522.00
2149, 2523.00
2150, 2524.00
