FW version: 24
Log Version: 3.0.3

General Info:
       Command/Macro Performed,            Timestamp,             Device ID, COM Port, UART/I2C, Test Name, Host Major, Host Minor, Host Revision, Host Git Commit
            Single_measurement,  2023_06_30_11_39_32,       Insight2_F4_xxx,    USB-C,      USB,          ,          0,          1,             1,      4031237645

Show Spectrometer Status:
l0_version, f4_version, battery_perc, battery_mVolt, accelerometer_temp, accelerometer_x, accelerometer_y, accelerometer_z, compass_temp, compass_x, compass_y, compass_z, lamp_0, lamp_1, gain_0, gain_1
        17,         24,           95,          2080,               6000,             252,             416,           18484,            0,     65532,     65524,     65534,   3276,   3276,      0,      0

Temperature Statistic Info:
NTC AVG [°C], NTC2 AVG [°C]
      38.508,        38.245

Statistic Info:
M1:  num,      min,      max,   median,      AVG,      STD,M2:  num,      min,      max,   median,      AVG,      STD
     301,   798.00,   922.00,   823.00,   839.04,  38.5204,     401,  1028.00,  1103.00,  1056.00,  1059.49,  24.1660,

Measurements:
Wavelength, Data Amplitude
1350, 823.00
1351, 822.00
1352, 822.00
1353, 822.00
1354, 821.00
1355, 821.00
1356, 821.00
1357, 820.00
1358, 819.00
1359, 819.00
1360, 818.00
1361, 817.00
1362, 817.00
1363, 816.00
1364, 815.00
1365, 815.00
1366, 814.00
1367, 814.00
1368, 813.00
1369, 813.00
1370, 812.00
1371, 811.00
1372, 810.00
1373, 810.00
1374, 810.00
1375, 809.00
1376, 808.00
1377, 808.00
1378, 807.00
1379, 807.00
1380, 806.00
1381, 806.00
1382, 805.00
1383, 805.00
1384, 805.00
1385, 804.00
1386, 804.00
1387, 803.00
1388, 803.00
1389, 803.00
1390, 802.00
1391, 802.00
1392, 802.00
1393, 802.00
1394, 801.00
1395, 802.00
1396, 801.00
1397, 801.00
1398, 801.00
1399, 800.00
1400, 800.00
1401, 800.00
1402, 800.00
1403, 800.00
1404, 800.00
1405, 800.00
1406, 800.00
1407, 800.00
1408, 800.00
1409, 800.00
1410, 799.00
1411, 799.00
1412, 799.00
1413, 799.00
1414, 799.00
1415, 798.00
1416, 799.00
1417, 799.00
1418, 798.00
1419, 798.00
1420, 799.00
1421, 799.00
1422, 798.00
1423, 799.00
1424, 798.00
1425, 798.00
1426, 799.00
1427, 799.00
1428, 799.00
1429, 799.00
1430, 799.00
1431, 799.00
1432, 799.00
1433, 799.00
1434, 800.00
1435, 800.00
1436, 800.00
1437, 800.00
1438, 800.00
1439, 800.00
1440, 800.00
1441, 800.00
1442, 801.00
1443, 801.00
1444, 801.00
1445, 802.00
1446, 802.00
1447, 802.00
1448, 802.00
1449, 803.00
1450, 803.00
1451, 803.00
1452, 803.00
1453, 803.00
1454, 803.00
1455, 803.00
1456, 804.00
1457, 804.00
1458, 804.00
1459, 804.00
1460, 806.00
1461, 806.00
1462, 806.00
1463, 806.00
1464, 806.00
1465, 807.00
1466, 807.00
1467, 808.00
1468, 808.00
1469, 808.00
1470, 809.00
1471, 809.00
1472, 810.00
1473, 810.00
1474, 811.00
1475, 811.00
1476, 811.00
1477, 811.00
1478, 812.00
1479, 812.00
1480, 813.00
1481, 814.00
1482, 813.00
1483, 814.00
1484, 815.00
1485, 815.00
1486, 816.00
1487, 816.00
1488, 817.00
1489, 817.00
1490, 818.00
1491, 818.00
1492, 819.00
1493, 820.00
1494, 820.00
1495, 821.00
1496, 821.00
1497, 821.00
1498, 822.00
1499, 823.00
1500, 823.00
1501, 824.00
1502, 824.00
1503, 825.00
1504, 825.00
1505, 825.00
1506, 826.00
1507, 826.00
1508, 827.00
1509, 828.00
1510, 828.00
1511, 828.00
1512, 829.00
1513, 830.00
1514, 830.00
1515, 831.00
1516, 832.00
1517, 832.00
1518, 833.00
1519, 833.00
1520, 834.00
1521, 834.00
1522, 836.00
1523, 836.00
1524, 836.00
1525, 837.00
1526, 838.00
1527, 838.00
1528, 839.00
1529, 840.00
1530, 840.00
1531, 841.00
1532, 842.00
1533, 842.00
1534, 843.00
1535, 843.00
1536, 844.00
1537, 845.00
1538, 845.00
1539, 846.00
1540, 847.00
1541, 847.00
1542, 849.00
1543, 849.00
1544, 849.00
1545, 850.00
1546, 850.00
1547, 851.00
1548, 852.00
1549, 852.00
1550, 853.00
1551, 854.00
1552, 855.00
1553, 855.00
1554, 856.00
1555, 856.00
1556, 857.00
1557, 858.00
1558, 858.00
1559, 859.00
1560, 860.00
1561, 861.00
1562, 862.00
1563, 862.00
1564, 863.00
1565, 864.00
1566, 865.00
1567, 864.00
1568, 866.00
1569, 866.00
1570, 867.00
1571, 868.00
1572, 868.00
1573, 869.00
1574, 870.00
1575, 871.00
1576, 872.00
1577, 873.00
1578, 873.00
1579, 873.00
1580, 874.00
1581, 874.00
1582, 875.00
1583, 875.00
1584, 876.00
1585, 877.00
1586, 878.00
1587, 879.00
1588, 880.00
1589, 880.00
1590, 880.00
1591, 881.00
1592, 881.00
1593, 881.00
1594, 883.00
1595, 883.00
1596, 884.00
1597, 885.00
1598, 886.00
1599, 886.00
1600, 886.00
1601, 887.00
1602, 888.00
1603, 888.00
1604, 889.00
1605, 890.00
1606, 891.00
1607, 891.00
1608, 892.00
1609, 893.00
1610, 894.00
1611, 895.00
1612, 895.00
1613, 895.00
1614, 896.00
1615, 897.00
1616, 898.00
1617, 899.00
1618, 900.00
1619, 901.00
1620, 902.00
1621, 902.00
1622, 903.00
1623, 904.00
1624, 904.00
1625, 905.00
1626, 907.00
1627, 907.00
1628, 908.00
1629, 909.00
1630, 909.00
1631, 910.00
1632, 910.00
1633, 911.00
1634, 912.00
1635, 913.00
1636, 913.00
1637, 914.00
1638, 915.00
1639, 915.00
1640, 915.00
1641, 916.00
1642, 917.00
1643, 918.00
1644, 918.00
1645, 919.00
1646, 919.00
1647, 920.00
1648, 921.00
1649, 922.00
1650, 922.00

1750, 1102.00
1751, 1102.00
1752, 1102.00
1753, 1102.00
1754, 1102.00
1755, 1103.00
1756, 1102.00
1757, 1101.00
1758, 1102.00
1759, 1102.00
1760, 1102.00
1761, 1101.00
1762, 1101.00
1763, 1102.00
1764, 1102.00
1765, 1101.00
1766, 1101.00
1767, 1100.00
1768, 1100.00
1769, 1100.00
1770, 1101.00
1771, 1100.00
1772, 1099.00
1773, 1099.00
1774, 1100.00
1775, 1100.00
1776, 1099.00
1777, 1099.00
1778, 1099.00
1779, 1098.00
1780, 1098.00
1781, 1098.00
1782, 1098.00
1783, 1098.00
1784, 1097.00
1785, 1097.00
1786, 1097.00
1787, 1097.00
1788, 1097.00
1789, 1096.00
1790, 1096.00
1791, 1096.00
1792, 1096.00
1793, 1095.00
1794, 1095.00
1795, 1094.00
1796, 1095.00
1797, 1094.00
1798, 1094.00
1799, 1094.00
1800, 1093.00
1801, 1093.00
1802, 1093.00
1803, 1093.00
1804, 1092.00
1805, 1092.00
1806, 1092.00
1807, 1092.00
1808, 1092.00
1809, 1092.00
1810, 1091.00
1811, 1091.00
1812, 1091.00
1813, 1090.00
1814, 1090.00
1815, 1090.00
1816, 1089.00
1817, 1089.00
1818, 1088.00
1819, 1088.00
1820, 1087.00
1821, 1087.00
1822, 1086.00
1823, 1086.00
1824, 1085.00
1825, 1084.00
1826, 1084.00
1827, 1083.00
1828, 1083.00
1829, 1082.00
1830, 1082.00
1831, 1080.00
1832, 1080.00
1833, 1079.00
1834, 1078.00
1835, 1077.00
1836, 1076.00
1837, 1075.00
1838, 1075.00
1839, 1074.00
1840, 1073.00
1841, 1072.00
1842, 1070.00
1843, 1069.00
1844, 1067.00
1845, 1067.00
1846, 1065.00
1847, 1065.00
1848, 1063.00
1849, 1062.00
1850, 1061.00
1851, 1060.00
1852, 1059.00
1853, 1058.00
1854, 1056.00
1855, 1056.00
1856, 1055.00
1857, 1053.00
1858, 1052.00
1859, 1052.00
1860, 1050.00
1861, 1048.00
1862, 1048.00
1863, 1047.00
1864, 1047.00
1865, 1045.00
1866, 1044.00
1867, 1044.00
1868, 1044.00
1869, 1042.00
1870, 1042.00
1871, 1041.00
1872, 1040.00
1873, 1039.00
1874, 1039.00
1875, 1039.00
1876, 1038.00
1877, 1038.00
1878, 1037.00
1879, 1037.00
1880, 1036.00
1881, 1036.00
1882, 1036.00
1883, 1036.00
1884, 1035.00
1885, 1034.00
1886, 1035.00
1887, 1034.00
1888, 1033.00
1889, 1034.00
1890, 1033.00
1891, 1033.00
1892, 1032.00
1893, 1033.00
1894, 1032.00
1895, 1032.00
1896, 1032.00
1897, 1031.00
1898, 1031.00
1899, 1031.00
1900, 1031.00
1901, 1030.00
1902, 1030.00
1903, 1030.00
1904, 1030.00
1905, 1030.00
1906, 1030.00
1907, 1029.00
1908, 1029.00
1909, 1029.00
1910, 1029.00
1911, 1029.00
1912, 1029.00
1913, 1029.00
1914, 1029.00
1915, 1029.00
1916, 1028.00
1917, 1029.00
1918, 1029.00
1919, 1028.00
1920, 1029.00
1921, 1028.00
1922, 1028.00
1923, 1028.00
1924, 1028.00
1925, 1028.00
1926, 1029.00
1927, 1028.00
1928, 1029.00
1929, 1029.00
1930, 1029.00
1931, 1029.00
1932, 1029.00
1933, 1029.00
1934, 1028.00
1935, 1028.00
1936, 1029.00
1937, 1028.00
1938, 1029.00
1939, 1029.00
1940, 1028.00
1941, 1029.00
1942, 1029.00
1943, 1029.00
1944, 1028.00
1945, 1029.00
1946, 1029.00
1947, 1029.00
1948, 1030.00
1949, 1030.00
1950, 1029.00
1951, 1030.00
1952, 1029.00
1953, 1030.00
1954, 1031.00
1955, 1030.00
1956, 1031.00
1957, 1031.00
1958, 1031.00
1959, 1031.00
1960, 1032.00
1961, 1032.00
1962, 1032.00
1963, 1032.00
1964, 1032.00
1965, 1032.00
1966, 1033.00
1967, 1032.00
1968, 1033.00
1969, 1034.00
1970, 1033.00
1971, 1034.00
1972, 1034.00
1973, 1034.00
1974, 1035.00
1975, 1035.00
1976, 1035.00
1977, 1035.00
1978, 1035.00
1979, 1036.00
1980, 1036.00
1981, 1035.00
1982, 1036.00
1983, 1037.00
1984, 1037.00
1985, 1037.00
1986, 1037.00
1987, 1038.00
1988, 1038.00
1989, 1039.00
1990, 1038.00
1991, 1039.00
1992, 1038.00
1993, 1039.00
1994, 1039.00
1995, 1040.00
1996, 1040.00
1997, 1040.00
1998, 1041.00
1999, 1040.00
2000, 1041.00
2001, 1041.00
2002, 1042.00
2003, 1041.00
2004, 1042.00
2005, 1042.00
2006, 1043.00
2007, 1043.00
2008, 1042.00
2009, 1043.00
2010, 1044.00
2011, 1044.00
2012, 1044.00
2013, 1045.00
2014, 1044.00
2015, 1045.00
2016, 1045.00
2017, 1045.00
2018, 1045.00
2019, 1045.00
2020, 1046.00
2021, 1046.00
2022, 1046.00
2023, 1047.00
2024, 1046.00
2025, 1047.00
2026, 1047.00
2027, 1047.00
2028, 1048.00
2029, 1049.00
2030, 1049.00
2031, 1049.00
2032, 1049.00
2033, 1050.00
2034, 1049.00
2035, 1050.00
2036, 1050.00
2037, 1051.00
2038, 1051.00
2039, 1051.00
2040, 1052.00
2041, 1052.00
2042, 1052.00
2043, 1052.00
2044, 1053.00
2045, 1053.00
2046, 1054.00
2047, 1054.00
2048, 1054.00
2049, 1056.00
2050, 1055.00
2051, 1056.00
2052, 1056.00
2053, 1056.00
2054, 1056.00
2055, 1058.00
2056, 1058.00
2057, 1058.00
2058, 1058.00
2059, 1059.00
2060, 1060.00
2061, 1060.00
2062, 1060.00
2063, 1060.00
2064, 1061.00
2065, 1061.00
2066, 1061.00
2067, 1062.00
2068, 1062.00
2069, 1062.00
2070, 1063.00
2071, 1064.00
2072, 1064.00
2073, 1064.00
2074, 1065.00
2075, 1065.00
2076, 1065.00
2077, 1065.00
2078, 1066.00
2079, 1067.00
2080, 1067.00
2081, 1067.00
2082, 1067.00
2083, 1068.00
2084, 1067.00
2085, 1068.00
2086, 1068.00
2087, 1069.00
2088, 1069.00
2089, 1069.00
2090, 1070.00
2091, 1070.00
2092, 1072.00
2093, 1071.00
2094, 1071.00
2095, 1072.00
2096, 1071.00
2097, 1072.00
2098, 1072.00
2099, 1072.00
2100, 1072.00
2101, 1073.00
2102, 1073.00
2103, 1073.00
2104, 1074.00
2105, 1074.00
2106, 1074.00
2107, 1075.00
2108, 1074.00
2109, 1074.00
2110, 1075.00
2111, 1076.00
2112, 1075.00
2113, 1075.00
2114, 1076.00
2115, 1076.00
2116, 1076.00
2117, 1076.00
2118, 1076.00
2119, 1077.00
2120, 1077.00
2121, 1077.00
2122, 1077.00
2123, 1077.00
2124, 1077.00
2125, 1078.00
2126, 1078.00
2127, 1078.00
2128, 1078.00
2129, 1077.00
2130, 1078.00
2131, 1078.00
2132, 1079.00
2133, 1078.00
2134, 1079.00
2135, 1079.00
2136, 1079.00
2137, 1079.00
2138, 1080.00
2139, 1080.00
2140, 1080.00
2141, 1079.00
2142, 1080.00
2143, 1080.00
2144, 1081.00
2145, 1081.00
2146, 1081.00
2147, 1081.00
2148, 1081.00
2149, 1081.00
2150, 1081.00
