FW version: 24
Log Version: 3.0.3

General Info:
       Command/Macro Performed,            Timestamp,             Device ID, COM Port, UART/I2C, Test Name, Host Major, Host Minor, Host Revision, Host Git Commit
            Single_measurement,  2023_06_30_11_40_11,       Insight2_F4_xxx,    USB-C,      USB,          ,          0,          1,             1,      4031237645

Show Spectrometer Status:
l0_version, f4_version, battery_perc, battery_mVolt, accelerometer_temp, accelerometer_x, accelerometer_y, accelerometer_z, compass_temp, compass_x, compass_y, compass_z, lamp_0, lamp_1, gain_0, gain_1
        17,         24,           95,          2079,               5984,           65480,             392,           18412,            0,     65518,     65501,     65534,   2457,   2457,      1,      1

Temperature Statistic Info:
NTC AVG [°C], NTC2 AVG [°C]
      38.652,        38.333

Statistic Info:
M1:  num,      min,      max,   median,      AVG,      STD,M2:  num,      min,      max,   median,      AVG,      STD
     301,  1333.00,  1558.00,  1380.00,  1406.91,  69.6013,     401,  1851.00,  1986.00,  1906.00,  1910.07,  44.0067,

Measurements:
Wavelength, Data Amplitude
1350, 1373.00
1351, 1373.00
1352, 1371.00
1353, 1370.00
1354, 1369.00
1355, 1369.00
1356, 1368.00
1357, 1367.00
1358, 1366.00
1359, 1366.00
1360, 1365.00
1361, 1365.00
1362, 1363.00
1363, 1361.00
1364, 1361.00
1365, 1360.00
1366, 1359.00
1367, 1357.00
1368, 1357.00
1369, 1355.00
1370, 1355.00
1371, 1354.00
1372, 1352.00
1373, 1352.00
1374, 1351.00
1375, 1350.00
1376, 1348.00
1377, 1347.00
1378, 1349.00
1379, 1346.00
1380, 1347.00
1381, 1346.00
1382, 1344.00
1383, 1343.00
1384, 1343.00
1385, 1343.00
1386, 1341.00
1387, 1341.00
1388, 1341.00
1389, 1340.00
1390, 1339.00
1391, 1340.00
1392, 1339.00
1393, 1339.00
1394, 1338.00
1395, 1338.00
1396, 1338.00
1397, 1337.00
1398, 1337.00
1399, 1336.00
1400, 1337.00
1401, 1335.00
1402, 1337.00
1403, 1336.00
1404, 1336.00
1405, 1336.00
1406, 1336.00
1407, 1336.00
1408, 1335.00
1409, 1334.00
1410, 1335.00
1411, 1335.00
1412, 1335.00
1413, 1336.00
1414, 1335.00
1415, 1333.00
1416, 1335.00
1417, 1334.00
1418, 1334.00
1419, 1335.00
1420, 1334.00
1421, 1335.00
1422, 1334.00
1423, 1336.00
1424, 1334.00
1425, 1335.00
1426, 1335.00
1427, 1335.00
1428, 1335.00
1429, 1335.00
1430, 1335.00
1431, 1336.00
1432, 1335.00
1433, 1336.00
1434, 1336.00
1435, 1338.00
1436, 1337.00
1437, 1337.00
1438, 1337.00
1439, 1339.00
1440, 1337.00
1441, 1338.00
1442, 1338.00
1443, 1338.00
1444, 1340.00
1445, 1339.00
1446, 1339.00
1447, 1340.00
1448, 1340.00
1449, 1341.00
1450, 1342.00
1451, 1341.00
1452, 1342.00
1453, 1344.00
1454, 1344.00
1455, 1344.00
1456, 1345.00
1457, 1345.00
1458, 1346.00
1459, 1347.00
1460, 1347.00
1461, 1347.00
1462, 1349.00
1463, 1348.00
1464, 1350.00
1465, 1349.00
1466, 1350.00
1467, 1351.00
1468, 1352.00
1469, 1353.00
1470, 1353.00
1471, 1354.00
1472, 1355.00
1473, 1356.00
1474, 1357.00
1475, 1358.00
1476, 1358.00
1477, 1359.00
1478, 1361.00
1479, 1360.00
1480, 1361.00
1481, 1363.00
1482, 1363.00
1483, 1364.00
1484, 1365.00
1485, 1365.00
1486, 1367.00
1487, 1368.00
1488, 1368.00
1489, 1369.00
1490, 1371.00
1491, 1371.00
1492, 1371.00
1493, 1373.00
1494, 1375.00
1495, 1375.00
1496, 1376.00
1497, 1377.00
1498, 1377.00
1499, 1379.00
1500, 1380.00
1501, 1381.00
1502, 1381.00
1503, 1382.00
1504, 1383.00
1505, 1384.00
1506, 1384.00
1507, 1386.00
1508, 1387.00
1509, 1388.00
1510, 1388.00
1511, 1390.00
1512, 1391.00
1513, 1392.00
1514, 1393.00
1515, 1393.00
1516, 1394.00
1517, 1396.00
1518, 1398.00
1519, 1399.00
1520, 1399.00
1521, 1400.00
1522, 1402.00
1523, 1402.00
1524, 1404.00
1525, 1405.00
1526, 1405.00
1527, 1407.00
1528, 1408.00
1529, 1409.00
1530, 1410.00
1531, 1411.00
1532, 1412.00
1533, 1413.00
1534, 1415.00
1535, 1416.00
1536, 1417.00
1537, 1418.00
1538, 1419.00
1539, 1419.00
1540, 1422.00
1541, 1422.00
1542, 1424.00
1543, 1425.00
1544, 1426.00
1545, 1428.00
1546, 1428.00
1547, 1429.00
1548, 1430.00
1549, 1432.00
1550, 1432.00
1551, 1434.00
1552, 1436.00
1553, 1436.00
1554, 1437.00
1555, 1440.00
1556, 1439.00
1557, 1441.00
1558, 1443.00
1559, 1443.00
1560, 1444.00
1561, 1446.00
1562, 1448.00
1563, 1448.00
1564, 1450.00
1565, 1450.00
1566, 1452.00
1567, 1453.00
1568, 1455.00
1569, 1456.00
1570, 1458.00
1571, 1459.00
1572, 1460.00
1573, 1462.00
1574, 1462.00
1575, 1463.00
1576, 1465.00
1577, 1467.00
1578, 1467.00
1579, 1469.00
1580, 1469.00
1581, 1470.00
1582, 1473.00
1583, 1473.00
1584, 1473.00
1585, 1475.00
1586, 1476.00
1587, 1477.00
1588, 1478.00
1589, 1480.00
1590, 1481.00
1591, 1482.00
1592, 1483.00
1593, 1485.00
1594, 1485.00
1595, 1485.00
1596, 1487.00
1597, 1488.00
1598, 1490.00
1599, 1490.00
1600, 1492.00
1601, 1494.00
1602, 1495.00
1603, 1495.00
1604, 1497.00
1605, 1499.00
1606, 1500.00
1607, 1501.00
1608, 1502.00
1609, 1504.00
1610, 1505.00
1611, 1506.00
1612, 1508.00
1613, 1509.00
1614, 1511.00
1615, 1513.00
1616, 1514.00
1617, 1515.00
1618, 1517.00
1619, 1518.00
1620, 1519.00
1621, 1521.00
1622, 1523.00
1623, 1524.00
1624, 1526.00
1625, 1526.00
1626, 1528.00
1627, 1529.00
1628, 1531.00
1629, 1533.00
1630, 1535.00
1631, 1535.00
1632, 1537.00
1633, 1537.00
1634, 1539.00
1635, 1540.00
1636, 1541.00
1637, 1542.00
1638, 1543.00
1639, 1545.00
1640, 1546.00
1641, 1547.00
1642, 1547.00
1643, 1550.00
1644, 1550.00
1645, 1551.00
1646, 1552.00
1647, 1554.00
1648, 1556.00
1649, 1556.00
1650, 1558.00

1750, 1986.00
1751, 1983.00
1752, 1985.00
1753, 1985.00
1754, 1983.00
1755, 1982.00
1756, 1984.00
1757, 1985.00
1758, 1983.00
1759, 1983.00
1760, 1985.00
1761, 1985.00
1762, 1985.00
1763, 1984.00
1764, 1984.00
1765, 1983.00
1766, 1983.00
1767, 1985.00
1768, 1981.00
1769, 1984.00
1770, 1983.00
1771, 1983.00
1772, 1981.00
1773, 1982.00
1774, 1981.00
1775, 1979.00
1776, 1978.00
1777, 1979.00
1778, 1979.00
1779, 1978.00
1780, 1980.00
1781, 1978.00
1782, 1979.00
1783, 1978.00
1784, 1977.00
1785, 1978.00
1786, 1976.00
1787, 1976.00
1788, 1975.00
1789, 1974.00
1790, 1975.00
1791, 1975.00
1792, 1973.00
1793, 1973.00
1794, 1973.00
1795, 1971.00
1796, 1971.00
1797, 1971.00
1798, 1970.00
1799, 1971.00
1800, 1969.00
1801, 1970.00
1802, 1970.00
1803, 1969.00
1804, 1967.00
1805, 1969.00
1806, 1967.00
1807, 1967.00
1808, 1967.00
1809, 1967.00
1810, 1966.00
1811, 1965.00
1812, 1964.00
1813, 1963.00
1814, 1966.00
1815, 1963.00
1816, 1961.00
1817, 1962.00
1818, 1962.00
1819, 1960.00
1820, 1959.00
1821, 1957.00
1822, 1958.00
1823, 1957.00
1824, 1954.00
1825, 1955.00
1826, 1954.00
1827, 1952.00
1828, 1952.00
1829, 1949.00
1830, 1949.00
1831, 1948.00
1832, 1945.00
1833, 1945.00
1834, 1943.00
1835, 1941.00
1836, 1939.00
1837, 1937.00
1838, 1934.00
1839, 1933.00
1840, 1933.00
1841, 1930.00
1842, 1929.00
1843, 1927.00
1844, 1923.00
1845, 1923.00
1846, 1919.00
1847, 1918.00
1848, 1916.00
1849, 1913.00
1850, 1912.00
1851, 1909.00
1852, 1907.00
1853, 1906.00
1854, 1902.00
1855, 1901.00
1856, 1898.00
1857, 1898.00
1858, 1897.00
1859, 1894.00
1860, 1893.00
1861, 1889.00
1862, 1888.00
1863, 1886.00
1864, 1886.00
1865, 1881.00
1866, 1881.00
1867, 1881.00
1868, 1881.00
1869, 1880.00
1870, 1877.00
1871, 1875.00
1872, 1875.00
1873, 1873.00
1874, 1874.00
1875, 1871.00
1876, 1868.00
1877, 1868.00
1878, 1869.00
1879, 1867.00
1880, 1868.00
1881, 1867.00
1882, 1865.00
1883, 1865.00
1884, 1864.00
1885, 1862.00
1886, 1862.00
1887, 1863.00
1888, 1861.00
1889, 1862.00
1890, 1861.00
1891, 1859.00
1892, 1860.00
1893, 1858.00
1894, 1858.00
1895, 1859.00
1896, 1859.00
1897, 1857.00
1898, 1857.00
1899, 1858.00
1900, 1856.00
1901, 1856.00
1902, 1857.00
1903, 1857.00
1904, 1856.00
1905, 1855.00
1906, 1855.00
1907, 1854.00
1908, 1854.00
1909, 1853.00
1910, 1853.00
1911, 1855.00
1912, 1854.00
1913, 1853.00
1914, 1855.00
1915, 1852.00
1916, 1852.00
1917, 1852.00
1918, 1853.00
1919, 1853.00
1920, 1854.00
1921, 1851.00
1922, 1854.00
1923, 1853.00
1924, 1852.00
1925, 1853.00
1926, 1851.00
1927, 1852.00
1928, 1852.00
1929, 1851.00
1930, 1853.00
1931, 1854.00
1932, 1853.00
1933, 1854.00
1934, 1853.00
1935, 1854.00
1936, 1854.00
1937, 1855.00
1938, 1852.00
1939, 1854.00
1940, 1853.00
1941, 1852.00
1942, 1854.00
1943, 1853.00
1944, 1854.00
1945, 1854.00
1946, 1854.00
1947, 1853.00
1948, 1855.00
1949, 1857.00
1950, 1855.00
1951, 1856.00
1952, 1857.00
1953, 1857.00
1954, 1858.00
1955, 1858.00
1956, 1856.00
1957, 1857.00
1958, 1858.00
1959, 1857.00
1960, 1859.00
1961, 1858.00
1962, 1859.00
1963, 1860.00
1964, 1859.00
1965, 1861.00
1966, 1861.00
1967, 1861.00
1968, 1861.00
1969, 1863.00
1970, 1863.00
1971, 1861.00
1972, 1862.00
1973, 1863.00
1974, 1864.00
1975, 1863.00
1976, 1866.00
1977, 1867.00
1978, 1866.00
1979, 1867.00
1980, 1867.00
1981, 1868.00
1982, 1867.00
1983, 1869.00
1984, 1870.00
1985, 1869.00
1986, 1868.00
1987, 1870.00
1988, 1872.00
1989, 1873.00
1990, 1872.00
1991, 1872.00
1992, 1874.00
1993, 1871.00
1994, 1874.00
1995, 1875.00
1996, 1874.00
1997, 1872.00
1998, 1876.00
1999, 1877.00
2000, 1877.00
2001, 1877.00
2002, 1879.00
2003, 1877.00
2004, 1878.00
2005, 1878.00
2006, 1879.00
2007, 1877.00
2008, 1880.00
2009, 1878.00
2010, 1881.00
2011, 1881.00
2012, 1881.00
2013, 1880.00
2014, 1884.00
2015, 1884.00
2016, 1884.00
2017, 1885.00
2018, 1885.00
2019, 1885.00
2020, 1885.00
2021, 1886.00
2022, 1888.00
2023, 1887.00
2024, 1888.00
2025, 1887.00
2026, 1888.00
2027, 1889.00
2028, 1889.00
2029, 1892.00
2030, 1891.00
2031, 1893.00
2032, 1890.00
2033, 1892.00
2034, 1895.00
2035, 1893.00
2036, 1895.00
2037, 1895.00
2038, 1897.00
2039, 1894.00
2040, 1896.00
2041, 1897.00
2042, 1898.00
2043, 1899.00
2044, 1899.00
2045, 1901.00
2046, 1901.00
2047, 1901.00
2048, 1902.00
2049, 1903.00
2050, 1905.00
2051, 1903.00
2052, 1906.00
2053, 1907.00
2054, 1907.00
2055, 1906.00
2056, 1908.00
2057, 1908.00
2058, 1910.00
2059, 1909.00
2060, 1909.00
2061, 1911.00
2062, 1912.00
2063, 1914.00
2064, 1915.00
2065, 1915.00
2066, 1915.00
2067, 1915.00
2068, 1918.00
2069, 1916.00
2070, 1918.00
2071, 1919.00
2072, 1920.00
2073, 1922.00
2074, 1922.00
2075, 1921.00
2076, 1922.00
2077, 1924.00
2078, 1923.00
2079, 1923.00
2080, 1924.00
2081, 1925.00
2082, 1928.00
2083, 1926.00
2084, 1929.00
2085, 1931.00
2086, 1931.00
2087, 1930.00
2088, 1931.00
2089, 1932.00
2090, 1932.00
2091, 1932.00
2092, 1933.00
2093, 1935.00
2094, 1935.00
2095, 1933.00
2096, 1935.00
2097, 1935.00
2098, 1936.00
2099, 1935.00
2100, 1936.00
2101, 1937.00
2102, 1938.00
2103, 1938.00
2104, 1938.00
2105, 1940.00
2106, 1941.00
2107, 1941.00
2108, 1942.00
2109, 1941.00
2110, 1941.00
2111, 1943.00
2112, 1940.00
2113, 1943.00
2114, 1941.00
2115, 1942.00
2116, 1943.00
2117, 1943.00
2118, 1943.00
2119, 1947.00
2120, 1945.00
2121, 1946.00
2122, 1946.00
2123, 1945.00
2124, 1946.00
2125, 1944.00
2126, 1946.00
2127, 1948.00
2128, 1947.00
2129, 1947.00
2130, 1948.00
2131, 1949.00
2132, 1949.00
2133, 1948.00
2134, 1949.00
2135, 1948.00
2136, 1950.00
2137, 1951.00
2138, 1951.00
2139, 1954.00
2140, 1951.00
2141, 1952.00
2142, 1950.00
2143, 1951.00
2144, 1952.00
2145, 1953.00
2146, 1951.00
2147, 1950.00
2148, 1954.00
2149, 1954.00
2150, 1953.00
