FW version: 24
Log Version: 3.0.3

General Info:
       Command/Macro Performed,            Timestamp,             Device ID, COM Port, UART/I2C, Test Name, Host Major, Host Minor, Host Revision, Host Git Commit
            Single_measurement,  2023_06_30_11_40_50,       Insight2_F4_xxx,    USB-C,      USB,          ,          0,          1,             1,      4031237645

Show Spectrometer Status:
l0_version, f4_version, battery_perc, battery_mVolt, accelerometer_temp, accelerometer_x, accelerometer_y, accelerometer_z, compass_temp, compass_x, compass_y, compass_z, lamp_0, lamp_1, gain_0, gain_1
        17,         24,           95,          2079,               6016,              16,             368,           18532,            0,     65343,     65396,     65525,   3276,   3276,      1,      1

Temperature Statistic Info:
NTC AVG [°C], NTC2 AVG [°C]
      38.882,        38.566

Statistic Info:
M1:  num,      min,      max,   median,      AVG,      STD,M2:  num,      min,      max,   median,      AVG,      STD
     301,  2314.00,  2675.00,  2387.00,  2432.85, 112.1262,     401,  2974.00,  3192.00,  3059.00,  3066.68,  70.0822,

Measurements:
Wavelength, Data Amplitude
1350, 2385.00
1351, 2384.00
1352, 2382.00
1353, 2382.00
1354, 2380.00
1355, 2379.00
1356, 2379.00
1357, 2377.00
1358, 2376.00
1359, 2373.00
1360, 2372.00
1361, 2370.00
1362, 2367.00
1363, 2365.00
1364, 2365.00
1365, 2363.00
1366, 2361.00
1367, 2359.00
1368, 2358.00
1369, 2355.00
1370, 2355.00
1371, 2353.00
1372, 2350.00
1373, 2347.00
1374, 2347.00
1375, 2344.00
1376, 2343.00
1377, 2340.00
1378, 2340.00
1379, 2338.00
1380, 2336.00
1381, 2335.00
1382, 2333.00
1383, 2333.00
1384, 2331.00
1385, 2330.00
1386, 2329.00
1387, 2329.00
1388, 2327.00
1389, 2326.00
1390, 2326.00
1391, 2325.00
1392, 2325.00
1393, 2324.00
1394, 2323.00
1395, 2323.00
1396, 2323.00
1397, 2322.00
1398, 2321.00
1399, 2321.00
1400, 2320.00
1401, 2319.00
1402, 2319.00
1403, 2317.00
1404, 2319.00
1405, 2318.00
1406, 2318.00
1407, 2316.00
1408, 2317.00
1409, 2317.00
1410, 2316.00
1411, 2317.00
1412, 2317.00
1413, 2317.00
1414, 2315.00
1415, 2316.00
1416, 2315.00
1417, 2315.00
1418, 2315.00
1419, 2315.00
1420, 2315.00
1421, 2315.00
1422, 2315.00
1423, 2315.00
1424, 2316.00
1425, 2315.00
1426, 2315.00
1427, 2314.00
1428, 2316.00
1429, 2317.00
1430, 2316.00
1431, 2316.00
1432, 2317.00
1433, 2318.00
1434, 2318.00
1435, 2318.00
1436, 2319.00
1437, 2320.00
1438, 2319.00
1439, 2320.00
1440, 2320.00
1441, 2323.00
1442, 2322.00
1443, 2321.00
1444, 2322.00
1445, 2324.00
1446, 2325.00
1447, 2324.00
1448, 2325.00
1449, 2327.00
1450, 2327.00
1451, 2328.00
1452, 2328.00
1453, 2330.00
1454, 2330.00
1455, 2330.00
1456, 2332.00
1457, 2333.00
1458, 2333.00
1459, 2335.00
1460, 2336.00
1461, 2336.00
1462, 2338.00
1463, 2338.00
1464, 2339.00
1465, 2339.00
1466, 2341.00
1467, 2340.00
1468, 2341.00
1469, 2344.00
1470, 2344.00
1471, 2345.00
1472, 2349.00
1473, 2349.00
1474, 2350.00
1475, 2351.00
1476, 2353.00
1477, 2353.00
1478, 2354.00
1479, 2357.00
1480, 2357.00
1481, 2359.00
1482, 2361.00
1483, 2363.00
1484, 2363.00
1485, 2365.00
1486, 2367.00
1487, 2368.00
1488, 2369.00
1489, 2370.00
1490, 2372.00
1491, 2373.00
1492, 2373.00
1493, 2376.00
1494, 2377.00
1495, 2379.00
1496, 2380.00
1497, 2383.00
1498, 2384.00
1499, 2386.00
1500, 2387.00
1501, 2388.00
1502, 2390.00
1503, 2390.00
1504, 2393.00
1505, 2394.00
1506, 2396.00
1507, 2396.00
1508, 2400.00
1509, 2401.00
1510, 2403.00
1511, 2405.00
1512, 2404.00
1513, 2407.00
1514, 2408.00
1515, 2411.00
1516, 2411.00
1517, 2413.00
1518, 2414.00
1519, 2417.00
1520, 2419.00
1521, 2421.00
1522, 2422.00
1523, 2422.00
1524, 2426.00
1525, 2426.00
1526, 2429.00
1527, 2431.00
1528, 2433.00
1529, 2433.00
1530, 2435.00
1531, 2438.00
1532, 2438.00
1533, 2441.00
1534, 2443.00
1535, 2445.00
1536, 2446.00
1537, 2449.00
1538, 2451.00
1539, 2452.00
1540, 2454.00
1541, 2456.00
1542, 2458.00
1543, 2460.00
1544, 2461.00
1545, 2463.00
1546, 2465.00
1547, 2468.00
1548, 2470.00
1549, 2472.00
1550, 2473.00
1551, 2474.00
1552, 2476.00
1553, 2479.00
1554, 2481.00
1555, 2483.00
1556, 2485.00
1557, 2487.00
1558, 2489.00
1559, 2491.00
1560, 2493.00
1561, 2495.00
1562, 2497.00
1563, 2499.00
1564, 2502.00
1565, 2504.00
1566, 2506.00
1567, 2508.00
1568, 2511.00
1569, 2512.00
1570, 2515.00
1571, 2515.00
1572, 2518.00
1573, 2521.00
1574, 2523.00
1575, 2524.00
1576, 2526.00
1577, 2528.00
1578, 2531.00
1579, 2532.00
1580, 2535.00
1581, 2535.00
1582, 2537.00
1583, 2541.00
1584, 2542.00
1585, 2544.00
1586, 2545.00
1587, 2548.00
1588, 2549.00
1589, 2551.00
1590, 2553.00
1591, 2555.00
1592, 2555.00
1593, 2558.00
1594, 2559.00
1595, 2561.00
1596, 2564.00
1597, 2566.00
1598, 2567.00
1599, 2570.00
1600, 2571.00
1601, 2575.00
1602, 2575.00
1603, 2577.00
1604, 2580.00
1605, 2581.00
1606, 2583.00
1607, 2585.00
1608, 2587.00
1609, 2589.00
1610, 2593.00
1611, 2594.00
1612, 2597.00
1613, 2599.00
1614, 2601.00
1615, 2603.00
1616, 2605.00
1617, 2607.00
1618, 2609.00
1619, 2611.00
1620, 2614.00
1621, 2616.00
1622, 2620.00
1623, 2621.00
1624, 2624.00
1625, 2626.00
1626, 2629.00
1627, 2631.00
1628, 2634.00
1629, 2634.00
1630, 2637.00
1631, 2638.00
1632, 2642.00
1633, 2644.00
1634, 2646.00
1635, 2648.00
1636, 2648.00
1637, 2651.00
1638, 2653.00
1639, 2654.00
1640, 2656.00
1641, 2658.00
1642, 2660.00
1643, 2662.00
1644, 2664.00
1645, 2665.00
1646, 2668.00
1647, 2670.00
1648, 2672.00
1649, 2672.00
1650, 2675.00

1750, 3191.00
1751, 3192.00
1752, 3189.00
1753, 3189.00
1754, 3189.00
1755, 3190.00
1756, 3189.00
1757, 3188.00
1758, 3188.00
1759, 3188.00
1760, 3190.00
1761, 3188.00
1762, 3189.00
1763, 3187.00
1764, 3188.00
1765, 3188.00
1766, 3187.00
1767, 3189.00
1768, 3185.00
1769, 3187.00
1770, 3185.00
1771, 3185.00
1772, 3183.00
1773, 3184.00
1774, 3185.00
1775, 3181.00
1776, 3182.00
1777, 3181.00
1778, 3182.00
1779, 3182.00
1780, 3180.00
1781, 3177.00
1782, 3179.00
1783, 3177.00
1784, 3176.00
1785, 3175.00
1786, 3174.00
1787, 3175.00
1788, 3174.00
1789, 3173.00
1790, 3173.00
1791, 3172.00
1792, 3171.00
1793, 3168.00
1794, 3170.00
1795, 3168.00
1796, 3169.00
1797, 3169.00
1798, 3168.00
1799, 3165.00
1800, 3164.00
1801, 3164.00
1802, 3164.00
1803, 3162.00
1804, 3163.00
1805, 3161.00
1806, 3161.00
1807, 3160.00
1808, 3161.00
1809, 3157.00
1810, 3157.00
1811, 3156.00
1812, 3156.00
1813, 3154.00
1814, 3153.00
1815, 3152.00
1816, 3153.00
1817, 3151.00
1818, 3151.00
1819, 3149.00
1820, 3147.00
1821, 3144.00
1822, 3145.00
1823, 3142.00
1824, 3140.00
1825, 3138.00
1826, 3138.00
1827, 3135.00
1828, 3135.00
1829, 3131.00
1830, 3129.00
1831, 3125.00
1832, 3125.00
1833, 3121.00
1834, 3119.00
1835, 3115.00
1836, 3115.00
1837, 3110.00
1838, 3109.00
1839, 3106.00
1840, 3105.00
1841, 3102.00
1842, 3100.00
1843, 3094.00
1844, 3090.00
1845, 3088.00
1846, 3084.00
1847, 3080.00
1848, 3077.00
1849, 3071.00
1850, 3069.00
1851, 3068.00
1852, 3063.00
1853, 3062.00
1854, 3057.00
1855, 3056.00
1856, 3051.00
1857, 3049.00
1858, 3045.00
1859, 3042.00
1860, 3040.00
1861, 3035.00
1862, 3032.00
1863, 3030.00
1864, 3027.00
1865, 3025.00
1866, 3024.00
1867, 3021.00
1868, 3019.00
1869, 3018.00
1870, 3015.00
1871, 3011.00
1872, 3012.00
1873, 3008.00
1874, 3006.00
1875, 3005.00
1876, 3005.00
1877, 3004.00
1878, 3002.00
1879, 3002.00
1880, 3001.00
1881, 2997.00
1882, 2998.00
1883, 2995.00
1884, 2994.00
1885, 2993.00
1886, 2993.00
1887, 2991.00
1888, 2991.00
1889, 2991.00
1890, 2987.00
1891, 2987.00
1892, 2988.00
1893, 2989.00
1894, 2987.00
1895, 2987.00
1896, 2985.00
1897, 2982.00
1898, 2984.00
1899, 2984.00
1900, 2984.00
1901, 2981.00
1902, 2982.00
1903, 2983.00
1904, 2981.00
1905, 2980.00
1906, 2982.00
1907, 2981.00
1908, 2978.00
1909, 2980.00
1910, 2979.00
1911, 2978.00
1912, 2978.00
1913, 2978.00
1914, 2978.00
1915, 2978.00
1916, 2978.00
1917, 2978.00
1918, 2977.00
1919, 2977.00
1920, 2979.00
1921, 2978.00
1922, 2975.00
1923, 2978.00
1924, 2974.00
1925, 2977.00
1926, 2975.00
1927, 2978.00
1928, 2977.00
1929, 2976.00
1930, 2977.00
1931, 2977.00
1932, 2978.00
1933, 2978.00
1934, 2976.00
1935, 2976.00
1936, 2977.00
1937, 2977.00
1938, 2977.00
1939, 2980.00
1940, 2978.00
1941, 2976.00
1942, 2979.00
1943, 2979.00
1944, 2980.00
1945, 2980.00
1946, 2979.00
1947, 2980.00
1948, 2978.00
1949, 2979.00
1950, 2980.00
1951, 2981.00
1952, 2983.00
1953, 2981.00
1954, 2983.00
1955, 2983.00
1956, 2983.00
1957, 2981.00
1958, 2983.00
1959, 2983.00
1960, 2985.00
1961, 2986.00
1962, 2987.00
1963, 2987.00
1964, 2988.00
1965, 2988.00
1966, 2990.00
1967, 2990.00
1968, 2991.00
1969, 2989.00
1970, 2993.00
1971, 2993.00
1972, 2993.00
1973, 2993.00
1974, 2995.00
1975, 2996.00
1976, 2995.00
1977, 2997.00
1978, 2996.00
1979, 2997.00
1980, 2999.00
1981, 2998.00
1982, 2999.00
1983, 3000.00
1984, 3003.00
1985, 3002.00
1986, 3005.00
1987, 3003.00
1988, 3004.00
1989, 3004.00
1990, 3005.00
1991, 3007.00
1992, 3007.00
1993, 3009.00
1994, 3007.00
1995, 3008.00
1996, 3010.00
1997, 3014.00
1998, 3011.00
1999, 3013.00
2000, 3012.00
2001, 3013.00
2002, 3014.00
2003, 3013.00
2004, 3015.00
2005, 3017.00
2006, 3017.00
2007, 3018.00
2008, 3018.00
2009, 3020.00
2010, 3021.00
2011, 3024.00
2012, 3021.00
2013, 3021.00
2014, 3022.00
2015, 3024.00
2016, 3023.00
2017, 3025.00
2018, 3025.00
2019, 3027.00
2020, 3028.00
2021, 3029.00
2022, 3029.00
2023, 3029.00
2024, 3029.00
2025, 3031.00
2026, 3030.00
2027, 3030.00
2028, 3032.00
2029, 3033.00
2030, 3035.00
2031, 3035.00
2032, 3038.00
2033, 3038.00
2034, 3037.00
2035, 3040.00
2036, 3039.00
2037, 3041.00
2038, 3041.00
2039, 3043.00
2040, 3044.00
2041, 3045.00
2042, 3047.00
2043, 3046.00
2044, 3048.00
2045, 3049.00
2046, 3049.00
2047, 3051.00
2048, 3052.00
2049, 3052.00
2050, 3054.00
2051, 3057.00
2052, 3056.00
2053, 3059.00
2054, 3058.00
2055, 3059.00
2056, 3060.00
2057, 3062.00
2058, 3065.00
2059, 3063.00
2060, 3062.00
2061, 3063.00
2062, 3069.00
2063, 3070.00
2064, 3072.00
2065, 3071.00
2066, 3074.00
2067, 3073.00
2068, 3075.00
2069, 3075.00
2070, 3080.00
2071, 3077.00
2072, 3080.00
2073, 3080.00
2074, 3083.00
2075, 3083.00
2076, 3085.00
2077, 3084.00
2078, 3087.00
2079, 3087.00
2080, 3089.00
2081, 3089.00
2082, 3090.00
2083, 3089.00
2084, 3094.00
2085, 3095.00
2086, 3092.00
2087, 3095.00
2088, 3095.00
2089, 3097.00
2090, 3097.00
2091, 3099.00
2092, 3100.00
2093, 3099.00
2094, 3101.00
2095, 3102.00
2096, 3103.00
2097, 3103.00
2098, 3102.00
2099, 3103.00
2100, 3107.00
2101, 3107.00
2102, 3106.00
2103, 3109.00
2104, 3107.00
2105, 3107.00
2106, 3111.00
2107, 3110.00
2108, 3110.00
2109, 3111.00
2110, 3111.00
2111, 3113.00
2112, 3113.00
2113, 3115.00
2114, 3114.00
2115, 3115.00
2116, 3116.00
2117, 3116.00
2118, 3117.00
2119, 3115.00
2120, 3116.00
2121, 3118.00
2122, 3118.00
2123, 3119.00
2124, 3119.00
2125, 3121.00
2126, 3119.00
2127, 3120.00
2128, 3122.00
2129, 3122.00
2130, 3121.00
2131, 3124.00
2132, 3124.00
2133, 3123.00
2134, 3123.00
2135, 3124.00
2136, 3125.00
2137, 3123.00
2138, 3126.00
2139, 3126.00
2140, 3127.00
2141, 3127.00
2142, 3127.00
2143, 3127.00
2144, 3127.00
2145, 3127.00
2146, 3129.00
2147, 3130.00
2148, 3129.00
2149, 3129.00
2150, 3131.00
