FW version: 24
Log Version: 3.0.3

General Info:
       Command/Macro Performed,            Timestamp,             Device ID, COM Port, UART/I2C, Test Name, Host Major, Host Minor, Host Revision, Host Git Commit
            Single_measurement,  2023_07_04_11_35_10,       Insight2_F4_xxx,    USB-C,      USB,          ,          0,          1,             1,      4031237645

Show Spectrometer Status:
l0_version, f4_version, battery_perc, battery_mVolt, accelerometer_temp, accelerometer_x, accelerometer_y, accelerometer_z, compass_temp, compass_x, compass_y, compass_z, lamp_0, lamp_1, gain_0, gain_1
        17,         24,           28,          1869,               6304,           64944,            2356,           19208,            0,     65523,     65342,     19290,   3276,   3276,      1,      1

Temperature Statistic Info:
NTC AVG [°C], NTC2 AVG [°C]
      39.205,        38.854

Statistic Info:
M1:  num,      min,      max,   median,      AVG,      STD,M2:  num,      min,      max,   median,      AVG,      STD
     301,  1825.00,  2104.00,  1882.00,  1916.29,  86.8650,     401,  2388.00,  2557.00,  2457.00,  2461.45,  54.8474,

Measurements:
Wavelength, Data Amplitude
1350, 1877.00
1351, 1876.00
1352, 1874.00
1353, 1875.00
1354, 1873.00
1355, 1873.00
1356, 1871.00
1357, 1870.00
1358, 1869.00
1359, 1867.00
1360, 1867.00
1361, 1865.00
1362, 1865.00
1363, 1862.00
1364, 1860.00
1365, 1862.00
1366, 1859.00
1367, 1859.00
1368, 1855.00
1369, 1855.00
1370, 1855.00
1371, 1851.00
1372, 1850.00
1373, 1849.00
1374, 1847.00
1375, 1847.00
1376, 1845.00
1377, 1844.00
1378, 1842.00
1379, 1843.00
1380, 1841.00
1381, 1840.00
1382, 1839.00
1383, 1838.00
1384, 1836.00
1385, 1836.00
1386, 1835.00
1387, 1835.00
1388, 1833.00
1389, 1834.00
1390, 1833.00
1391, 1832.00
1392, 1831.00
1393, 1832.00
1394, 1831.00
1395, 1830.00
1396, 1830.00
1397, 1830.00
1398, 1830.00
1399, 1828.00
1400, 1828.00
1401, 1828.00
1402, 1827.00
1403, 1827.00
1404, 1828.00
1405, 1827.00
1406, 1826.00
1407, 1826.00
1408, 1825.00
1409, 1825.00
1410, 1826.00
1411, 1826.00
1412, 1825.00
1413, 1825.00
1414, 1825.00
1415, 1825.00
1416, 1825.00
1417, 1825.00
1418, 1825.00
1419, 1825.00
1420, 1825.00
1421, 1826.00
1422, 1825.00
1423, 1825.00
1424, 1825.00
1425, 1825.00
1426, 1825.00
1427, 1825.00
1428, 1825.00
1429, 1826.00
1430, 1827.00
1431, 1827.00
1432, 1827.00
1433, 1827.00
1434, 1828.00
1435, 1828.00
1436, 1827.00
1437, 1830.00
1438, 1828.00
1439, 1830.00
1440, 1829.00
1441, 1829.00
1442, 1830.00
1443, 1831.00
1444, 1832.00
1445, 1833.00
1446, 1834.00
1447, 1833.00
1448, 1834.00
1449, 1834.00
1450, 1835.00
1451, 1834.00
1452, 1835.00
1453, 1835.00
1454, 1836.00
1455, 1836.00
1456, 1838.00
1457, 1839.00
1458, 1839.00
1459, 1840.00
1460, 1840.00
1461, 1841.00
1462, 1842.00
1463, 1842.00
1464, 1844.00
1465, 1843.00
1466, 1846.00
1467, 1846.00
1468, 1847.00
1469, 1849.00
1470, 1849.00
1471, 1851.00
1472, 1851.00
1473, 1852.00
1474, 1853.00
1475, 1854.00
1476, 1855.00
1477, 1856.00
1478, 1855.00
1479, 1858.00
1480, 1859.00
1481, 1861.00
1482, 1861.00
1483, 1863.00
1484, 1863.00
1485, 1865.00
1486, 1865.00
1487, 1866.00
1488, 1868.00
1489, 1868.00
1490, 1870.00
1491, 1870.00
1492, 1872.00
1493, 1874.00
1494, 1875.00
1495, 1877.00
1496, 1877.00
1497, 1878.00
1498, 1879.00
1499, 1880.00
1500, 1882.00
1501, 1883.00
1502, 1884.00
1503, 1885.00
1504, 1885.00
1505, 1887.00
1506, 1888.00
1507, 1889.00
1508, 1891.00
1509, 1892.00
1510, 1894.00
1511, 1895.00
1512, 1895.00
1513, 1897.00
1514, 1898.00
1515, 1899.00
1516, 1900.00
1517, 1901.00
1518, 1903.00
1519, 1905.00
1520, 1906.00
1521, 1908.00
1522, 1910.00
1523, 1910.00
1524, 1912.00
1525, 1913.00
1526, 1915.00
1527, 1915.00
1528, 1916.00
1529, 1918.00
1530, 1919.00
1531, 1921.00
1532, 1923.00
1533, 1924.00
1534, 1926.00
1535, 1927.00
1536, 1928.00
1537, 1930.00
1538, 1931.00
1539, 1933.00
1540, 1933.00
1541, 1935.00
1542, 1937.00
1543, 1939.00
1544, 1940.00
1545, 1941.00
1546, 1942.00
1547, 1944.00
1548, 1945.00
1549, 1947.00
1550, 1948.00
1551, 1950.00
1552, 1951.00
1553, 1953.00
1554, 1954.00
1555, 1957.00
1556, 1958.00
1557, 1959.00
1558, 1961.00
1559, 1963.00
1560, 1964.00
1561, 1964.00
1562, 1967.00
1563, 1968.00
1564, 1971.00
1565, 1972.00
1566, 1974.00
1567, 1976.00
1568, 1977.00
1569, 1979.00
1570, 1979.00
1571, 1981.00
1572, 1983.00
1573, 1985.00
1574, 1987.00
1575, 1988.00
1576, 1990.00
1577, 1990.00
1578, 1992.00
1579, 1994.00
1580, 1994.00
1581, 1997.00
1582, 1997.00
1583, 1999.00
1584, 2001.00
1585, 2002.00
1586, 2004.00
1587, 2004.00
1588, 2007.00
1589, 2008.00
1590, 2009.00
1591, 2010.00
1592, 2011.00
1593, 2013.00
1594, 2015.00
1595, 2015.00
1596, 2017.00
1597, 2018.00
1598, 2021.00
1599, 2022.00
1600, 2023.00
1601, 2025.00
1602, 2025.00
1603, 2027.00
1604, 2028.00
1605, 2030.00
1606, 2032.00
1607, 2034.00
1608, 2035.00
1609, 2036.00
1610, 2039.00
1611, 2039.00
1612, 2043.00
1613, 2045.00
1614, 2045.00
1615, 2049.00
1616, 2050.00
1617, 2051.00
1618, 2053.00
1619, 2055.00
1620, 2057.00
1621, 2058.00
1622, 2060.00
1623, 2062.00
1624, 2064.00
1625, 2066.00
1626, 2067.00
1627, 2068.00
1628, 2072.00
1629, 2073.00
1630, 2074.00
1631, 2076.00
1632, 2076.00
1633, 2079.00
1634, 2080.00
1635, 2081.00
1636, 2084.00
1637, 2086.00
1638, 2085.00
1639, 2088.00
1640, 2089.00
1641, 2090.00
1642, 2092.00
1643, 2094.00
1644, 2096.00
1645, 2096.00
1646, 2097.00
1647, 2099.00
1648, 2101.00
1649, 2102.00
1650, 2104.00

1750, 2553.00
1751, 2555.00
1752, 2554.00
1753, 2555.00
1754, 2555.00
1755, 2557.00
1756, 2555.00
1757, 2554.00
1758, 2555.00
1759, 2555.00
1760, 2555.00
1761, 2555.00
1762, 2553.00
1763, 2554.00
1764, 2553.00
1765, 2552.00
1766, 2553.00
1767, 2552.00
1768, 2551.00
1769, 2552.00
1770, 2552.00
1771, 2552.00
1772, 2552.00
1773, 2551.00
1774, 2548.00
1775, 2549.00
1776, 2549.00
1777, 2549.00
1778, 2547.00
1779, 2547.00
1780, 2547.00
1781, 2548.00
1782, 2545.00
1783, 2543.00
1784, 2544.00
1785, 2543.00
1786, 2543.00
1787, 2545.00
1788, 2543.00
1789, 2540.00
1790, 2541.00
1791, 2543.00
1792, 2540.00
1793, 2540.00
1794, 2539.00
1795, 2540.00
1796, 2540.00
1797, 2537.00
1798, 2537.00
1799, 2537.00
1800, 2537.00
1801, 2538.00
1802, 2536.00
1803, 2537.00
1804, 2533.00
1805, 2534.00
1806, 2531.00
1807, 2532.00
1808, 2532.00
1809, 2529.00
1810, 2529.00
1811, 2529.00
1812, 2529.00
1813, 2530.00
1814, 2527.00
1815, 2529.00
1816, 2526.00
1817, 2525.00
1818, 2525.00
1819, 2524.00
1820, 2521.00
1821, 2521.00
1822, 2519.00
1823, 2518.00
1824, 2518.00
1825, 2518.00
1826, 2516.00
1827, 2515.00
1828, 2513.00
1829, 2511.00
1830, 2508.00
1831, 2507.00
1832, 2506.00
1833, 2503.00
1834, 2501.00
1835, 2501.00
1836, 2498.00
1837, 2496.00
1838, 2494.00
1839, 2494.00
1840, 2491.00
1841, 2488.00
1842, 2484.00
1843, 2483.00
1844, 2480.00
1845, 2476.00
1846, 2475.00
1847, 2473.00
1848, 2469.00
1849, 2465.00
1850, 2464.00
1851, 2462.00
1852, 2458.00
1853, 2456.00
1854, 2452.00
1855, 2451.00
1856, 2447.00
1857, 2445.00
1858, 2442.00
1859, 2441.00
1860, 2436.00
1861, 2434.00
1862, 2433.00
1863, 2434.00
1864, 2430.00
1865, 2429.00
1866, 2427.00
1867, 2423.00
1868, 2423.00
1869, 2420.00
1870, 2419.00
1871, 2417.00
1872, 2416.00
1873, 2414.00
1874, 2412.00
1875, 2413.00
1876, 2413.00
1877, 2410.00
1878, 2409.00
1879, 2407.00
1880, 2407.00
1881, 2406.00
1882, 2406.00
1883, 2405.00
1884, 2403.00
1885, 2402.00
1886, 2402.00
1887, 2402.00
1888, 2400.00
1889, 2401.00
1890, 2399.00
1891, 2399.00
1892, 2399.00
1893, 2399.00
1894, 2397.00
1895, 2396.00
1896, 2397.00
1897, 2395.00
1898, 2395.00
1899, 2396.00
1900, 2397.00
1901, 2394.00
1902, 2393.00
1903, 2395.00
1904, 2393.00
1905, 2392.00
1906, 2393.00
1907, 2391.00
1908, 2390.00
1909, 2391.00
1910, 2391.00
1911, 2393.00
1912, 2391.00
1913, 2389.00
1914, 2389.00
1915, 2392.00
1916, 2391.00
1917, 2390.00
1918, 2391.00
1919, 2390.00
1920, 2389.00
1921, 2391.00
1922, 2390.00
1923, 2389.00
1924, 2390.00
1925, 2388.00
1926, 2390.00
1927, 2389.00
1928, 2391.00
1929, 2390.00
1930, 2391.00
1931, 2389.00
1932, 2389.00
1933, 2390.00
1934, 2391.00
1935, 2388.00
1936, 2390.00
1937, 2390.00
1938, 2389.00
1939, 2391.00
1940, 2390.00
1941, 2392.00
1942, 2392.00
1943, 2391.00
1944, 2391.00
1945, 2393.00
1946, 2391.00
1947, 2393.00
1948, 2394.00
1949, 2392.00
1950, 2391.00
1951, 2393.00
1952, 2394.00
1953, 2394.00
1954, 2393.00
1955, 2396.00
1956, 2393.00
1957, 2396.00
1958, 2394.00
1959, 2396.00
1960, 2399.00
1961, 2398.00
1962, 2400.00
1963, 2401.00
1964, 2399.00
1965, 2400.00
1966, 2401.00
1967, 2399.00
1968, 2401.00
1969, 2402.00
1970, 2403.00
1971, 2404.00
1972, 2404.00
1973, 2407.00
1974, 2404.00
1975, 2405.00
1976, 2405.00
1977, 2405.00
1978, 2406.00
1979, 2407.00
1980, 2410.00
1981, 2409.00
1982, 2410.00
1983, 2410.00
1984, 2412.00
1985, 2412.00
1986, 2410.00
1987, 2412.00
1988, 2412.00
1989, 2414.00
1990, 2415.00
1991, 2413.00
1992, 2415.00
1993, 2415.00
1994, 2416.00
1995, 2417.00
1996, 2418.00
1997, 2417.00
1998, 2417.00
1999, 2419.00
2000, 2419.00
2001, 2422.00
2002, 2419.00
2003, 2421.00
2004, 2420.00
2005, 2423.00
2006, 2423.00
2007, 2423.00
2008, 2424.00
2009, 2426.00
2010, 2426.00
2011, 2426.00
2012, 2427.00
2013, 2427.00
2014, 2426.00
2015, 2430.00
2016, 2430.00
2017, 2431.00
2018, 2431.00
2019, 2433.00
2020, 2432.00
2021, 2431.00
2022, 2433.00
2023, 2433.00
2024, 2434.00
2025, 2434.00
2026, 2436.00
2027, 2436.00
2028, 2436.00
2029, 2436.00
2030, 2436.00
2031, 2438.00
2032, 2439.00
2033, 2439.00
2034, 2441.00
2035, 2440.00
2036, 2442.00
2037, 2442.00
2038, 2445.00
2039, 2444.00
2040, 2445.00
2041, 2446.00
2042, 2447.00
2043, 2448.00
2044, 2448.00
2045, 2449.00
2046, 2449.00
2047, 2449.00
2048, 2451.00
2049, 2452.00
2050, 2453.00
2051, 2455.00
2052, 2457.00
2053, 2456.00
2054, 2457.00
2055, 2457.00
2056, 2459.00
2057, 2460.00
2058, 2461.00
2059, 2461.00
2060, 2465.00
2061, 2464.00
2062, 2465.00
2063, 2466.00
2064, 2468.00
2065, 2466.00
2066, 2471.00
2067, 2471.00
2068, 2469.00
2069, 2471.00
2070, 2471.00
2071, 2473.00
2072, 2475.00
2073, 2475.00
2074, 2479.00
2075, 2477.00
2076, 2478.00
2077, 2479.00
2078, 2480.00
2079, 2478.00
2080, 2481.00
2081, 2481.00
2082, 2483.00
2083, 2484.00
2084, 2487.00
2085, 2483.00
2086, 2485.00
2087, 2486.00
2088, 2489.00
2089, 2487.00
2090, 2488.00
2091, 2489.00
2092, 2490.00
2093, 2491.00
2094, 2491.00
2095, 2490.00
2096, 2492.00
2097, 2492.00
2098, 2494.00
2099, 2493.00
2100, 2496.00
2101, 2496.00
2102, 2495.00
2103, 2497.00
2104, 2499.00
2105, 2497.00
2106, 2499.00
2107, 2499.00
2108, 2499.00
2109, 2499.00
2110, 2500.00
2111, 2498.00
2112, 2500.00
2113, 2503.00
2114, 2501.00
2115, 2501.00
2116, 2502.00
2117, 2504.00
2118, 2504.00
2119, 2504.00
2120, 2506.00
2121, 2506.00
2122, 2505.00
2123, 2505.00
2124, 2507.00
2125, 2505.00
2126, 2506.00
2127, 2507.00
2128, 2508.00
2129, 2508.00
2130, 2507.00
2131, 2509.00
2132, 2507.00
2133, 2509.00
2134, 2511.00
2135, 2509.00
2136, 2511.00
2137, 2511.00
2138, 2511.00
2139, 2513.00
2140, 2511.00
2141, 2512.00
2142, 2511.00
2143, 2513.00
2144, 2513.00
2145, 2511.00
2146, 2513.00
2147, 2512.00
2148, 2514.00
2149, 2514.00
2150, 2514.00
