FW version: 24
Log Version: 3.0.3

General Info:
       Command/Macro Performed,            Timestamp,             Device ID, COM Port, UART/I2C, Test Name, Host Major, Host Minor, Host Revision, Host Git Commit
            Single_measurement,  2023_07_04_11_34_12,       Insight2_F4_xxx,    USB-C,      USB,          ,          0,          1,             1,      4031237645

Show Spectrometer Status:
l0_version, f4_version, battery_perc, battery_mVolt, accelerometer_temp, accelerometer_x, accelerometer_y, accelerometer_z, compass_temp, compass_x, compass_y, compass_z, lamp_0, lamp_1, gain_0, gain_1
        17,         24,           28,          1870,               6256,           64916,            2364,           19304,            0,     65524,     65404,     19304,   2047,   2047,      1,      1

Temperature Statistic Info:
NTC AVG [°C], NTC2 AVG [°C]
      38.825,        38.479

Statistic Info:
M1:  num,      min,      max,   median,      AVG,      STD,M2:  num,      min,      max,   median,      AVG,      STD
     301,   730.00,   853.00,   758.00,   771.93,  39.0765,     401,  1086.00,  1164.00,  1120.00,  1122.03,  25.6048,

Measurements:
Wavelength, Data Amplitude
1350, 748.00
1351, 749.00
1352, 748.00
1353, 748.00
1354, 747.00
1355, 747.00
1356, 747.00
1357, 747.00
1358, 747.00
1359, 745.00
1360, 744.00
1361, 746.00
1362, 745.00
1363, 744.00
1364, 743.00
1365, 743.00
1366, 741.00
1367, 742.00
1368, 741.00
1369, 741.00
1370, 740.00
1371, 739.00
1372, 739.00
1373, 739.00
1374, 739.00
1375, 738.00
1376, 737.00
1377, 736.00
1378, 736.00
1379, 736.00
1380, 735.00
1381, 736.00
1382, 735.00
1383, 735.00
1384, 735.00
1385, 735.00
1386, 734.00
1387, 733.00
1388, 733.00
1389, 733.00
1390, 733.00
1391, 733.00
1392, 732.00
1393, 732.00
1394, 733.00
1395, 731.00
1396, 732.00
1397, 732.00
1398, 732.00
1399, 732.00
1400, 731.00
1401, 732.00
1402, 731.00
1403, 731.00
1404, 731.00
1405, 731.00
1406, 731.00
1407, 731.00
1408, 731.00
1409, 731.00
1410, 732.00
1411, 731.00
1412, 731.00
1413, 730.00
1414, 731.00
1415, 731.00
1416, 731.00
1417, 732.00
1418, 731.00
1419, 730.00
1420, 731.00
1421, 730.00
1422, 731.00
1423, 731.00
1424, 732.00
1425, 730.00
1426, 731.00
1427, 731.00
1428, 731.00
1429, 732.00
1430, 731.00
1431, 731.00
1432, 732.00
1433, 732.00
1434, 733.00
1435, 733.00
1436, 733.00
1437, 733.00
1438, 733.00
1439, 732.00
1440, 732.00
1441, 733.00
1442, 734.00
1443, 735.00
1444, 734.00
1445, 734.00
1446, 734.00
1447, 735.00
1448, 735.00
1449, 736.00
1450, 736.00
1451, 736.00
1452, 737.00
1453, 736.00
1454, 737.00
1455, 738.00
1456, 737.00
1457, 738.00
1458, 738.00
1459, 737.00
1460, 739.00
1461, 739.00
1462, 740.00
1463, 740.00
1464, 740.00
1465, 741.00
1466, 741.00
1467, 742.00
1468, 742.00
1469, 742.00
1470, 743.00
1471, 743.00
1472, 744.00
1473, 743.00
1474, 745.00
1475, 746.00
1476, 745.00
1477, 746.00
1478, 747.00
1479, 747.00
1480, 747.00
1481, 748.00
1482, 748.00
1483, 749.00
1484, 749.00
1485, 750.00
1486, 750.00
1487, 751.00
1488, 752.00
1489, 752.00
1490, 753.00
1491, 754.00
1492, 754.00
1493, 754.00
1494, 755.00
1495, 755.00
1496, 756.00
1497, 757.00
1498, 757.00
1499, 758.00
1500, 758.00
1501, 758.00
1502, 758.00
1503, 759.00
1504, 760.00
1505, 761.00
1506, 761.00
1507, 762.00
1508, 763.00
1509, 762.00
1510, 764.00
1511, 763.00
1512, 764.00
1513, 765.00
1514, 767.00
1515, 766.00
1516, 767.00
1517, 767.00
1518, 768.00
1519, 768.00
1520, 769.00
1521, 770.00
1522, 772.00
1523, 771.00
1524, 772.00
1525, 772.00
1526, 773.00
1527, 775.00
1528, 774.00
1529, 776.00
1530, 776.00
1531, 777.00
1532, 777.00
1533, 778.00
1534, 778.00
1535, 779.00
1536, 780.00
1537, 781.00
1538, 781.00
1539, 781.00
1540, 782.00
1541, 782.00
1542, 783.00
1543, 784.00
1544, 785.00
1545, 785.00
1546, 786.00
1547, 787.00
1548, 787.00
1549, 788.00
1550, 789.00
1551, 788.00
1552, 789.00
1553, 789.00
1554, 791.00
1555, 791.00
1556, 792.00
1557, 793.00
1558, 793.00
1559, 795.00
1560, 795.00
1561, 795.00
1562, 796.00
1563, 796.00
1564, 797.00
1565, 797.00
1566, 798.00
1567, 799.00
1568, 800.00
1569, 801.00
1570, 801.00
1571, 802.00
1572, 803.00
1573, 803.00
1574, 804.00
1575, 804.00
1576, 805.00
1577, 805.00
1578, 807.00
1579, 808.00
1580, 808.00
1581, 809.00
1582, 809.00
1583, 809.00
1584, 810.00
1585, 811.00
1586, 810.00
1587, 811.00
1588, 811.00
1589, 813.00
1590, 813.00
1591, 814.00
1592, 815.00
1593, 816.00
1594, 816.00
1595, 817.00
1596, 816.00
1597, 818.00
1598, 818.00
1599, 819.00
1600, 820.00
1601, 821.00
1602, 822.00
1603, 822.00
1604, 823.00
1605, 823.00
1606, 823.00
1607, 823.00
1608, 825.00
1609, 825.00
1610, 827.00
1611, 827.00
1612, 829.00
1613, 830.00
1614, 829.00
1615, 830.00
1616, 830.00
1617, 832.00
1618, 833.00
1619, 834.00
1620, 835.00
1621, 836.00
1622, 836.00
1623, 837.00
1624, 838.00
1625, 839.00
1626, 840.00
1627, 840.00
1628, 841.00
1629, 841.00
1630, 841.00
1631, 843.00
1632, 843.00
1633, 844.00
1634, 844.00
1635, 846.00
1636, 846.00
1637, 847.00
1638, 847.00
1639, 848.00
1640, 849.00
1641, 849.00
1642, 850.00
1643, 849.00
1644, 850.00
1645, 851.00
1646, 852.00
1647, 852.00
1648, 853.00
1649, 853.00
1650, 853.00

1750, 1162.00
1751, 1164.00
1752, 1161.00
1753, 1163.00
1754, 1163.00
1755, 1163.00
1756, 1162.00
1757, 1163.00
1758, 1163.00
1759, 1162.00
1760, 1161.00
1761, 1162.00
1762, 1161.00
1763, 1160.00
1764, 1160.00
1765, 1162.00
1766, 1161.00
1767, 1161.00
1768, 1161.00
1769, 1159.00
1770, 1161.00
1771, 1162.00
1772, 1162.00
1773, 1161.00
1774, 1161.00
1775, 1158.00
1776, 1160.00
1777, 1160.00
1778, 1160.00
1779, 1160.00
1780, 1160.00
1781, 1159.00
1782, 1158.00
1783, 1159.00
1784, 1160.00
1785, 1158.00
1786, 1158.00
1787, 1156.00
1788, 1156.00
1789, 1157.00
1790, 1157.00
1791, 1157.00
1792, 1158.00
1793, 1157.00
1794, 1156.00
1795, 1157.00
1796, 1155.00
1797, 1154.00
1798, 1156.00
1799, 1153.00
1800, 1155.00
1801, 1156.00
1802, 1153.00
1803, 1154.00
1804, 1155.00
1805, 1155.00
1806, 1155.00
1807, 1153.00
1808, 1153.00
1809, 1153.00
1810, 1152.00
1811, 1152.00
1812, 1152.00
1813, 1151.00
1814, 1151.00
1815, 1152.00
1816, 1150.00
1817, 1150.00
1818, 1150.00
1819, 1150.00
1820, 1147.00
1821, 1150.00
1822, 1148.00
1823, 1148.00
1824, 1147.00
1825, 1146.00
1826, 1144.00
1827, 1144.00
1828, 1145.00
1829, 1143.00
1830, 1143.00
1831, 1143.00
1832, 1142.00
1833, 1140.00
1834, 1140.00
1835, 1139.00
1836, 1138.00
1837, 1137.00
1838, 1138.00
1839, 1134.00
1840, 1134.00
1841, 1131.00
1842, 1133.00
1843, 1131.00
1844, 1130.00
1845, 1128.00
1846, 1126.00
1847, 1126.00
1848, 1125.00
1849, 1122.00
1850, 1121.00
1851, 1119.00
1852, 1119.00
1853, 1120.00
1854, 1117.00
1855, 1115.00
1856, 1114.00
1857, 1113.00
1858, 1114.00
1859, 1110.00
1860, 1111.00
1861, 1112.00
1862, 1110.00
1863, 1109.00
1864, 1106.00
1865, 1106.00
1866, 1105.00
1867, 1103.00
1868, 1103.00
1869, 1103.00
1870, 1101.00
1871, 1101.00
1872, 1099.00
1873, 1099.00
1874, 1100.00
1875, 1098.00
1876, 1099.00
1877, 1095.00
1878, 1097.00
1879, 1095.00
1880, 1096.00
1881, 1093.00
1882, 1095.00
1883, 1096.00
1884, 1096.00
1885, 1093.00
1886, 1094.00
1887, 1093.00
1888, 1093.00
1889, 1093.00
1890, 1092.00
1891, 1092.00
1892, 1093.00
1893, 1091.00
1894, 1090.00
1895, 1091.00
1896, 1092.00
1897, 1090.00
1898, 1090.00
1899, 1090.00
1900, 1090.00
1901, 1091.00
1902, 1089.00
1903, 1090.00
1904, 1088.00
1905, 1089.00
1906, 1089.00
1907, 1088.00
1908, 1089.00
1909, 1087.00
1910, 1088.00
1911, 1088.00
1912, 1090.00
1913, 1088.00
1914, 1088.00
1915, 1086.00
1916, 1089.00
1917, 1088.00
1918, 1088.00
1919, 1088.00
1920, 1087.00
1921, 1088.00
1922, 1087.00
1923, 1087.00
1924, 1086.00
1925, 1088.00
1926, 1087.00
1927, 1086.00
1928, 1088.00
1929, 1088.00
1930, 1088.00
1931, 1088.00
1932, 1089.00
1933, 1089.00
1934, 1088.00
1935, 1089.00
1936, 1089.00
1937, 1088.00
1938, 1089.00
1939, 1090.00
1940, 1089.00
1941, 1088.00
1942, 1089.00
1943, 1088.00
1944, 1088.00
1945, 1089.00
1946, 1089.00
1947, 1089.00
1948, 1091.00
1949, 1089.00
1950, 1089.00
1951, 1089.00
1952, 1090.00
1953, 1090.00
1954, 1089.00
1955, 1092.00
1956, 1091.00
1957, 1091.00
1958, 1091.00
1959, 1091.00
1960, 1092.00
1961, 1093.00
1962, 1092.00
1963, 1092.00
1964, 1093.00
1965, 1092.00
1966, 1092.00
1967, 1093.00
1968, 1093.00
1969, 1094.00
1970, 1094.00
1971, 1094.00
1972, 1094.00
1973, 1095.00
1974, 1096.00
1975, 1096.00
1976, 1096.00
1977, 1095.00
1978, 1095.00
1979, 1097.00
1980, 1097.00
1981, 1097.00
1982, 1098.00
1983, 1097.00
1984, 1097.00
1985, 1098.00
1986, 1097.00
1987, 1099.00
1988, 1100.00
1989, 1099.00
1990, 1100.00
1991, 1100.00
1992, 1101.00
1993, 1101.00
1994, 1102.00
1995, 1100.00
1996, 1102.00
1997, 1101.00
1998, 1101.00
1999, 1102.00
2000, 1103.00
2001, 1105.00
2002, 1103.00
2003, 1103.00
2004, 1105.00
2005, 1104.00
2006, 1103.00
2007, 1103.00
2008, 1104.00
2009, 1106.00
2010, 1106.00
2011, 1104.00
2012, 1106.00
2013, 1106.00
2014, 1106.00
2015, 1107.00
2016, 1106.00
2017, 1106.00
2018, 1110.00
2019, 1107.00
2020, 1110.00
2021, 1108.00
2022, 1109.00
2023, 1110.00
2024, 1109.00
2025, 1110.00
2026, 1109.00
2027, 1111.00
2028, 1111.00
2029, 1110.00
2030, 1112.00
2031, 1112.00
2032, 1114.00
2033, 1113.00
2034, 1114.00
2035, 1115.00
2036, 1114.00
2037, 1114.00
2038, 1113.00
2039, 1114.00
2040, 1114.00
2041, 1116.00
2042, 1116.00
2043, 1115.00
2044, 1116.00
2045, 1118.00
2046, 1119.00
2047, 1119.00
2048, 1120.00
2049, 1119.00
2050, 1119.00
2051, 1120.00
2052, 1123.00
2053, 1121.00
2054, 1121.00
2055, 1122.00
2056, 1124.00
2057, 1124.00
2058, 1124.00
2059, 1124.00
2060, 1124.00
2061, 1125.00
2062, 1126.00
2063, 1127.00
2064, 1127.00
2065, 1128.00
2066, 1126.00
2067, 1127.00
2068, 1127.00
2069, 1128.00
2070, 1129.00
2071, 1129.00
2072, 1131.00
2073, 1131.00
2074, 1131.00
2075, 1132.00
2076, 1132.00
2077, 1130.00
2078, 1132.00
2079, 1134.00
2080, 1134.00
2081, 1133.00
2082, 1132.00
2083, 1135.00
2084, 1135.00
2085, 1136.00
2086, 1136.00
2087, 1137.00
2088, 1137.00
2089, 1138.00
2090, 1137.00
2091, 1139.00
2092, 1138.00
2093, 1136.00
2094, 1140.00
2095, 1139.00
2096, 1141.00
2097, 1140.00
2098, 1141.00
2099, 1140.00
2100, 1141.00
2101, 1141.00
2102, 1141.00
2103, 1141.00
2104, 1142.00
2105, 1141.00
2106, 1143.00
2107, 1143.00
2108, 1143.00
2109, 1143.00
2110, 1141.00
2111, 1142.00
2112, 1143.00
2113, 1144.00
2114, 1144.00
2115, 1144.00
2116, 1145.00
2117, 1144.00
2118, 1145.00
2119, 1145.00
2120, 1147.00
2121, 1147.00
2122, 1145.00
2123, 1146.00
2124, 1147.00
2125, 1146.00
2126, 1147.00
2127, 1146.00
2128, 1147.00
2129, 1147.00
2130, 1148.00
2131, 1147.00
2132, 1149.00
2133, 1148.00
2134, 1149.00
2135, 1149.00
2136, 1149.00
2137, 1149.00
2138, 1148.00
2139, 1148.00
2140, 1149.00
2141, 1149.00
2142, 1149.00
2143, 1149.00
2144, 1150.00
2145, 1149.00
2146, 1151.00
2147, 1152.00
2148, 1151.00
2149, 1150.00
2150, 1150.00
