FW version: 24
Log Version: 3.0.3

General Info:
       Command/Macro Performed,            Timestamp,             Device ID, COM Port, UART/I2C, Test Name, Host Major, Host Minor, Host Revision, Host Git Commit
            Single_measurement,  2023_07_04_11_34_35,       Insight2_F4_xxx,    USB-C,      USB,          ,          0,          1,             1,      4031237645

Show Spectrometer Status:
l0_version, f4_version, battery_perc, battery_mVolt, accelerometer_temp, accelerometer_x, accelerometer_y, accelerometer_z, compass_temp, compass_x, compass_y, compass_z, lamp_0, lamp_1, gain_0, gain_1
        17,         24,           28,          1867,               6272,           64956,            2368,           19308,            0,     65532,     65407,     19327,   2457,   2457,      1,      1

Temperature Statistic Info:
NTC AVG [°C], NTC2 AVG [°C]
      38.940,        38.623

Statistic Info:
M1:  num,      min,      max,   median,      AVG,      STD,M2:  num,      min,      max,   median,      AVG,      STD
     301,  1055.00,  1229.00,  1092.00,  1111.85,  54.0083,     401,  1490.00,  1597.00,  1535.00,  1538.14,  34.9097,

Measurements:
Wavelength, Data Amplitude
1350, 1083.00
1351, 1082.00
1352, 1082.00
1353, 1081.00
1354, 1080.00
1355, 1080.00
1356, 1080.00
1357, 1080.00
1358, 1078.00
1359, 1078.00
1360, 1078.00
1361, 1076.00
1362, 1078.00
1363, 1076.00
1364, 1074.00
1365, 1074.00
1366, 1073.00
1367, 1073.00
1368, 1072.00
1369, 1071.00
1370, 1071.00
1371, 1070.00
1372, 1068.00
1373, 1068.00
1374, 1067.00
1375, 1067.00
1376, 1066.00
1377, 1065.00
1378, 1065.00
1379, 1065.00
1380, 1064.00
1381, 1062.00
1382, 1062.00
1383, 1062.00
1384, 1061.00
1385, 1062.00
1386, 1061.00
1387, 1060.00
1388, 1059.00
1389, 1059.00
1390, 1060.00
1391, 1060.00
1392, 1058.00
1393, 1058.00
1394, 1057.00
1395, 1058.00
1396, 1057.00
1397, 1058.00
1398, 1058.00
1399, 1057.00
1400, 1056.00
1401, 1057.00
1402, 1056.00
1403, 1056.00
1404, 1056.00
1405, 1056.00
1406, 1056.00
1407, 1056.00
1408, 1056.00
1409, 1055.00
1410, 1056.00
1411, 1055.00
1412, 1056.00
1413, 1056.00
1414, 1056.00
1415, 1056.00
1416, 1055.00
1417, 1055.00
1418, 1056.00
1419, 1056.00
1420, 1055.00
1421, 1056.00
1422, 1056.00
1423, 1055.00
1424, 1056.00
1425, 1056.00
1426, 1056.00
1427, 1056.00
1428, 1056.00
1429, 1056.00
1430, 1056.00
1431, 1056.00
1432, 1056.00
1433, 1057.00
1434, 1057.00
1435, 1056.00
1436, 1057.00
1437, 1057.00
1438, 1058.00
1439, 1058.00
1440, 1059.00
1441, 1059.00
1442, 1059.00
1443, 1060.00
1444, 1059.00
1445, 1060.00
1446, 1060.00
1447, 1060.00
1448, 1061.00
1449, 1061.00
1450, 1062.00
1451, 1062.00
1452, 1062.00
1453, 1063.00
1454, 1063.00
1455, 1063.00
1456, 1063.00
1457, 1065.00
1458, 1064.00
1459, 1066.00
1460, 1066.00
1461, 1066.00
1462, 1066.00
1463, 1067.00
1464, 1068.00
1465, 1068.00
1466, 1068.00
1467, 1070.00
1468, 1069.00
1469, 1070.00
1470, 1071.00
1471, 1071.00
1472, 1072.00
1473, 1073.00
1474, 1073.00
1475, 1073.00
1476, 1074.00
1477, 1076.00
1478, 1076.00
1479, 1076.00
1480, 1078.00
1481, 1077.00
1482, 1078.00
1483, 1079.00
1484, 1079.00
1485, 1080.00
1486, 1081.00
1487, 1083.00
1488, 1082.00
1489, 1083.00
1490, 1084.00
1491, 1084.00
1492, 1085.00
1493, 1086.00
1494, 1087.00
1495, 1088.00
1496, 1088.00
1497, 1089.00
1498, 1090.00
1499, 1091.00
1500, 1092.00
1501, 1092.00
1502, 1093.00
1503, 1094.00
1504, 1094.00
1505, 1095.00
1506, 1096.00
1507, 1096.00
1508, 1097.00
1509, 1098.00
1510, 1098.00
1511, 1100.00
1512, 1100.00
1513, 1101.00
1514, 1102.00
1515, 1103.00
1516, 1103.00
1517, 1104.00
1518, 1105.00
1519, 1107.00
1520, 1106.00
1521, 1108.00
1522, 1109.00
1523, 1110.00
1524, 1111.00
1525, 1110.00
1526, 1111.00
1527, 1112.00
1528, 1114.00
1529, 1114.00
1530, 1115.00
1531, 1116.00
1532, 1118.00
1533, 1119.00
1534, 1120.00
1535, 1120.00
1536, 1121.00
1537, 1122.00
1538, 1123.00
1539, 1123.00
1540, 1124.00
1541, 1126.00
1542, 1126.00
1543, 1127.00
1544, 1129.00
1545, 1129.00
1546, 1130.00
1547, 1130.00
1548, 1131.00
1549, 1132.00
1550, 1133.00
1551, 1133.00
1552, 1135.00
1553, 1136.00
1554, 1136.00
1555, 1137.00
1556, 1137.00
1557, 1139.00
1558, 1140.00
1559, 1141.00
1560, 1141.00
1561, 1143.00
1562, 1144.00
1563, 1145.00
1564, 1145.00
1565, 1147.00
1566, 1147.00
1567, 1149.00
1568, 1149.00
1569, 1151.00
1570, 1150.00
1571, 1153.00
1572, 1153.00
1573, 1154.00
1574, 1155.00
1575, 1156.00
1576, 1157.00
1577, 1158.00
1578, 1159.00
1579, 1160.00
1580, 1161.00
1581, 1161.00
1582, 1162.00
1583, 1164.00
1584, 1164.00
1585, 1164.00
1586, 1166.00
1587, 1167.00
1588, 1167.00
1589, 1168.00
1590, 1168.00
1591, 1170.00
1592, 1170.00
1593, 1172.00
1594, 1173.00
1595, 1173.00
1596, 1174.00
1597, 1176.00
1598, 1176.00
1599, 1176.00
1600, 1177.00
1601, 1178.00
1602, 1180.00
1603, 1181.00
1604, 1181.00
1605, 1182.00
1606, 1184.00
1607, 1185.00
1608, 1185.00
1609, 1186.00
1610, 1187.00
1611, 1189.00
1612, 1190.00
1613, 1191.00
1614, 1193.00
1615, 1193.00
1616, 1194.00
1617, 1196.00
1618, 1196.00
1619, 1198.00
1620, 1198.00
1621, 1200.00
1622, 1200.00
1623, 1202.00
1624, 1204.00
1625, 1204.00
1626, 1205.00
1627, 1206.00
1628, 1208.00
1629, 1209.00
1630, 1209.00
1631, 1211.00
1632, 1212.00
1633, 1212.00
1634, 1213.00
1635, 1214.00
1636, 1215.00
1637, 1217.00
1638, 1217.00
1639, 1219.00
1640, 1220.00
1641, 1221.00
1642, 1221.00
1643, 1222.00
1644, 1223.00
1645, 1223.00
1646, 1225.00
1647, 1225.00
1648, 1226.00
1649, 1228.00
1650, 1229.00

1750, 1595.00
1751, 1595.00
1752, 1594.00
1753, 1593.00
1754, 1596.00
1755, 1593.00
1756, 1596.00
1757, 1596.00
1758, 1596.00
1759, 1597.00
1760, 1596.00
1761, 1595.00
1762, 1593.00
1763, 1592.00
1764, 1595.00
1765, 1592.00
1766, 1594.00
1767, 1595.00
1768, 1593.00
1769, 1594.00
1770, 1591.00
1771, 1592.00
1772, 1595.00
1773, 1592.00
1774, 1593.00
1775, 1592.00
1776, 1592.00
1777, 1593.00
1778, 1591.00
1779, 1590.00
1780, 1591.00
1781, 1591.00
1782, 1590.00
1783, 1590.00
1784, 1590.00
1785, 1589.00
1786, 1588.00
1787, 1589.00
1788, 1589.00
1789, 1588.00
1790, 1587.00
1791, 1586.00
1792, 1585.00
1793, 1585.00
1794, 1585.00
1795, 1585.00
1796, 1586.00
1797, 1586.00
1798, 1584.00
1799, 1586.00
1800, 1583.00
1801, 1584.00
1802, 1583.00
1803, 1583.00
1804, 1584.00
1805, 1583.00
1806, 1581.00
1807, 1581.00
1808, 1583.00
1809, 1580.00
1810, 1580.00
1811, 1581.00
1812, 1578.00
1813, 1580.00
1814, 1580.00
1815, 1578.00
1816, 1579.00
1817, 1577.00
1818, 1577.00
1819, 1577.00
1820, 1576.00
1821, 1573.00
1822, 1575.00
1823, 1574.00
1824, 1573.00
1825, 1573.00
1826, 1571.00
1827, 1572.00
1828, 1569.00
1829, 1569.00
1830, 1568.00
1831, 1567.00
1832, 1565.00
1833, 1564.00
1834, 1564.00
1835, 1562.00
1836, 1562.00
1837, 1559.00
1838, 1558.00
1839, 1558.00
1840, 1554.00
1841, 1554.00
1842, 1551.00
1843, 1551.00
1844, 1550.00
1845, 1547.00
1846, 1545.00
1847, 1544.00
1848, 1542.00
1849, 1541.00
1850, 1539.00
1851, 1537.00
1852, 1535.00
1853, 1533.00
1854, 1532.00
1855, 1531.00
1856, 1530.00
1857, 1527.00
1858, 1526.00
1859, 1524.00
1860, 1523.00
1861, 1522.00
1862, 1519.00
1863, 1519.00
1864, 1517.00
1865, 1516.00
1866, 1514.00
1867, 1513.00
1868, 1513.00
1869, 1511.00
1870, 1512.00
1871, 1509.00
1872, 1508.00
1873, 1508.00
1874, 1507.00
1875, 1507.00
1876, 1507.00
1877, 1504.00
1878, 1503.00
1879, 1505.00
1880, 1502.00
1881, 1503.00
1882, 1503.00
1883, 1499.00
1884, 1500.00
1885, 1499.00
1886, 1500.00
1887, 1498.00
1888, 1498.00
1889, 1497.00
1890, 1498.00
1891, 1497.00
1892, 1497.00
1893, 1497.00
1894, 1496.00
1895, 1497.00
1896, 1495.00
1897, 1496.00
1898, 1497.00
1899, 1497.00
1900, 1494.00
1901, 1493.00
1902, 1495.00
1903, 1496.00
1904, 1494.00
1905, 1494.00
1906, 1494.00
1907, 1493.00
1908, 1493.00
1909, 1493.00
1910, 1492.00
1911, 1493.00
1912, 1493.00
1913, 1493.00
1914, 1492.00
1915, 1492.00
1916, 1492.00
1917, 1493.00
1918, 1492.00
1919, 1493.00
1920, 1492.00
1921, 1492.00
1922, 1495.00
1923, 1491.00
1924, 1491.00
1925, 1491.00
1926, 1493.00
1927, 1493.00
1928, 1493.00
1929, 1491.00
1930, 1492.00
1931, 1493.00
1932, 1494.00
1933, 1493.00
1934, 1490.00
1935, 1492.00
1936, 1493.00
1937, 1493.00
1938, 1491.00
1939, 1493.00
1940, 1493.00
1941, 1494.00
1942, 1493.00
1943, 1494.00
1944, 1494.00
1945, 1494.00
1946, 1493.00
1947, 1493.00
1948, 1494.00
1949, 1492.00
1950, 1494.00
1951, 1495.00
1952, 1493.00
1953, 1495.00
1954, 1495.00
1955, 1495.00
1956, 1494.00
1957, 1496.00
1958, 1496.00
1959, 1498.00
1960, 1495.00
1961, 1498.00
1962, 1498.00
1963, 1497.00
1964, 1497.00
1965, 1498.00
1966, 1498.00
1967, 1501.00
1968, 1499.00
1969, 1500.00
1970, 1500.00
1971, 1500.00
1972, 1503.00
1973, 1500.00
1974, 1501.00
1975, 1503.00
1976, 1502.00
1977, 1503.00
1978, 1503.00
1979, 1504.00
1980, 1505.00
1981, 1503.00
1982, 1504.00
1983, 1505.00
1984, 1505.00
1985, 1507.00
1986, 1505.00
1987, 1507.00
1988, 1505.00
1989, 1507.00
1990, 1508.00
1991, 1509.00
1992, 1509.00
1993, 1509.00
1994, 1509.00
1995, 1509.00
1996, 1511.00
1997, 1510.00
1998, 1511.00
1999, 1511.00
2000, 1511.00
2001, 1513.00
2002, 1512.00
2003, 1514.00
2004, 1514.00
2005, 1513.00
2006, 1515.00
2007, 1515.00
2008, 1513.00
2009, 1514.00
2010, 1515.00
2011, 1515.00
2012, 1515.00
2013, 1517.00
2014, 1516.00
2015, 1518.00
2016, 1519.00
2017, 1519.00
2018, 1518.00
2019, 1520.00
2020, 1517.00
2021, 1519.00
2022, 1521.00
2023, 1520.00
2024, 1521.00
2025, 1521.00
2026, 1520.00
2027, 1523.00
2028, 1525.00
2029, 1523.00
2030, 1524.00
2031, 1524.00
2032, 1524.00
2033, 1526.00
2034, 1525.00
2035, 1526.00
2036, 1527.00
2037, 1526.00
2038, 1527.00
2039, 1527.00
2040, 1527.00
2041, 1530.00
2042, 1529.00
2043, 1531.00
2044, 1529.00
2045, 1530.00
2046, 1530.00
2047, 1532.00
2048, 1532.00
2049, 1534.00
2050, 1533.00
2051, 1533.00
2052, 1537.00
2053, 1538.00
2054, 1535.00
2055, 1537.00
2056, 1539.00
2057, 1537.00
2058, 1540.00
2059, 1539.00
2060, 1540.00
2061, 1541.00
2062, 1541.00
2063, 1541.00
2064, 1544.00
2065, 1545.00
2066, 1544.00
2067, 1544.00
2068, 1545.00
2069, 1547.00
2070, 1546.00
2071, 1549.00
2072, 1549.00
2073, 1548.00
2074, 1548.00
2075, 1550.00
2076, 1549.00
2077, 1551.00
2078, 1551.00
2079, 1552.00
2080, 1553.00
2081, 1552.00
2082, 1553.00
2083, 1553.00
2084, 1554.00
2085, 1555.00
2086, 1555.00
2087, 1555.00
2088, 1556.00
2089, 1557.00
2090, 1558.00
2091, 1558.00
2092, 1558.00
2093, 1558.00
2094, 1560.00
2095, 1560.00
2096, 1560.00
2097, 1561.00
2098, 1561.00
2099, 1561.00
2100, 1560.00
2101, 1560.00
2102, 1562.00
2103, 1563.00
2104, 1564.00
2105, 1563.00
2106, 1565.00
2107, 1563.00
2108, 1563.00
2109, 1564.00
2110, 1565.00
2111, 1564.00
2112, 1567.00
2113, 1567.00
2114, 1566.00
2115, 1567.00
2116, 1567.00
2117, 1569.00
2118, 1567.00
2119, 1567.00
2120, 1569.00
2121, 1568.00
2122, 1568.00
2123, 1568.00
2124, 1569.00
2125, 1572.00
2126, 1570.00
2127, 1570.00
2128, 1572.00
2129, 1570.00
2130, 1572.00
2131, 1570.00
2132, 1571.00
2133, 1573.00
2134, 1570.00
2135, 1572.00
2136, 1572.00
2137, 1573.00
2138, 1572.00
2139, 1574.00
2140, 1573.00
2141, 1574.00
2142, 1575.00
2143, 1574.00
2144, 1574.00
2145, 1573.00
2146, 1573.00
2147, 1575.00
2148, 1574.00
2149, 1575.00
2150, 1576.00
