FW version: 24
Log Version: 3.0.3

General Info:
       Command/Macro Performed,            Timestamp,             Device ID, COM Port, UART/I2C, Test Name, Host Major, Host Minor, Host Revision, Host Git Commit
            Single_measurement,  2023_07_04_11_35_14,       Insight2_F4_xxx,    USB-C,      USB,          ,          0,          1,             1,      4031237645

Show Spectrometer Status:
l0_version, f4_version, battery_perc, battery_mVolt, accelerometer_temp, accelerometer_x, accelerometer_y, accelerometer_z, compass_temp, compass_x, compass_y, compass_z, lamp_0, lamp_1, gain_0, gain_1
        17,         24,           29,          1871,               6288,           64952,            2364,           19268,            0,     65530,     65343,     19294,   3276,   3276,      1,      1

Temperature Statistic Info:
NTC AVG [°C], NTC2 AVG [°C]
      39.234,        38.911

Statistic Info:
M1:  num,      min,      max,   median,      AVG,      STD,M2:  num,      min,      max,   median,      AVG,      STD
     301,  1823.00,  2102.00,  1881.00,  1915.24,  86.8254,     401,  2387.00,  2555.00,  2454.00,  2460.54,  54.7594,

Measurements:
Wavelength, Data Amplitude
1350, 1875.00
1351, 1875.00
1352, 1874.00
1353, 1873.00
1354, 1871.00
1355, 1871.00
1356, 1870.00
1357, 1870.00
1358, 1868.00
1359, 1867.00
1360, 1867.00
1361, 1864.00
1362, 1863.00
1363, 1861.00
1364, 1859.00
1365, 1859.00
1366, 1857.00
1367, 1856.00
1368, 1854.00
1369, 1853.00
1370, 1853.00
1371, 1851.00
1372, 1849.00
1373, 1849.00
1374, 1846.00
1375, 1846.00
1376, 1845.00
1377, 1843.00
1378, 1841.00
1379, 1841.00
1380, 1839.00
1381, 1838.00
1382, 1837.00
1383, 1837.00
1384, 1837.00
1385, 1835.00
1386, 1834.00
1387, 1834.00
1388, 1833.00
1389, 1832.00
1390, 1830.00
1391, 1830.00
1392, 1830.00
1393, 1830.00
1394, 1829.00
1395, 1829.00
1396, 1829.00
1397, 1828.00
1398, 1828.00
1399, 1828.00
1400, 1828.00
1401, 1828.00
1402, 1826.00
1403, 1825.00
1404, 1826.00
1405, 1825.00
1406, 1825.00
1407, 1825.00
1408, 1824.00
1409, 1825.00
1410, 1825.00
1411, 1824.00
1412, 1825.00
1413, 1824.00
1414, 1824.00
1415, 1825.00
1416, 1823.00
1417, 1824.00
1418, 1825.00
1419, 1824.00
1420, 1825.00
1421, 1824.00
1422, 1824.00
1423, 1825.00
1424, 1825.00
1425, 1824.00
1426, 1824.00
1427, 1825.00
1428, 1825.00
1429, 1825.00
1430, 1824.00
1431, 1824.00
1432, 1826.00
1433, 1826.00
1434, 1827.00
1435, 1827.00
1436, 1826.00
1437, 1828.00
1438, 1828.00
1439, 1827.00
1440, 1829.00
1441, 1829.00
1442, 1829.00
1443, 1828.00
1444, 1830.00
1445, 1831.00
1446, 1832.00
1447, 1832.00
1448, 1833.00
1449, 1833.00
1450, 1834.00
1451, 1835.00
1452, 1834.00
1453, 1835.00
1454, 1835.00
1455, 1835.00
1456, 1838.00
1457, 1838.00
1458, 1837.00
1459, 1841.00
1460, 1840.00
1461, 1841.00
1462, 1841.00
1463, 1842.00
1464, 1844.00
1465, 1843.00
1466, 1844.00
1467, 1845.00
1468, 1847.00
1469, 1846.00
1470, 1848.00
1471, 1849.00
1472, 1850.00
1473, 1851.00
1474, 1851.00
1475, 1853.00
1476, 1855.00
1477, 1855.00
1478, 1857.00
1479, 1857.00
1480, 1858.00
1481, 1858.00
1482, 1859.00
1483, 1862.00
1484, 1863.00
1485, 1863.00
1486, 1864.00
1487, 1866.00
1488, 1867.00
1489, 1868.00
1490, 1870.00
1491, 1870.00
1492, 1870.00
1493, 1871.00
1494, 1873.00
1495, 1874.00
1496, 1876.00
1497, 1879.00
1498, 1878.00
1499, 1881.00
1500, 1880.00
1501, 1882.00
1502, 1882.00
1503, 1884.00
1504, 1885.00
1505, 1885.00
1506, 1887.00
1507, 1888.00
1508, 1889.00
1509, 1893.00
1510, 1893.00
1511, 1894.00
1512, 1895.00
1513, 1897.00
1514, 1897.00
1515, 1899.00
1516, 1900.00
1517, 1901.00
1518, 1901.00
1519, 1905.00
1520, 1904.00
1521, 1906.00
1522, 1909.00
1523, 1909.00
1524, 1911.00
1525, 1911.00
1526, 1914.00
1527, 1915.00
1528, 1916.00
1529, 1917.00
1530, 1919.00
1531, 1919.00
1532, 1922.00
1533, 1923.00
1534, 1925.00
1535, 1926.00
1536, 1927.00
1537, 1928.00
1538, 1931.00
1539, 1932.00
1540, 1933.00
1541, 1933.00
1542, 1936.00
1543, 1938.00
1544, 1939.00
1545, 1941.00
1546, 1942.00
1547, 1943.00
1548, 1944.00
1549, 1946.00
1550, 1947.00
1551, 1948.00
1552, 1951.00
1553, 1951.00
1554, 1953.00
1555, 1954.00
1556, 1957.00
1557, 1959.00
1558, 1961.00
1559, 1962.00
1560, 1963.00
1561, 1964.00
1562, 1966.00
1563, 1967.00
1564, 1969.00
1565, 1971.00
1566, 1973.00
1567, 1975.00
1568, 1976.00
1569, 1979.00
1570, 1979.00
1571, 1980.00
1572, 1982.00
1573, 1983.00
1574, 1985.00
1575, 1986.00
1576, 1987.00
1577, 1990.00
1578, 1991.00
1579, 1993.00
1580, 1994.00
1581, 1995.00
1582, 1997.00
1583, 1998.00
1584, 1999.00
1585, 2001.00
1586, 2002.00
1587, 2005.00
1588, 2005.00
1589, 2007.00
1590, 2010.00
1591, 2010.00
1592, 2010.00
1593, 2012.00
1594, 2013.00
1595, 2014.00
1596, 2016.00
1597, 2017.00
1598, 2019.00
1599, 2021.00
1600, 2022.00
1601, 2023.00
1602, 2025.00
1603, 2027.00
1604, 2028.00
1605, 2029.00
1606, 2030.00
1607, 2033.00
1608, 2034.00
1609, 2036.00
1610, 2039.00
1611, 2040.00
1612, 2042.00
1613, 2043.00
1614, 2045.00
1615, 2046.00
1616, 2048.00
1617, 2050.00
1618, 2052.00
1619, 2053.00
1620, 2056.00
1621, 2057.00
1622, 2060.00
1623, 2062.00
1624, 2063.00
1625, 2065.00
1626, 2066.00
1627, 2068.00
1628, 2069.00
1629, 2071.00
1630, 2073.00
1631, 2074.00
1632, 2076.00
1633, 2077.00
1634, 2079.00
1635, 2080.00
1636, 2083.00
1637, 2083.00
1638, 2085.00
1639, 2086.00
1640, 2088.00
1641, 2090.00
1642, 2090.00
1643, 2091.00
1644, 2093.00
1645, 2095.00
1646, 2096.00
1647, 2098.00
1648, 2099.00
1649, 2101.00
1650, 2102.00

1750, 2553.00
1751, 2553.00
1752, 2553.00
1753, 2555.00
1754, 2554.00
1755, 2553.00
1756, 2555.00
1757, 2553.00
1758, 2553.00
1759, 2553.00
1760, 2551.00
1761, 2553.00
1762, 2555.00
1763, 2553.00
1764, 2552.00
1765, 2552.00
1766, 2551.00
1767, 2551.00
1768, 2553.00
1769, 2555.00
1770, 2550.00
1771, 2551.00
1772, 2549.00
1773, 2549.00
1774, 2549.00
1775, 2550.00
1776, 2547.00
1777, 2548.00
1778, 2549.00
1779, 2547.00
1780, 2547.00
1781, 2547.00
1782, 2545.00
1783, 2544.00
1784, 2545.00
1785, 2543.00
1786, 2543.00
1787, 2542.00
1788, 2544.00
1789, 2541.00
1790, 2541.00
1791, 2542.00
1792, 2542.00
1793, 2539.00
1794, 2538.00
1795, 2539.00
1796, 2537.00
1797, 2537.00
1798, 2535.00
1799, 2535.00
1800, 2535.00
1801, 2534.00
1802, 2535.00
1803, 2533.00
1804, 2533.00
1805, 2532.00
1806, 2531.00
1807, 2531.00
1808, 2532.00
1809, 2530.00
1810, 2529.00
1811, 2527.00
1812, 2529.00
1813, 2526.00
1814, 2526.00
1815, 2526.00
1816, 2526.00
1817, 2525.00
1818, 2525.00
1819, 2523.00
1820, 2522.00
1821, 2520.00
1822, 2522.00
1823, 2517.00
1824, 2516.00
1825, 2516.00
1826, 2514.00
1827, 2514.00
1828, 2510.00
1829, 2509.00
1830, 2508.00
1831, 2506.00
1832, 2506.00
1833, 2503.00
1834, 2502.00
1835, 2500.00
1836, 2497.00
1837, 2494.00
1838, 2493.00
1839, 2489.00
1840, 2488.00
1841, 2485.00
1842, 2483.00
1843, 2480.00
1844, 2479.00
1845, 2476.00
1846, 2473.00
1847, 2470.00
1848, 2468.00
1849, 2463.00
1850, 2461.00
1851, 2459.00
1852, 2458.00
1853, 2454.00
1854, 2454.00
1855, 2449.00
1856, 2447.00
1857, 2445.00
1858, 2442.00
1859, 2440.00
1860, 2439.00
1861, 2435.00
1862, 2432.00
1863, 2431.00
1864, 2429.00
1865, 2427.00
1866, 2425.00
1867, 2423.00
1868, 2423.00
1869, 2422.00
1870, 2420.00
1871, 2418.00
1872, 2417.00
1873, 2414.00
1874, 2412.00
1875, 2411.00
1876, 2412.00
1877, 2409.00
1878, 2408.00
1879, 2407.00
1880, 2405.00
1881, 2406.00
1882, 2405.00
1883, 2404.00
1884, 2402.00
1885, 2403.00
1886, 2400.00
1887, 2400.00
1888, 2399.00
1889, 2398.00
1890, 2397.00
1891, 2398.00
1892, 2397.00
1893, 2397.00
1894, 2399.00
1895, 2396.00
1896, 2398.00
1897, 2395.00
1898, 2396.00
1899, 2395.00
1900, 2394.00
1901, 2392.00
1902, 2393.00
1903, 2393.00
1904, 2393.00
1905, 2392.00
1906, 2392.00
1907, 2391.00
1908, 2392.00
1909, 2391.00
1910, 2391.00
1911, 2391.00
1912, 2391.00
1913, 2390.00
1914, 2390.00
1915, 2390.00
1916, 2391.00
1917, 2389.00
1918, 2391.00
1919, 2388.00
1920, 2389.00
1921, 2389.00
1922, 2390.00
1923, 2391.00
1924, 2388.00
1925, 2388.00
1926, 2389.00
1927, 2389.00
1928, 2388.00
1929, 2387.00
1930, 2389.00
1931, 2390.00
1932, 2390.00
1933, 2390.00
1934, 2389.00
1935, 2391.00
1936, 2389.00
1937, 2388.00
1938, 2390.00
1939, 2389.00
1940, 2391.00
1941, 2389.00
1942, 2391.00
1943, 2390.00
1944, 2391.00
1945, 2391.00
1946, 2391.00
1947, 2390.00
1948, 2392.00
1949, 2391.00
1950, 2392.00
1951, 2393.00
1952, 2393.00
1953, 2393.00
1954, 2394.00
1955, 2394.00
1956, 2395.00
1957, 2393.00
1958, 2395.00
1959, 2395.00
1960, 2396.00
1961, 2397.00
1962, 2396.00
1963, 2398.00
1964, 2399.00
1965, 2399.00
1966, 2399.00
1967, 2401.00
1968, 2400.00
1969, 2399.00
1970, 2401.00
1971, 2401.00
1972, 2401.00
1973, 2402.00
1974, 2403.00
1975, 2406.00
1976, 2405.00
1977, 2406.00
1978, 2407.00
1979, 2407.00
1980, 2408.00
1981, 2407.00
1982, 2408.00
1983, 2410.00
1984, 2408.00
1985, 2409.00
1986, 2409.00
1987, 2411.00
1988, 2412.00
1989, 2413.00
1990, 2412.00
1991, 2414.00
1992, 2413.00
1993, 2415.00
1994, 2415.00
1995, 2416.00
1996, 2416.00
1997, 2416.00
1998, 2417.00
1999, 2419.00
2000, 2420.00
2001, 2420.00
2002, 2421.00
2003, 2421.00
2004, 2422.00
2005, 2422.00
2006, 2422.00
2007, 2423.00
2008, 2424.00
2009, 2424.00
2010, 2425.00
2011, 2426.00
2012, 2429.00
2013, 2428.00
2014, 2427.00
2015, 2428.00
2016, 2427.00
2017, 2428.00
2018, 2429.00
2019, 2429.00
2020, 2431.00
2021, 2432.00
2022, 2433.00
2023, 2433.00
2024, 2434.00
2025, 2435.00
2026, 2433.00
2027, 2434.00
2028, 2435.00
2029, 2436.00
2030, 2435.00
2031, 2438.00
2032, 2440.00
2033, 2440.00
2034, 2442.00
2035, 2441.00
2036, 2441.00
2037, 2441.00
2038, 2442.00
2039, 2443.00
2040, 2444.00
2041, 2444.00
2042, 2446.00
2043, 2446.00
2044, 2448.00
2045, 2449.00
2046, 2451.00
2047, 2448.00
2048, 2451.00
2049, 2452.00
2050, 2451.00
2051, 2453.00
2052, 2453.00
2053, 2454.00
2054, 2456.00
2055, 2456.00
2056, 2459.00
2057, 2460.00
2058, 2459.00
2059, 2461.00
2060, 2461.00
2061, 2463.00
2062, 2465.00
2063, 2466.00
2064, 2467.00
2065, 2468.00
2066, 2466.00
2067, 2468.00
2068, 2469.00
2069, 2469.00
2070, 2470.00
2071, 2470.00
2072, 2472.00
2073, 2473.00
2074, 2474.00
2075, 2477.00
2076, 2477.00
2077, 2477.00
2078, 2478.00
2079, 2477.00
2080, 2480.00
2081, 2481.00
2082, 2482.00
2083, 2483.00
2084, 2484.00
2085, 2484.00
2086, 2486.00
2087, 2486.00
2088, 2487.00
2089, 2488.00
2090, 2487.00
2091, 2487.00
2092, 2487.00
2093, 2491.00
2094, 2491.00
2095, 2493.00
2096, 2491.00
2097, 2494.00
2098, 2494.00
2099, 2493.00
2100, 2494.00
2101, 2493.00
2102, 2494.00
2103, 2496.00
2104, 2497.00
2105, 2496.00
2106, 2497.00
2107, 2497.00
2108, 2497.00
2109, 2499.00
2110, 2500.00
2111, 2498.00
2112, 2499.00
2113, 2499.00
2114, 2499.00
2115, 2500.00
2116, 2500.00
2117, 2502.00
2118, 2501.00
2119, 2502.00
2120, 2503.00
2121, 2503.00
2122, 2503.00
2123, 2505.00
2124, 2505.00
2125, 2505.00
2126, 2505.00
2127, 2505.00
2128, 2508.00
2129, 2505.00
2130, 2506.00
2131, 2507.00
2132, 2507.00
2133, 2507.00
2134, 2509.00
2135, 2509.00
2136, 2509.00
2137, 2509.00
2138, 2511.00
2139, 2510.00
2140, 2511.00
2141, 2510.00
2142, 2511.00
2143, 2510.00
2144, 2511.00
2145, 2511.00
2146, 2512.00
2147, 2513.00
2148, 2514.00
2149, 2513.00
2150, 2514.00
