FW version: 24
Log Version: 3.0.3

General Info:
       Command/Macro Performed,            Timestamp,             Device ID, COM Port, UART/I2C, Test Name, Host Major, Host Minor, Host Revision, Host Git Commit
            Single_measurement,  2023_07_04_11_10_25,       Insight2_F4_xxx,    USB-C,      USB,          ,          0,          1,             1,      4031237645

Show Spectrometer Status:
l0_version, f4_version, battery_perc, battery_mVolt, accelerometer_temp, accelerometer_x, accelerometer_y, accelerometer_z, compass_temp, compass_x, compass_y, compass_z, lamp_0, lamp_1, gain_0, gain_1
        17,         24,           20,          1851,               5984,           64680,            2224,           19224,            0,     65533,     65528,     19324,   3276,   3276,      1,      1

Temperature Statistic Info:
NTC AVG [°C], NTC2 AVG [°C]
      37.897,        37.554

Statistic Info:
M1:  num,      min,      max,   median,      AVG,      STD,M2:  num,      min,      max,   median,      AVG,      STD
     301,  1725.00,  1960.00,  1774.00,  1802.69,  72.6400,     401,  2268.00,  2414.00,  2328.00,  2331.49,  47.6432,

Measurements:
Wavelength, Data Amplitude
1350, 1770.00
1351, 1768.00
1352, 1767.00
1353, 1767.00
1354, 1765.00
1355, 1765.00
1356, 1764.00
1357, 1763.00
1358, 1764.00
1359, 1762.00
1360, 1761.00
1361, 1760.00
1362, 1759.00
1363, 1758.00
1364, 1756.00
1365, 1756.00
1366, 1754.00
1367, 1753.00
1368, 1753.00
1369, 1751.00
1370, 1750.00
1371, 1750.00
1372, 1747.00
1373, 1746.00
1374, 1746.00
1375, 1744.00
1376, 1742.00
1377, 1740.00
1378, 1741.00
1379, 1740.00
1380, 1739.00
1381, 1739.00
1382, 1737.00
1383, 1737.00
1384, 1736.00
1385, 1735.00
1386, 1734.00
1387, 1735.00
1388, 1733.00
1389, 1734.00
1390, 1733.00
1391, 1732.00
1392, 1731.00
1393, 1732.00
1394, 1732.00
1395, 1731.00
1396, 1731.00
1397, 1730.00
1398, 1729.00
1399, 1729.00
1400, 1729.00
1401, 1729.00
1402, 1729.00
1403, 1728.00
1404, 1729.00
1405, 1728.00
1406, 1728.00
1407, 1727.00
1408, 1726.00
1409, 1727.00
1410, 1727.00
1411, 1727.00
1412, 1727.00
1413, 1726.00
1414, 1726.00
1415, 1726.00
1416, 1726.00
1417, 1726.00
1418, 1726.00
1419, 1726.00
1420, 1726.00
1421, 1725.00
1422, 1726.00
1423, 1727.00
1424, 1725.00
1425, 1726.00
1426, 1726.00
1427, 1726.00
1428, 1727.00
1429, 1726.00
1430, 1727.00
1431, 1727.00
1432, 1727.00
1433, 1727.00
1434, 1728.00
1435, 1729.00
1436, 1729.00
1437, 1729.00
1438, 1729.00
1439, 1729.00
1440, 1729.00
1441, 1731.00
1442, 1731.00
1443, 1731.00
1444, 1732.00
1445, 1732.00
1446, 1732.00
1447, 1733.00
1448, 1732.00
1449, 1733.00
1450, 1734.00
1451, 1734.00
1452, 1735.00
1453, 1737.00
1454, 1737.00
1455, 1737.00
1456, 1737.00
1457, 1737.00
1458, 1738.00
1459, 1739.00
1460, 1739.00
1461, 1741.00
1462, 1741.00
1463, 1743.00
1464, 1742.00
1465, 1742.00
1466, 1744.00
1467, 1744.00
1468, 1745.00
1469, 1746.00
1470, 1746.00
1471, 1748.00
1472, 1747.00
1473, 1749.00
1474, 1749.00
1475, 1750.00
1476, 1752.00
1477, 1752.00
1478, 1753.00
1479, 1754.00
1480, 1756.00
1481, 1754.00
1482, 1757.00
1483, 1757.00
1484, 1758.00
1485, 1759.00
1486, 1760.00
1487, 1761.00
1488, 1762.00
1489, 1763.00
1490, 1764.00
1491, 1765.00
1492, 1768.00
1493, 1766.00
1494, 1767.00
1495, 1769.00
1496, 1769.00
1497, 1771.00
1498, 1771.00
1499, 1773.00
1500, 1774.00
1501, 1775.00
1502, 1775.00
1503, 1777.00
1504, 1778.00
1505, 1780.00
1506, 1779.00
1507, 1780.00
1508, 1781.00
1509, 1783.00
1510, 1785.00
1511, 1785.00
1512, 1787.00
1513, 1787.00
1514, 1787.00
1515, 1790.00
1516, 1790.00
1517, 1791.00
1518, 1793.00
1519, 1793.00
1520, 1795.00
1521, 1796.00
1522, 1797.00
1523, 1797.00
1524, 1799.00
1525, 1800.00
1526, 1802.00
1527, 1802.00
1528, 1804.00
1529, 1805.00
1530, 1806.00
1531, 1808.00
1532, 1809.00
1533, 1810.00
1534, 1811.00
1535, 1813.00
1536, 1813.00
1537, 1816.00
1538, 1816.00
1539, 1817.00
1540, 1818.00
1541, 1819.00
1542, 1821.00
1543, 1822.00
1544, 1823.00
1545, 1825.00
1546, 1824.00
1547, 1826.00
1548, 1827.00
1549, 1830.00
1550, 1830.00
1551, 1831.00
1552, 1833.00
1553, 1835.00
1554, 1836.00
1555, 1837.00
1556, 1837.00
1557, 1839.00
1558, 1840.00
1559, 1842.00
1560, 1843.00
1561, 1844.00
1562, 1846.00
1563, 1846.00
1564, 1848.00
1565, 1849.00
1566, 1851.00
1567, 1853.00
1568, 1854.00
1569, 1855.00
1570, 1857.00
1571, 1858.00
1572, 1858.00
1573, 1861.00
1574, 1862.00
1575, 1863.00
1576, 1864.00
1577, 1865.00
1578, 1866.00
1579, 1867.00
1580, 1868.00
1581, 1870.00
1582, 1871.00
1583, 1872.00
1584, 1873.00
1585, 1875.00
1586, 1876.00
1587, 1875.00
1588, 1878.00
1589, 1879.00
1590, 1881.00
1591, 1881.00
1592, 1882.00
1593, 1884.00
1594, 1885.00
1595, 1887.00
1596, 1887.00
1597, 1888.00
1598, 1889.00
1599, 1891.00
1600, 1891.00
1601, 1893.00
1602, 1895.00
1603, 1896.00
1604, 1898.00
1605, 1898.00
1606, 1900.00
1607, 1901.00
1608, 1903.00
1609, 1903.00
1610, 1905.00
1611, 1905.00
1612, 1908.00
1613, 1909.00
1614, 1911.00
1615, 1912.00
1616, 1913.00
1617, 1915.00
1618, 1916.00
1619, 1918.00
1620, 1919.00
1621, 1921.00
1622, 1924.00
1623, 1923.00
1624, 1925.00
1625, 1926.00
1626, 1928.00
1627, 1930.00
1628, 1931.00
1629, 1933.00
1630, 1934.00
1631, 1937.00
1632, 1937.00
1633, 1939.00
1634, 1940.00
1635, 1940.00
1636, 1941.00
1637, 1944.00
1638, 1945.00
1639, 1945.00
1640, 1946.00
1641, 1949.00
1642, 1949.00
1643, 1950.00
1644, 1951.00
1645, 1953.00
1646, 1954.00
1647, 1955.00
1648, 1957.00
1649, 1957.00
1650, 1960.00

1750, 2414.00
1751, 2411.00
1752, 2412.00
1753, 2414.00
1754, 2412.00
1755, 2413.00
1756, 2412.00
1757, 2413.00
1758, 2412.00
1759, 2411.00
1760, 2413.00
1761, 2413.00
1762, 2412.00
1763, 2411.00
1764, 2412.00
1765, 2410.00
1766, 2412.00
1767, 2411.00
1768, 2411.00
1769, 2409.00
1770, 2412.00
1771, 2409.00
1772, 2410.00
1773, 2409.00
1774, 2408.00
1775, 2408.00
1776, 2408.00
1777, 2407.00
1778, 2407.00
1779, 2407.00
1780, 2406.00
1781, 2406.00
1782, 2406.00
1783, 2406.00
1784, 2405.00
1785, 2403.00
1786, 2403.00
1787, 2403.00
1788, 2401.00
1789, 2401.00
1790, 2402.00
1791, 2400.00
1792, 2399.00
1793, 2397.00
1794, 2400.00
1795, 2398.00
1796, 2397.00
1797, 2397.00
1798, 2396.00
1799, 2397.00
1800, 2395.00
1801, 2396.00
1802, 2395.00
1803, 2394.00
1804, 2394.00
1805, 2394.00
1806, 2393.00
1807, 2393.00
1808, 2393.00
1809, 2393.00
1810, 2390.00
1811, 2389.00
1812, 2390.00
1813, 2390.00
1814, 2388.00
1815, 2388.00
1816, 2388.00
1817, 2388.00
1818, 2383.00
1819, 2386.00
1820, 2384.00
1821, 2384.00
1822, 2384.00
1823, 2384.00
1824, 2382.00
1825, 2379.00
1826, 2378.00
1827, 2377.00
1828, 2375.00
1829, 2376.00
1830, 2374.00
1831, 2372.00
1832, 2371.00
1833, 2370.00
1834, 2367.00
1835, 2366.00
1836, 2365.00
1837, 2362.00
1838, 2361.00
1839, 2358.00
1840, 2356.00
1841, 2353.00
1842, 2351.00
1843, 2350.00
1844, 2348.00
1845, 2346.00
1846, 2345.00
1847, 2341.00
1848, 2339.00
1849, 2336.00
1850, 2336.00
1851, 2333.00
1852, 2330.00
1853, 2329.00
1854, 2324.00
1855, 2323.00
1856, 2321.00
1857, 2319.00
1858, 2315.00
1859, 2313.00
1860, 2312.00
1861, 2311.00
1862, 2308.00
1863, 2307.00
1864, 2306.00
1865, 2304.00
1866, 2301.00
1867, 2297.00
1868, 2298.00
1869, 2297.00
1870, 2296.00
1871, 2294.00
1872, 2292.00
1873, 2292.00
1874, 2290.00
1875, 2289.00
1876, 2288.00
1877, 2287.00
1878, 2286.00
1879, 2283.00
1880, 2283.00
1881, 2283.00
1882, 2283.00
1883, 2282.00
1884, 2280.00
1885, 2281.00
1886, 2280.00
1887, 2280.00
1888, 2278.00
1889, 2278.00
1890, 2277.00
1891, 2277.00
1892, 2275.00
1893, 2276.00
1894, 2277.00
1895, 2275.00
1896, 2274.00
1897, 2274.00
1898, 2274.00
1899, 2273.00
1900, 2274.00
1901, 2273.00
1902, 2271.00
1903, 2272.00
1904, 2272.00
1905, 2272.00
1906, 2272.00
1907, 2272.00
1908, 2271.00
1909, 2271.00
1910, 2271.00
1911, 2270.00
1912, 2271.00
1913, 2270.00
1914, 2270.00
1915, 2268.00
1916, 2270.00
1917, 2270.00
1918, 2269.00
1919, 2269.00
1920, 2269.00
1921, 2270.00
1922, 2269.00
1923, 2269.00
1924, 2269.00
1925, 2268.00
1926, 2269.00
1927, 2269.00
1928, 2270.00
1929, 2270.00
1930, 2269.00
1931, 2268.00
1932, 2270.00
1933, 2269.00
1934, 2269.00
1935, 2270.00
1936, 2270.00
1937, 2271.00
1938, 2270.00
1939, 2268.00
1940, 2271.00
1941, 2270.00
1942, 2270.00
1943, 2272.00
1944, 2270.00
1945, 2272.00
1946, 2271.00
1947, 2271.00
1948, 2272.00
1949, 2271.00
1950, 2272.00
1951, 2271.00
1952, 2272.00
1953, 2274.00
1954, 2274.00
1955, 2274.00
1956, 2274.00
1957, 2274.00
1958, 2276.00
1959, 2275.00
1960, 2275.00
1961, 2275.00
1962, 2275.00
1963, 2276.00
1964, 2276.00
1965, 2277.00
1966, 2278.00
1967, 2278.00
1968, 2280.00
1969, 2280.00
1970, 2280.00
1971, 2280.00
1972, 2282.00
1973, 2283.00
1974, 2282.00
1975, 2282.00
1976, 2284.00
1977, 2282.00
1978, 2285.00
1979, 2285.00
1980, 2285.00
1981, 2285.00
1982, 2287.00
1983, 2287.00
1984, 2287.00
1985, 2287.00
1986, 2289.00
1987, 2288.00
1988, 2288.00
1989, 2289.00
1990, 2290.00
1991, 2290.00
1992, 2290.00
1993, 2291.00
1994, 2292.00
1995, 2294.00
1996, 2293.00
1997, 2295.00
1998, 2295.00
1999, 2294.00
2000, 2296.00
2001, 2296.00
2002, 2295.00
2003, 2298.00
2004, 2297.00
2005, 2298.00
2006, 2299.00
2007, 2296.00
2008, 2299.00
2009, 2299.00
2010, 2300.00
2011, 2301.00
2012, 2301.00
2013, 2301.00
2014, 2303.00
2015, 2303.00
2016, 2304.00
2017, 2303.00
2018, 2304.00
2019, 2304.00
2020, 2305.00
2021, 2305.00
2022, 2308.00
2023, 2307.00
2024, 2307.00
2025, 2309.00
2026, 2307.00
2027, 2309.00
2028, 2309.00
2029, 2310.00
2030, 2311.00
2031, 2311.00
2032, 2311.00
2033, 2314.00
2034, 2312.00
2035, 2315.00
2036, 2314.00
2037, 2315.00
2038, 2317.00
2039, 2317.00
2040, 2316.00
2041, 2318.00
2042, 2319.00
2043, 2319.00
2044, 2320.00
2045, 2321.00
2046, 2321.00
2047, 2323.00
2048, 2324.00
2049, 2324.00
2050, 2324.00
2051, 2324.00
2052, 2325.00
2053, 2328.00
2054, 2329.00
2055, 2328.00
2056, 2329.00
2057, 2331.00
2058, 2333.00
2059, 2332.00
2060, 2333.00
2061, 2335.00
2062, 2335.00
2063, 2335.00
2064, 2335.00
2065, 2339.00
2066, 2339.00
2067, 2339.00
2068, 2339.00
2069, 2340.00
2070, 2342.00
2071, 2341.00
2072, 2343.00
2073, 2342.00
2074, 2345.00
2075, 2345.00
2076, 2345.00
2077, 2347.00
2078, 2347.00
2079, 2349.00
2080, 2348.00
2081, 2348.00
2082, 2349.00
2083, 2351.00
2084, 2352.00
2085, 2351.00
2086, 2352.00
2087, 2354.00
2088, 2354.00
2089, 2354.00
2090, 2356.00
2091, 2356.00
2092, 2355.00
2093, 2359.00
2094, 2357.00
2095, 2359.00
2096, 2357.00
2097, 2358.00
2098, 2359.00
2099, 2359.00
2100, 2360.00
2101, 2361.00
2102, 2361.00
2103, 2361.00
2104, 2363.00
2105, 2362.00
2106, 2363.00
2107, 2365.00
2108, 2365.00
2109, 2362.00
2110, 2363.00
2111, 2365.00
2112, 2365.00
2113, 2366.00
2114, 2366.00
2115, 2367.00
2116, 2368.00
2117, 2365.00
2118, 2367.00
2119, 2368.00
2120, 2368.00
2121, 2370.00
2122, 2369.00
2123, 2368.00
2124, 2369.00
2125, 2370.00
2126, 2370.00
2127, 2371.00
2128, 2371.00
2129, 2372.00
2130, 2371.00
2131, 2371.00
2132, 2372.00
2133, 2371.00
2134, 2373.00
2135, 2374.00
2136, 2373.00
2137, 2372.00
2138, 2375.00
2139, 2374.00
2140, 2374.00
2141, 2376.00
2142, 2375.00
2143, 2376.00
2144, 2377.00
2145, 2376.00
2146, 2376.00
2147, 2375.00
2148, 2377.00
2149, 2378.00
2150, 2375.00
