FW version: 24
Log Version: 3.0.3

General Info:
       Command/Macro Performed,            Timestamp,             Device ID, COM Port, UART/I2C, Test Name, Host Major, Host Minor, Host Revision, Host Git Commit
            Single_measurement,  2023_07_04_11_09_16,       Insight2_F4_xxx,    USB-C,      USB,          ,          0,          1,             1,      4031237645

Show Spectrometer Status:
l0_version, f4_version, battery_perc, battery_mVolt, accelerometer_temp, accelerometer_x, accelerometer_y, accelerometer_z, compass_temp, compass_x, compass_y, compass_z, lamp_0, lamp_1, gain_0, gain_1
        17,         24,           20,          1850,               5936,           64684,            2216,           19216,            0,     65534,     65514,     19315,   3276,   3276,      0,      0

Temperature Statistic Info:
NTC AVG [°C], NTC2 AVG [°C]
      37.353,        37.004

Statistic Info:
M1:  num,      min,      max,   median,      AVG,      STD,M2:  num,      min,      max,   median,      AVG,      STD
     301,   595.00,   675.00,   611.00,   621.40,  24.8101,     401,   783.00,   834.00,   804.00,   804.86,  16.4276,

Measurements:
Wavelength, Data Amplitude
1350, 610.00
1351, 610.00
1352, 610.00
1353, 609.00
1354, 609.00
1355, 608.00
1356, 608.00
1357, 608.00
1358, 608.00
1359, 608.00
1360, 608.00
1361, 607.00
1362, 606.00
1363, 606.00
1364, 606.00
1365, 606.00
1366, 605.00
1367, 605.00
1368, 604.00
1369, 604.00
1370, 603.00
1371, 603.00
1372, 603.00
1373, 602.00
1374, 602.00
1375, 602.00
1376, 601.00
1377, 600.00
1378, 601.00
1379, 600.00
1380, 600.00
1381, 600.00
1382, 600.00
1383, 599.00
1384, 599.00
1385, 599.00
1386, 598.00
1387, 599.00
1388, 598.00
1389, 598.00
1390, 598.00
1391, 597.00
1392, 597.00
1393, 598.00
1394, 597.00
1395, 596.00
1396, 597.00
1397, 597.00
1398, 596.00
1399, 596.00
1400, 596.00
1401, 596.00
1402, 596.00
1403, 596.00
1404, 596.00
1405, 596.00
1406, 596.00
1407, 596.00
1408, 596.00
1409, 596.00
1410, 596.00
1411, 596.00
1412, 595.00
1413, 595.00
1414, 595.00
1415, 595.00
1416, 595.00
1417, 596.00
1418, 595.00
1419, 596.00
1420, 596.00
1421, 596.00
1422, 596.00
1423, 595.00
1424, 595.00
1425, 595.00
1426, 596.00
1427, 595.00
1428, 595.00
1429, 596.00
1430, 596.00
1431, 596.00
1432, 596.00
1433, 596.00
1434, 596.00
1435, 596.00
1436, 596.00
1437, 596.00
1438, 596.00
1439, 596.00
1440, 597.00
1441, 596.00
1442, 597.00
1443, 596.00
1444, 597.00
1445, 597.00
1446, 597.00
1447, 597.00
1448, 598.00
1449, 598.00
1450, 598.00
1451, 598.00
1452, 598.00
1453, 598.00
1454, 598.00
1455, 599.00
1456, 599.00
1457, 599.00
1458, 599.00
1459, 600.00
1460, 600.00
1461, 600.00
1462, 600.00
1463, 600.00
1464, 600.00
1465, 601.00
1466, 601.00
1467, 602.00
1468, 601.00
1469, 602.00
1470, 602.00
1471, 602.00
1472, 603.00
1473, 603.00
1474, 603.00
1475, 603.00
1476, 604.00
1477, 604.00
1478, 604.00
1479, 604.00
1480, 605.00
1481, 605.00
1482, 606.00
1483, 606.00
1484, 606.00
1485, 607.00
1486, 607.00
1487, 607.00
1488, 608.00
1489, 607.00
1490, 608.00
1491, 608.00
1492, 608.00
1493, 609.00
1494, 610.00
1495, 610.00
1496, 610.00
1497, 610.00
1498, 611.00
1499, 611.00
1500, 611.00
1501, 612.00
1502, 612.00
1503, 612.00
1504, 613.00
1505, 613.00
1506, 614.00
1507, 614.00
1508, 614.00
1509, 614.00
1510, 615.00
1511, 615.00
1512, 616.00
1513, 616.00
1514, 616.00
1515, 616.00
1516, 617.00
1517, 617.00
1518, 618.00
1519, 618.00
1520, 618.00
1521, 620.00
1522, 619.00
1523, 620.00
1524, 620.00
1525, 620.00
1526, 621.00
1527, 621.00
1528, 622.00
1529, 622.00
1530, 622.00
1531, 623.00
1532, 624.00
1533, 624.00
1534, 624.00
1535, 624.00
1536, 625.00
1537, 626.00
1538, 626.00
1539, 626.00
1540, 627.00
1541, 627.00
1542, 628.00
1543, 628.00
1544, 628.00
1545, 629.00
1546, 629.00
1547, 630.00
1548, 630.00
1549, 630.00
1550, 631.00
1551, 631.00
1552, 632.00
1553, 632.00
1554, 632.00
1555, 633.00
1556, 633.00
1557, 634.00
1558, 635.00
1559, 634.00
1560, 635.00
1561, 636.00
1562, 636.00
1563, 637.00
1564, 637.00
1565, 638.00
1566, 638.00
1567, 638.00
1568, 638.00
1569, 639.00
1570, 639.00
1571, 640.00
1572, 640.00
1573, 641.00
1574, 641.00
1575, 642.00
1576, 643.00
1577, 642.00
1578, 643.00
1579, 644.00
1580, 644.00
1581, 644.00
1582, 645.00
1583, 645.00
1584, 645.00
1585, 646.00
1586, 646.00
1587, 647.00
1588, 647.00
1589, 648.00
1590, 648.00
1591, 648.00
1592, 648.00
1593, 648.00
1594, 649.00
1595, 650.00
1596, 650.00
1597, 650.00
1598, 651.00
1599, 651.00
1600, 651.00
1601, 653.00
1602, 652.00
1603, 653.00
1604, 653.00
1605, 654.00
1606, 655.00
1607, 655.00
1608, 655.00
1609, 656.00
1610, 656.00
1611, 657.00
1612, 657.00
1613, 658.00
1614, 658.00
1615, 659.00
1616, 660.00
1617, 659.00
1618, 660.00
1619, 661.00
1620, 661.00
1621, 662.00
1622, 662.00
1623, 663.00
1624, 663.00
1625, 664.00
1626, 664.00
1627, 665.00
1628, 666.00
1629, 666.00
1630, 666.00
1631, 667.00
1632, 667.00
1633, 668.00
1634, 668.00
1635, 669.00
1636, 669.00
1637, 670.00
1638, 670.00
1639, 671.00
1640, 671.00
1641, 672.00
1642, 671.00
1643, 672.00
1644, 673.00
1645, 673.00
1646, 674.00
1647, 674.00
1648, 674.00
1649, 674.00
1650, 675.00

1750, 832.00
1751, 832.00
1752, 833.00
1753, 833.00
1754, 833.00
1755, 833.00
1756, 833.00
1757, 833.00
1758, 832.00
1759, 833.00
1760, 833.00
1761, 834.00
1762, 833.00
1763, 833.00
1764, 832.00
1765, 832.00
1766, 832.00
1767, 833.00
1768, 832.00
1769, 832.00
1770, 832.00
1771, 832.00
1772, 832.00
1773, 832.00
1774, 831.00
1775, 832.00
1776, 831.00
1777, 831.00
1778, 831.00
1779, 830.00
1780, 831.00
1781, 831.00
1782, 831.00
1783, 830.00
1784, 830.00
1785, 829.00
1786, 829.00
1787, 829.00
1788, 829.00
1789, 829.00
1790, 829.00
1791, 829.00
1792, 828.00
1793, 829.00
1794, 828.00
1795, 828.00
1796, 827.00
1797, 827.00
1798, 828.00
1799, 828.00
1800, 827.00
1801, 827.00
1802, 827.00
1803, 826.00
1804, 827.00
1805, 826.00
1806, 826.00
1807, 826.00
1808, 826.00
1809, 826.00
1810, 825.00
1811, 825.00
1812, 825.00
1813, 825.00
1814, 825.00
1815, 824.00
1816, 824.00
1817, 824.00
1818, 824.00
1819, 823.00
1820, 823.00
1821, 823.00
1822, 823.00
1823, 822.00
1824, 822.00
1825, 822.00
1826, 821.00
1827, 820.00
1828, 820.00
1829, 820.00
1830, 819.00
1831, 820.00
1832, 818.00
1833, 818.00
1834, 817.00
1835, 817.00
1836, 817.00
1837, 816.00
1838, 815.00
1839, 814.00
1840, 814.00
1841, 813.00
1842, 813.00
1843, 812.00
1844, 810.00
1845, 810.00
1846, 809.00
1847, 808.00
1848, 808.00
1849, 806.00
1850, 807.00
1851, 806.00
1852, 804.00
1853, 804.00
1854, 803.00
1855, 802.00
1856, 802.00
1857, 800.00
1858, 800.00
1859, 799.00
1860, 799.00
1861, 798.00
1862, 797.00
1863, 796.00
1864, 796.00
1865, 796.00
1866, 794.00
1867, 794.00
1868, 793.00
1869, 793.00
1870, 793.00
1871, 792.00
1872, 792.00
1873, 791.00
1874, 791.00
1875, 791.00
1876, 790.00
1877, 790.00
1878, 790.00
1879, 788.00
1880, 789.00
1881, 788.00
1882, 788.00
1883, 788.00
1884, 788.00
1885, 787.00
1886, 787.00
1887, 787.00
1888, 787.00
1889, 787.00
1890, 786.00
1891, 786.00
1892, 786.00
1893, 785.00
1894, 786.00
1895, 786.00
1896, 786.00
1897, 785.00
1898, 785.00
1899, 785.00
1900, 785.00
1901, 785.00
1902, 785.00
1903, 785.00
1904, 785.00
1905, 784.00
1906, 784.00
1907, 784.00
1908, 784.00
1909, 784.00
1910, 784.00
1911, 783.00
1912, 784.00
1913, 784.00
1914, 784.00
1915, 783.00
1916, 784.00
1917, 784.00
1918, 783.00
1919, 784.00
1920, 784.00
1921, 783.00
1922, 783.00
1923, 784.00
1924, 783.00
1925, 783.00
1926, 783.00
1927, 783.00
1928, 783.00
1929, 783.00
1930, 783.00
1931, 784.00
1932, 784.00
1933, 783.00
1934, 783.00
1935, 784.00
1936, 784.00
1937, 783.00
1938, 784.00
1939, 783.00
1940, 783.00
1941, 784.00
1942, 784.00
1943, 784.00
1944, 785.00
1945, 784.00
1946, 784.00
1947, 785.00
1948, 784.00
1949, 784.00
1950, 785.00
1951, 784.00
1952, 784.00
1953, 785.00
1954, 784.00
1955, 785.00
1956, 785.00
1957, 786.00
1958, 786.00
1959, 785.00
1960, 786.00
1961, 785.00
1962, 786.00
1963, 786.00
1964, 786.00
1965, 786.00
1966, 786.00
1967, 786.00
1968, 786.00
1969, 787.00
1970, 788.00
1971, 787.00
1972, 788.00
1973, 788.00
1974, 788.00
1975, 787.00
1976, 788.00
1977, 787.00
1978, 788.00
1979, 789.00
1980, 789.00
1981, 789.00
1982, 789.00
1983, 789.00
1984, 790.00
1985, 789.00
1986, 790.00
1987, 791.00
1988, 791.00
1989, 790.00
1990, 791.00
1991, 791.00
1992, 790.00
1993, 791.00
1994, 791.00
1995, 791.00
1996, 792.00
1997, 792.00
1998, 791.00
1999, 792.00
2000, 792.00
2001, 792.00
2002, 792.00
2003, 793.00
2004, 793.00
2005, 793.00
2006, 794.00
2007, 793.00
2008, 794.00
2009, 793.00
2010, 794.00
2011, 794.00
2012, 794.00
2013, 794.00
2014, 795.00
2015, 795.00
2016, 795.00
2017, 795.00
2018, 795.00
2019, 796.00
2020, 797.00
2021, 796.00
2022, 795.00
2023, 796.00
2024, 797.00
2025, 796.00
2026, 797.00
2027, 797.00
2028, 797.00
2029, 797.00
2030, 798.00
2031, 797.00
2032, 798.00
2033, 798.00
2034, 799.00
2035, 798.00
2036, 799.00
2037, 799.00
2038, 799.00
2039, 800.00
2040, 799.00
2041, 800.00
2042, 801.00
2043, 800.00
2044, 801.00
2045, 801.00
2046, 801.00
2047, 802.00
2048, 801.00
2049, 802.00
2050, 802.00
2051, 802.00
2052, 803.00
2053, 803.00
2054, 804.00
2055, 804.00
2056, 804.00
2057, 804.00
2058, 805.00
2059, 805.00
2060, 805.00
2061, 806.00
2062, 805.00
2063, 806.00
2064, 807.00
2065, 807.00
2066, 807.00
2067, 807.00
2068, 808.00
2069, 808.00
2070, 807.00
2071, 809.00
2072, 808.00
2073, 809.00
2074, 809.00
2075, 809.00
2076, 810.00
2077, 810.00
2078, 810.00
2079, 810.00
2080, 811.00
2081, 810.00
2082, 812.00
2083, 811.00
2084, 811.00
2085, 811.00
2086, 812.00
2087, 813.00
2088, 812.00
2089, 813.00
2090, 814.00
2091, 814.00
2092, 813.00
2093, 814.00
2094, 814.00
2095, 814.00
2096, 814.00
2097, 814.00
2098, 814.00
2099, 814.00
2100, 815.00
2101, 815.00
2102, 816.00
2103, 816.00
2104, 816.00
2105, 815.00
2106, 816.00
2107, 816.00
2108, 816.00
2109, 816.00
2110, 816.00
2111, 816.00
2112, 816.00
2113, 817.00
2114, 816.00
2115, 817.00
2116, 817.00
2117, 817.00
2118, 817.00
2119, 817.00
2120, 817.00
2121, 817.00
2122, 817.00
2123, 818.00
2124, 818.00
2125, 818.00
2126, 818.00
2127, 818.00
2128, 819.00
2129, 819.00
2130, 819.00
2131, 818.00
2132, 819.00
2133, 819.00
2134, 819.00
2135, 819.00
2136, 818.00
2137, 819.00
2138, 819.00
2139, 819.00
2140, 820.00
2141, 820.00
2142, 820.00
2143, 820.00
2144, 820.00
2145, 820.00
2146, 820.00
2147, 821.00
2148, 820.00
2149, 821.00
2150, 821.00
