FW version: 24
Log Version: 3.0.3

General Info:
       Command/Macro Performed,            Timestamp,             Device ID, COM Port, UART/I2C, Test Name, Host Major, Host Minor, Host Revision, Host Git Commit
            Single_measurement,  2023_07_04_11_09_36,       Insight2_F4_xxx,    USB-C,      USB,          ,          0,          1,             1,      4031237645

Show Spectrometer Status:
l0_version, f4_version, battery_perc, battery_mVolt, accelerometer_temp, accelerometer_x, accelerometer_y, accelerometer_z, compass_temp, compass_x, compass_y, compass_z, lamp_0, lamp_1, gain_0, gain_1
        17,         24,           20,          1852,               5920,           64664,            2252,           19200,            0,     65528,     65485,     19303,   2047,   2047,      1,      1

Temperature Statistic Info:
NTC AVG [°C], NTC2 AVG [°C]
      37.468,        37.121

Statistic Info:
M1:  num,      min,      max,   median,      AVG,      STD,M2:  num,      min,      max,   median,      AVG,      STD
     301,   687.00,   790.00,   711.00,   722.36,  32.3693,     401,  1026.00,  1095.00,  1056.00,  1057.63,  22.2739,

Measurements:
Wavelength, Data Amplitude
1350, 703.00
1351, 702.00
1352, 703.00
1353, 702.00
1354, 702.00
1355, 701.00
1356, 702.00
1357, 701.00
1358, 701.00
1359, 700.00
1360, 700.00
1361, 699.00
1362, 700.00
1363, 699.00
1364, 698.00
1365, 697.00
1366, 698.00
1367, 697.00
1368, 697.00
1369, 695.00
1370, 696.00
1371, 695.00
1372, 696.00
1373, 695.00
1374, 693.00
1375, 694.00
1376, 694.00
1377, 693.00
1378, 692.00
1379, 693.00
1380, 692.00
1381, 692.00
1382, 691.00
1383, 692.00
1384, 690.00
1385, 691.00
1386, 690.00
1387, 690.00
1388, 689.00
1389, 690.00
1390, 690.00
1391, 689.00
1392, 689.00
1393, 690.00
1394, 689.00
1395, 689.00
1396, 690.00
1397, 690.00
1398, 689.00
1399, 689.00
1400, 689.00
1401, 688.00
1402, 689.00
1403, 689.00
1404, 689.00
1405, 689.00
1406, 688.00
1407, 688.00
1408, 688.00
1409, 689.00
1410, 687.00
1411, 689.00
1412, 689.00
1413, 688.00
1414, 688.00
1415, 688.00
1416, 688.00
1417, 688.00
1418, 688.00
1419, 687.00
1420, 688.00
1421, 688.00
1422, 688.00
1423, 689.00
1424, 689.00
1425, 688.00
1426, 689.00
1427, 688.00
1428, 688.00
1429, 688.00
1430, 689.00
1431, 689.00
1432, 689.00
1433, 689.00
1434, 689.00
1435, 689.00
1436, 689.00
1437, 689.00
1438, 689.00
1439, 690.00
1440, 690.00
1441, 690.00
1442, 691.00
1443, 691.00
1444, 691.00
1445, 691.00
1446, 691.00
1447, 691.00
1448, 693.00
1449, 692.00
1450, 692.00
1451, 693.00
1452, 692.00
1453, 693.00
1454, 693.00
1455, 693.00
1456, 695.00
1457, 694.00
1458, 694.00
1459, 695.00
1460, 695.00
1461, 695.00
1462, 696.00
1463, 696.00
1464, 695.00
1465, 696.00
1466, 697.00
1467, 697.00
1468, 697.00
1469, 699.00
1470, 698.00
1471, 698.00
1472, 699.00
1473, 699.00
1474, 699.00
1475, 700.00
1476, 699.00
1477, 701.00
1478, 701.00
1479, 702.00
1480, 702.00
1481, 703.00
1482, 702.00
1483, 704.00
1484, 703.00
1485, 705.00
1486, 705.00
1487, 706.00
1488, 705.00
1489, 706.00
1490, 706.00
1491, 707.00
1492, 707.00
1493, 708.00
1494, 708.00
1495, 708.00
1496, 709.00
1497, 710.00
1498, 709.00
1499, 710.00
1500, 711.00
1501, 712.00
1502, 713.00
1503, 713.00
1504, 713.00
1505, 713.00
1506, 714.00
1507, 714.00
1508, 716.00
1509, 715.00
1510, 717.00
1511, 716.00
1512, 717.00
1513, 717.00
1514, 718.00
1515, 719.00
1516, 719.00
1517, 719.00
1518, 720.00
1519, 720.00
1520, 720.00
1521, 722.00
1522, 723.00
1523, 722.00
1524, 723.00
1525, 723.00
1526, 724.00
1527, 725.00
1528, 725.00
1529, 727.00
1530, 727.00
1531, 727.00
1532, 727.00
1533, 728.00
1534, 729.00
1535, 729.00
1536, 730.00
1537, 731.00
1538, 730.00
1539, 732.00
1540, 731.00
1541, 731.00
1542, 733.00
1543, 733.00
1544, 734.00
1545, 734.00
1546, 735.00
1547, 735.00
1548, 736.00
1549, 736.00
1550, 737.00
1551, 737.00
1552, 738.00
1553, 738.00
1554, 738.00
1555, 738.00
1556, 739.00
1557, 740.00
1558, 741.00
1559, 740.00
1560, 742.00
1561, 743.00
1562, 742.00
1563, 744.00
1564, 743.00
1565, 744.00
1566, 744.00
1567, 745.00
1568, 746.00
1569, 746.00
1570, 747.00
1571, 747.00
1572, 748.00
1573, 748.00
1574, 748.00
1575, 750.00
1576, 749.00
1577, 750.00
1578, 751.00
1579, 751.00
1580, 752.00
1581, 753.00
1582, 753.00
1583, 753.00
1584, 754.00
1585, 754.00
1586, 755.00
1587, 755.00
1588, 755.00
1589, 756.00
1590, 757.00
1591, 757.00
1592, 758.00
1593, 758.00
1594, 758.00
1595, 759.00
1596, 760.00
1597, 760.00
1598, 761.00
1599, 761.00
1600, 762.00
1601, 762.00
1602, 763.00
1603, 763.00
1604, 763.00
1605, 765.00
1606, 765.00
1607, 767.00
1608, 767.00
1609, 768.00
1610, 768.00
1611, 769.00
1612, 769.00
1613, 770.00
1614, 770.00
1615, 770.00
1616, 771.00
1617, 772.00
1618, 773.00
1619, 773.00
1620, 774.00
1621, 774.00
1622, 775.00
1623, 776.00
1624, 777.00
1625, 777.00
1626, 778.00
1627, 778.00
1628, 779.00
1629, 780.00
1630, 780.00
1631, 780.00
1632, 781.00
1633, 782.00
1634, 782.00
1635, 783.00
1636, 783.00
1637, 784.00
1638, 786.00
1639, 784.00
1640, 786.00
1641, 785.00
1642, 786.00
1643, 786.00
1644, 786.00
1645, 786.00
1646, 788.00
1647, 788.00
1648, 789.00
1649, 789.00
1650, 790.00

1750, 1091.00
1751, 1092.00
1752, 1091.00
1753, 1092.00
1754, 1092.00
1755, 1091.00
1756, 1093.00
1757, 1091.00
1758, 1093.00
1759, 1092.00
1760, 1095.00
1761, 1093.00
1762, 1092.00
1763, 1091.00
1764, 1090.00
1765, 1093.00
1766, 1094.00
1767, 1093.00
1768, 1093.00
1769, 1092.00
1770, 1091.00
1771, 1093.00
1772, 1092.00
1773, 1090.00
1774, 1091.00
1775, 1089.00
1776, 1091.00
1777, 1091.00
1778, 1092.00
1779, 1090.00
1780, 1088.00
1781, 1091.00
1782, 1089.00
1783, 1090.00
1784, 1091.00
1785, 1088.00
1786, 1088.00
1787, 1089.00
1788, 1090.00
1789, 1089.00
1790, 1089.00
1791, 1088.00
1792, 1088.00
1793, 1087.00
1794, 1088.00
1795, 1088.00
1796, 1088.00
1797, 1085.00
1798, 1086.00
1799, 1086.00
1800, 1086.00
1801, 1087.00
1802, 1085.00
1803, 1086.00
1804, 1084.00
1805, 1085.00
1806, 1085.00
1807, 1085.00
1808, 1084.00
1809, 1085.00
1810, 1084.00
1811, 1084.00
1812, 1083.00
1813, 1083.00
1814, 1082.00
1815, 1082.00
1816, 1082.00
1817, 1081.00
1818, 1082.00
1819, 1080.00
1820, 1081.00
1821, 1081.00
1822, 1079.00
1823, 1078.00
1824, 1079.00
1825, 1080.00
1826, 1079.00
1827, 1079.00
1828, 1077.00
1829, 1076.00
1830, 1074.00
1831, 1075.00
1832, 1073.00
1833, 1075.00
1834, 1073.00
1835, 1074.00
1836, 1072.00
1837, 1073.00
1838, 1071.00
1839, 1069.00
1840, 1069.00
1841, 1065.00
1842, 1067.00
1843, 1066.00
1844, 1064.00
1845, 1063.00
1846, 1062.00
1847, 1062.00
1848, 1060.00
1849, 1060.00
1850, 1058.00
1851, 1058.00
1852, 1057.00
1853, 1055.00
1854, 1054.00
1855, 1052.00
1856, 1052.00
1857, 1050.00
1858, 1051.00
1859, 1050.00
1860, 1048.00
1861, 1049.00
1862, 1046.00
1863, 1045.00
1864, 1043.00
1865, 1042.00
1866, 1043.00
1867, 1042.00
1868, 1042.00
1869, 1041.00
1870, 1040.00
1871, 1040.00
1872, 1038.00
1873, 1038.00
1874, 1036.00
1875, 1038.00
1876, 1037.00
1877, 1036.00
1878, 1037.00
1879, 1034.00
1880, 1036.00
1881, 1035.00
1882, 1033.00
1883, 1035.00
1884, 1032.00
1885, 1034.00
1886, 1032.00
1887, 1032.00
1888, 1031.00
1889, 1031.00
1890, 1032.00
1891, 1031.00
1892, 1030.00
1893, 1032.00
1894, 1030.00
1895, 1029.00
1896, 1031.00
1897, 1031.00
1898, 1031.00
1899, 1030.00
1900, 1031.00
1901, 1029.00
1902, 1029.00
1903, 1030.00
1904, 1029.00
1905, 1030.00
1906, 1029.00
1907, 1029.00
1908, 1028.00
1909, 1028.00
1910, 1028.00
1911, 1028.00
1912, 1027.00
1913, 1028.00
1914, 1027.00
1915, 1027.00
1916, 1029.00
1917, 1029.00
1918, 1028.00
1919, 1027.00
1920, 1026.00
1921, 1028.00
1922, 1028.00
1923, 1029.00
1924, 1027.00
1925, 1028.00
1926, 1029.00
1927, 1026.00
1928, 1026.00
1929, 1027.00
1930, 1027.00
1931, 1029.00
1932, 1028.00
1933, 1026.00
1934, 1026.00
1935, 1028.00
1936, 1028.00
1937, 1027.00
1938, 1028.00
1939, 1028.00
1940, 1027.00
1941, 1030.00
1942, 1029.00
1943, 1029.00
1944, 1029.00
1945, 1029.00
1946, 1031.00
1947, 1029.00
1948, 1029.00
1949, 1028.00
1950, 1031.00
1951, 1031.00
1952, 1028.00
1953, 1030.00
1954, 1030.00
1955, 1030.00
1956, 1028.00
1957, 1032.00
1958, 1032.00
1959, 1031.00
1960, 1030.00
1961, 1031.00
1962, 1032.00
1963, 1031.00
1964, 1031.00
1965, 1033.00
1966, 1032.00
1967, 1032.00
1968, 1034.00
1969, 1035.00
1970, 1034.00
1971, 1034.00
1972, 1035.00
1973, 1033.00
1974, 1033.00
1975, 1036.00
1976, 1035.00
1977, 1036.00
1978, 1035.00
1979, 1036.00
1980, 1037.00
1981, 1036.00
1982, 1036.00
1983, 1036.00
1984, 1037.00
1985, 1038.00
1986, 1037.00
1987, 1040.00
1988, 1038.00
1989, 1037.00
1990, 1039.00
1991, 1039.00
1992, 1038.00
1993, 1038.00
1994, 1037.00
1995, 1039.00
1996, 1040.00
1997, 1040.00
1998, 1041.00
1999, 1040.00
2000, 1040.00
2001, 1041.00
2002, 1040.00
2003, 1041.00
2004, 1041.00
2005, 1042.00
2006, 1042.00
2007, 1044.00
2008, 1044.00
2009, 1044.00
2010, 1045.00
2011, 1044.00
2012, 1045.00
2013, 1044.00
2014, 1045.00
2015, 1043.00
2016, 1045.00
2017, 1045.00
2018, 1044.00
2019, 1045.00
2020, 1046.00
2021, 1048.00
2022, 1046.00
2023, 1048.00
2024, 1045.00
2025, 1047.00
2026, 1047.00
2027, 1048.00
2028, 1049.00
2029, 1048.00
2030, 1048.00
2031, 1047.00
2032, 1049.00
2033, 1050.00
2034, 1052.00
2035, 1050.00
2036, 1049.00
2037, 1050.00
2038, 1052.00
2039, 1050.00
2040, 1051.00
2041, 1051.00
2042, 1053.00
2043, 1052.00
2044, 1052.00
2045, 1053.00
2046, 1053.00
2047, 1054.00
2048, 1054.00
2049, 1056.00
2050, 1055.00
2051, 1055.00
2052, 1055.00
2053, 1056.00
2054, 1057.00
2055, 1057.00
2056, 1058.00
2057, 1058.00
2058, 1060.00
2059, 1058.00
2060, 1059.00
2061, 1060.00
2062, 1059.00
2063, 1062.00
2064, 1062.00
2065, 1061.00
2066, 1062.00
2067, 1061.00
2068, 1064.00
2069, 1065.00
2070, 1062.00
2071, 1064.00
2072, 1066.00
2073, 1065.00
2074, 1067.00
2075, 1066.00
2076, 1065.00
2077, 1066.00
2078, 1067.00
2079, 1066.00
2080, 1067.00
2081, 1069.00
2082, 1069.00
2083, 1068.00
2084, 1072.00
2085, 1068.00
2086, 1070.00
2087, 1071.00
2088, 1069.00
2089, 1070.00
2090, 1072.00
2091, 1072.00
2092, 1071.00
2093, 1072.00
2094, 1072.00
2095, 1073.00
2096, 1072.00
2097, 1074.00
2098, 1074.00
2099, 1072.00
2100, 1074.00
2101, 1074.00
2102, 1075.00
2103, 1073.00
2104, 1075.00
2105, 1076.00
2106, 1074.00
2107, 1075.00
2108, 1075.00
2109, 1077.00
2110, 1077.00
2111, 1077.00
2112, 1077.00
2113, 1075.00
2114, 1078.00
2115, 1076.00
2116, 1077.00
2117, 1077.00
2118, 1076.00
2119, 1078.00
2120, 1078.00
2121, 1078.00
2122, 1078.00
2123, 1079.00
2124, 1079.00
2125, 1080.00
2126, 1078.00
2127, 1078.00
2128, 1079.00
2129, 1079.00
2130, 1080.00
2131, 1080.00
2132, 1081.00
2133, 1080.00
2134, 1082.00
2135, 1080.00
2136, 1081.00
2137, 1081.00
2138, 1081.00
2139, 1081.00
2140, 1081.00
2141, 1082.00
2142, 1081.00
2143, 1082.00
2144, 1081.00
2145, 1082.00
2146, 1081.00
2147, 1083.00
2148, 1083.00
2149, 1083.00
2150, 1082.00
