FW version: 24
Log Version: 3.0.3

General Info:
       Command/Macro Performed,            Timestamp,             Device ID, COM Port, UART/I2C, Test Name, Host Major, Host Minor, Host Revision, Host Git Commit
            Single_measurement,  2023_06_30_11_24_37,       Insight2_F4_xxx,    USB-C,      USB,          ,          0,          1,             1,      4031237645

Show Spectrometer Status:
l0_version, f4_version, battery_perc, battery_mVolt, accelerometer_temp, accelerometer_x, accelerometer_y, accelerometer_z, compass_temp, compass_x, compass_y, compass_z, lamp_0, lamp_1, gain_0, gain_1
        17,         24,           94,          2074,               6160,           65228,             156,           18508,            0,     65533,     65503,     18510,   2866,   2866,      1,      1

Temperature Statistic Info:
NTC AVG [°C], NTC2 AVG [°C]
      39.323,        38.997

Statistic Info:
M1:  num,      min,      max,   median,      AVG,      STD,M2:  num,      min,      max,   median,      AVG,      STD
     301,  1622.00,  1876.00,  1672.00,  1704.64,  78.7819,     401,  2198.00,  2354.00,  2260.00,  2265.07,  50.7763,

Measurements:
Wavelength, Data Amplitude
1350, 1670.00
1351, 1668.00
1352, 1667.00
1353, 1667.00
1354, 1666.00
1355, 1665.00
1356, 1664.00
1357, 1663.00
1358, 1663.00
1359, 1661.00
1360, 1660.00
1361, 1658.00
1362, 1658.00
1363, 1657.00
1364, 1655.00
1365, 1654.00
1366, 1653.00
1367, 1653.00
1368, 1650.00
1369, 1648.00
1370, 1648.00
1371, 1645.00
1372, 1644.00
1373, 1644.00
1374, 1643.00
1375, 1641.00
1376, 1640.00
1377, 1639.00
1378, 1637.00
1379, 1637.00
1380, 1636.00
1381, 1636.00
1382, 1635.00
1383, 1633.00
1384, 1634.00
1385, 1633.00
1386, 1631.00
1387, 1631.00
1388, 1630.00
1389, 1631.00
1390, 1629.00
1391, 1628.00
1392, 1629.00
1393, 1628.00
1394, 1627.00
1395, 1627.00
1396, 1627.00
1397, 1626.00
1398, 1626.00
1399, 1626.00
1400, 1626.00
1401, 1625.00
1402, 1625.00
1403, 1625.00
1404, 1624.00
1405, 1623.00
1406, 1624.00
1407, 1624.00
1408, 1623.00
1409, 1622.00
1410, 1623.00
1411, 1623.00
1412, 1623.00
1413, 1623.00
1414, 1622.00
1415, 1622.00
1416, 1623.00
1417, 1622.00
1418, 1623.00
1419, 1623.00
1420, 1623.00
1421, 1623.00
1422, 1622.00
1423, 1623.00
1424, 1623.00
1425, 1623.00
1426, 1623.00
1427, 1623.00
1428, 1623.00
1429, 1624.00
1430, 1625.00
1431, 1625.00
1432, 1625.00
1433, 1625.00
1434, 1626.00
1435, 1625.00
1436, 1625.00
1437, 1626.00
1438, 1626.00
1439, 1625.00
1440, 1627.00
1441, 1627.00
1442, 1628.00
1443, 1628.00
1444, 1629.00
1445, 1629.00
1446, 1629.00
1447, 1629.00
1448, 1630.00
1449, 1630.00
1450, 1631.00
1451, 1631.00
1452, 1632.00
1453, 1632.00
1454, 1633.00
1455, 1633.00
1456, 1634.00
1457, 1635.00
1458, 1635.00
1459, 1636.00
1460, 1636.00
1461, 1637.00
1462, 1637.00
1463, 1639.00
1464, 1639.00
1465, 1640.00
1466, 1640.00
1467, 1641.00
1468, 1642.00
1469, 1643.00
1470, 1644.00
1471, 1645.00
1472, 1644.00
1473, 1647.00
1474, 1648.00
1475, 1649.00
1476, 1649.00
1477, 1649.00
1478, 1650.00
1479, 1652.00
1480, 1652.00
1481, 1653.00
1482, 1654.00
1483, 1655.00
1484, 1656.00
1485, 1657.00
1486, 1658.00
1487, 1659.00
1488, 1660.00
1489, 1661.00
1490, 1662.00
1491, 1663.00
1492, 1664.00
1493, 1666.00
1494, 1665.00
1495, 1667.00
1496, 1668.00
1497, 1669.00
1498, 1669.00
1499, 1671.00
1500, 1672.00
1501, 1672.00
1502, 1674.00
1503, 1675.00
1504, 1676.00
1505, 1677.00
1506, 1679.00
1507, 1679.00
1508, 1680.00
1509, 1681.00
1510, 1683.00
1511, 1683.00
1512, 1685.00
1513, 1686.00
1514, 1687.00
1515, 1688.00
1516, 1690.00
1517, 1691.00
1518, 1692.00
1519, 1693.00
1520, 1694.00
1521, 1695.00
1522, 1697.00
1523, 1698.00
1524, 1699.00
1525, 1701.00
1526, 1701.00
1527, 1703.00
1528, 1704.00
1529, 1706.00
1530, 1706.00
1531, 1708.00
1532, 1709.00
1533, 1710.00
1534, 1712.00
1535, 1713.00
1536, 1715.00
1537, 1716.00
1538, 1718.00
1539, 1719.00
1540, 1719.00
1541, 1722.00
1542, 1723.00
1543, 1724.00
1544, 1726.00
1545, 1727.00
1546, 1729.00
1547, 1729.00
1548, 1731.00
1549, 1731.00
1550, 1733.00
1551, 1735.00
1552, 1736.00
1553, 1737.00
1554, 1738.00
1555, 1740.00
1556, 1740.00
1557, 1743.00
1558, 1744.00
1559, 1745.00
1560, 1747.00
1561, 1747.00
1562, 1750.00
1563, 1751.00
1564, 1753.00
1565, 1754.00
1566, 1755.00
1567, 1757.00
1568, 1759.00
1569, 1759.00
1570, 1761.00
1571, 1763.00
1572, 1764.00
1573, 1765.00
1574, 1767.00
1575, 1769.00
1576, 1769.00
1577, 1773.00
1578, 1773.00
1579, 1773.00
1580, 1776.00
1581, 1777.00
1582, 1778.00
1583, 1780.00
1584, 1781.00
1585, 1783.00
1586, 1784.00
1587, 1785.00
1588, 1785.00
1589, 1787.00
1590, 1788.00
1591, 1790.00
1592, 1791.00
1593, 1791.00
1594, 1794.00
1595, 1796.00
1596, 1796.00
1597, 1797.00
1598, 1800.00
1599, 1800.00
1600, 1803.00
1601, 1803.00
1602, 1805.00
1603, 1805.00
1604, 1807.00
1605, 1808.00
1606, 1811.00
1607, 1811.00
1608, 1813.00
1609, 1815.00
1610, 1816.00
1611, 1817.00
1612, 1819.00
1613, 1821.00
1614, 1822.00
1615, 1824.00
1616, 1827.00
1617, 1827.00
1618, 1830.00
1619, 1831.00
1620, 1832.00
1621, 1835.00
1622, 1836.00
1623, 1837.00
1624, 1839.00
1625, 1840.00
1626, 1842.00
1627, 1844.00
1628, 1846.00
1629, 1847.00
1630, 1848.00
1631, 1849.00
1632, 1852.00
1633, 1852.00
1634, 1854.00
1635, 1855.00
1636, 1857.00
1637, 1859.00
1638, 1860.00
1639, 1861.00
1640, 1862.00
1641, 1864.00
1642, 1865.00
1643, 1866.00
1644, 1868.00
1645, 1869.00
1646, 1871.00
1647, 1872.00
1648, 1872.00
1649, 1875.00
1650, 1876.00

1750, 2352.00
1751, 2350.00
1752, 2352.00
1753, 2353.00
1754, 2351.00
1755, 2353.00
1756, 2353.00
1757, 2353.00
1758, 2354.00
1759, 2353.00
1760, 2352.00
1761, 2353.00
1762, 2353.00
1763, 2351.00
1764, 2351.00
1765, 2351.00
1766, 2351.00
1767, 2352.00
1768, 2351.00
1769, 2351.00
1770, 2349.00
1771, 2351.00
1772, 2352.00
1773, 2350.00
1774, 2347.00
1775, 2348.00
1776, 2349.00
1777, 2347.00
1778, 2347.00
1779, 2345.00
1780, 2345.00
1781, 2346.00
1782, 2345.00
1783, 2345.00
1784, 2343.00
1785, 2343.00
1786, 2343.00
1787, 2342.00
1788, 2341.00
1789, 2340.00
1790, 2342.00
1791, 2341.00
1792, 2340.00
1793, 2339.00
1794, 2340.00
1795, 2337.00
1796, 2339.00
1797, 2337.00
1798, 2336.00
1799, 2337.00
1800, 2337.00
1801, 2335.00
1802, 2336.00
1803, 2333.00
1804, 2334.00
1805, 2334.00
1806, 2333.00
1807, 2331.00
1808, 2331.00
1809, 2333.00
1810, 2329.00
1811, 2329.00
1812, 2328.00
1813, 2328.00
1814, 2326.00
1815, 2326.00
1816, 2324.00
1817, 2326.00
1818, 2325.00
1819, 2323.00
1820, 2323.00
1821, 2320.00
1822, 2320.00
1823, 2319.00
1824, 2319.00
1825, 2316.00
1826, 2316.00
1827, 2315.00
1828, 2312.00
1829, 2309.00
1830, 2309.00
1831, 2308.00
1832, 2305.00
1833, 2305.00
1834, 2302.00
1835, 2301.00
1836, 2300.00
1837, 2298.00
1838, 2296.00
1839, 2293.00
1840, 2289.00
1841, 2289.00
1842, 2285.00
1843, 2283.00
1844, 2281.00
1845, 2279.00
1846, 2275.00
1847, 2273.00
1848, 2272.00
1849, 2268.00
1850, 2267.00
1851, 2263.00
1852, 2262.00
1853, 2260.00
1854, 2255.00
1855, 2255.00
1856, 2251.00
1857, 2249.00
1858, 2249.00
1859, 2248.00
1860, 2243.00
1861, 2241.00
1862, 2239.00
1863, 2238.00
1864, 2235.00
1865, 2235.00
1866, 2234.00
1867, 2229.00
1868, 2229.00
1869, 2229.00
1870, 2227.00
1871, 2224.00
1872, 2224.00
1873, 2223.00
1874, 2222.00
1875, 2221.00
1876, 2220.00
1877, 2218.00
1878, 2217.00
1879, 2214.00
1880, 2213.00
1881, 2216.00
1882, 2213.00
1883, 2213.00
1884, 2211.00
1885, 2211.00
1886, 2211.00
1887, 2212.00
1888, 2210.00
1889, 2209.00
1890, 2208.00
1891, 2209.00
1892, 2209.00
1893, 2208.00
1894, 2205.00
1895, 2206.00
1896, 2204.00
1897, 2203.00
1898, 2205.00
1899, 2205.00
1900, 2205.00
1901, 2203.00
1902, 2205.00
1903, 2205.00
1904, 2204.00
1905, 2203.00
1906, 2202.00
1907, 2201.00
1908, 2202.00
1909, 2201.00
1910, 2201.00
1911, 2202.00
1912, 2201.00
1913, 2200.00
1914, 2201.00
1915, 2202.00
1916, 2200.00
1917, 2200.00
1918, 2201.00
1919, 2201.00
1920, 2199.00
1921, 2199.00
1922, 2199.00
1923, 2201.00
1924, 2199.00
1925, 2200.00
1926, 2200.00
1927, 2202.00
1928, 2199.00
1929, 2198.00
1930, 2200.00
1931, 2199.00
1932, 2200.00
1933, 2200.00
1934, 2200.00
1935, 2201.00
1936, 2200.00
1937, 2201.00
1938, 2201.00
1939, 2200.00
1940, 2202.00
1941, 2202.00
1942, 2201.00
1943, 2201.00
1944, 2201.00
1945, 2200.00
1946, 2203.00
1947, 2201.00
1948, 2202.00
1949, 2204.00
1950, 2203.00
1951, 2202.00
1952, 2204.00
1953, 2204.00
1954, 2205.00
1955, 2204.00
1956, 2204.00
1957, 2204.00
1958, 2205.00
1959, 2207.00
1960, 2206.00
1961, 2206.00
1962, 2207.00
1963, 2209.00
1964, 2208.00
1965, 2209.00
1966, 2207.00
1967, 2208.00
1968, 2209.00
1969, 2211.00
1970, 2211.00
1971, 2212.00
1972, 2211.00
1973, 2211.00
1974, 2212.00
1975, 2213.00
1976, 2213.00
1977, 2213.00
1978, 2215.00
1979, 2215.00
1980, 2215.00
1981, 2216.00
1982, 2217.00
1983, 2217.00
1984, 2218.00
1985, 2218.00
1986, 2221.00
1987, 2219.00
1988, 2218.00
1989, 2219.00
1990, 2220.00
1991, 2222.00
1992, 2221.00
1993, 2223.00
1994, 2225.00
1995, 2223.00
1996, 2223.00
1997, 2223.00
1998, 2225.00
1999, 2226.00
2000, 2226.00
2001, 2227.00
2002, 2226.00
2003, 2228.00
2004, 2229.00
2005, 2230.00
2006, 2228.00
2007, 2232.00
2008, 2229.00
2009, 2230.00
2010, 2231.00
2011, 2231.00
2012, 2231.00
2013, 2234.00
2014, 2231.00
2015, 2235.00
2016, 2235.00
2017, 2234.00
2018, 2234.00
2019, 2236.00
2020, 2235.00
2021, 2238.00
2022, 2237.00
2023, 2238.00
2024, 2240.00
2025, 2239.00
2026, 2238.00
2027, 2239.00
2028, 2241.00
2029, 2242.00
2030, 2243.00
2031, 2243.00
2032, 2243.00
2033, 2244.00
2034, 2245.00
2035, 2246.00
2036, 2246.00
2037, 2246.00
2038, 2248.00
2039, 2249.00
2040, 2250.00
2041, 2250.00
2042, 2252.00
2043, 2250.00
2044, 2251.00
2045, 2250.00
2046, 2253.00
2047, 2253.00
2048, 2255.00
2049, 2256.00
2050, 2258.00
2051, 2258.00
2052, 2259.00
2053, 2260.00
2054, 2260.00
2055, 2261.00
2056, 2262.00
2057, 2263.00
2058, 2264.00
2059, 2263.00
2060, 2264.00
2061, 2265.00
2062, 2266.00
2063, 2266.00
2064, 2268.00
2065, 2271.00
2066, 2270.00
2067, 2271.00
2068, 2271.00
2069, 2272.00
2070, 2273.00
2071, 2276.00
2072, 2276.00
2073, 2277.00
2074, 2277.00
2075, 2278.00
2076, 2278.00
2077, 2278.00
2078, 2279.00
2079, 2280.00
2080, 2281.00
2081, 2283.00
2082, 2283.00
2083, 2285.00
2084, 2283.00
2085, 2287.00
2086, 2286.00
2087, 2285.00
2088, 2286.00
2089, 2288.00
2090, 2285.00
2091, 2289.00
2092, 2291.00
2093, 2289.00
2094, 2291.00
2095, 2291.00
2096, 2293.00
2097, 2291.00
2098, 2294.00
2099, 2294.00
2100, 2294.00
2101, 2294.00
2102, 2295.00
2103, 2295.00
2104, 2297.00
2105, 2297.00
2106, 2299.00
2107, 2298.00
2108, 2297.00
2109, 2299.00
2110, 2299.00
2111, 2298.00
2112, 2299.00
2113, 2299.00
2114, 2302.00
2115, 2302.00
2116, 2303.00
2117, 2302.00
2118, 2304.00
2119, 2304.00
2120, 2304.00
2121, 2304.00
2122, 2303.00
2123, 2305.00
2124, 2304.00
2125, 2305.00
2126, 2306.00
2127, 2309.00
2128, 2307.00
2129, 2306.00
2130, 2310.00
2131, 2308.00
2132, 2307.00
2133, 2309.00
2134, 2309.00
2135, 2310.00
2136, 2311.00
2137, 2308.00
2138, 2310.00
2139, 2309.00
2140, 2311.00
2141, 2311.00
2142, 2312.00
2143, 2311.00
2144, 2312.00
2145, 2313.00
2146, 2312.00
2147, 2313.00
2148, 2314.00
2149, 2314.00
2150, 2312.00
