FW version: 24
Log Version: 3.0.3

General Info:
       Command/Macro Performed,            Timestamp,             Device ID, COM Port, UART/I2C, Test Name, Host Major, Host Minor, Host Revision, Host Git Commit
            Single_measurement,  2023_06_30_11_23_59,       Insight2_F4_xxx,    USB-C,      USB,          ,          0,          1,             1,      4031237645

Show Spectrometer Status:
l0_version, f4_version, battery_perc, battery_mVolt, accelerometer_temp, accelerometer_x, accelerometer_y, accelerometer_z, compass_temp, compass_x, compass_y, compass_z, lamp_0, lamp_1, gain_0, gain_1
        17,         24,           94,          2077,               6192,           65264,             156,           18536,            0,     65523,     65502,     18540,   2047,   2047,      1,      1

Temperature Statistic Info:
NTC AVG [°C], NTC2 AVG [°C]
      39.056,        38.710

Statistic Info:
M1:  num,      min,      max,   median,      AVG,      STD,M2:  num,      min,      max,   median,      AVG,      STD
     301,   833.00,   972.00,   862.00,   879.65,  43.7612,     401,  1237.00,  1327.00,  1274.00,  1277.62,  29.2962,

Measurements:
Wavelength, Data Amplitude
1350, 856.00
1351, 856.00
1352, 855.00
1353, 855.00
1354, 854.00
1355, 854.00
1356, 853.00
1357, 853.00
1358, 853.00
1359, 851.00
1360, 852.00
1361, 850.00
1362, 851.00
1363, 850.00
1364, 850.00
1365, 849.00
1366, 848.00
1367, 847.00
1368, 847.00
1369, 846.00
1370, 846.00
1371, 844.00
1372, 844.00
1373, 843.00
1374, 842.00
1375, 842.00
1376, 841.00
1377, 841.00
1378, 841.00
1379, 840.00
1380, 840.00
1381, 840.00
1382, 839.00
1383, 839.00
1384, 839.00
1385, 838.00
1386, 838.00
1387, 838.00
1388, 838.00
1389, 836.00
1390, 835.00
1391, 836.00
1392, 836.00
1393, 837.00
1394, 836.00
1395, 836.00
1396, 835.00
1397, 836.00
1398, 836.00
1399, 834.00
1400, 835.00
1401, 835.00
1402, 835.00
1403, 834.00
1404, 834.00
1405, 835.00
1406, 834.00
1407, 835.00
1408, 834.00
1409, 835.00
1410, 833.00
1411, 835.00
1412, 835.00
1413, 834.00
1414, 834.00
1415, 835.00
1416, 833.00
1417, 834.00
1418, 834.00
1419, 834.00
1420, 833.00
1421, 834.00
1422, 834.00
1423, 834.00
1424, 834.00
1425, 834.00
1426, 834.00
1427, 833.00
1428, 834.00
1429, 834.00
1430, 835.00
1431, 836.00
1432, 835.00
1433, 834.00
1434, 835.00
1435, 836.00
1436, 837.00
1437, 835.00
1438, 836.00
1439, 836.00
1440, 836.00
1441, 837.00
1442, 837.00
1443, 837.00
1444, 837.00
1445, 838.00
1446, 837.00
1447, 838.00
1448, 838.00
1449, 838.00
1450, 839.00
1451, 839.00
1452, 839.00
1453, 840.00
1454, 841.00
1455, 841.00
1456, 840.00
1457, 841.00
1458, 842.00
1459, 843.00
1460, 842.00
1461, 843.00
1462, 843.00
1463, 843.00
1464, 844.00
1465, 845.00
1466, 844.00
1467, 845.00
1468, 846.00
1469, 847.00
1470, 847.00
1471, 847.00
1472, 847.00
1473, 847.00
1474, 848.00
1475, 849.00
1476, 850.00
1477, 850.00
1478, 850.00
1479, 850.00
1480, 852.00
1481, 852.00
1482, 853.00
1483, 854.00
1484, 853.00
1485, 854.00
1486, 855.00
1487, 855.00
1488, 856.00
1489, 856.00
1490, 857.00
1491, 857.00
1492, 859.00
1493, 858.00
1494, 859.00
1495, 859.00
1496, 860.00
1497, 861.00
1498, 862.00
1499, 862.00
1500, 862.00
1501, 863.00
1502, 865.00
1503, 865.00
1504, 866.00
1505, 866.00
1506, 866.00
1507, 867.00
1508, 868.00
1509, 869.00
1510, 869.00
1511, 870.00
1512, 871.00
1513, 871.00
1514, 872.00
1515, 872.00
1516, 873.00
1517, 874.00
1518, 875.00
1519, 876.00
1520, 876.00
1521, 877.00
1522, 877.00
1523, 878.00
1524, 878.00
1525, 879.00
1526, 880.00
1527, 881.00
1528, 882.00
1529, 883.00
1530, 882.00
1531, 883.00
1532, 884.00
1533, 885.00
1534, 887.00
1535, 886.00
1536, 888.00
1537, 889.00
1538, 888.00
1539, 889.00
1540, 890.00
1541, 891.00
1542, 891.00
1543, 892.00
1544, 894.00
1545, 895.00
1546, 895.00
1547, 895.00
1548, 895.00
1549, 897.00
1550, 897.00
1551, 897.00
1552, 898.00
1553, 899.00
1554, 900.00
1555, 901.00
1556, 901.00
1557, 902.00
1558, 903.00
1559, 903.00
1560, 905.00
1561, 905.00
1562, 905.00
1563, 907.00
1564, 907.00
1565, 909.00
1566, 909.00
1567, 909.00
1568, 910.00
1569, 912.00
1570, 911.00
1571, 913.00
1572, 915.00
1573, 914.00
1574, 915.00
1575, 916.00
1576, 916.00
1577, 917.00
1578, 918.00
1579, 918.00
1580, 919.00
1581, 921.00
1582, 921.00
1583, 920.00
1584, 922.00
1585, 923.00
1586, 924.00
1587, 925.00
1588, 924.00
1589, 926.00
1590, 926.00
1591, 927.00
1592, 927.00
1593, 928.00
1594, 929.00
1595, 930.00
1596, 931.00
1597, 930.00
1598, 932.00
1599, 932.00
1600, 933.00
1601, 934.00
1602, 935.00
1603, 936.00
1604, 937.00
1605, 938.00
1606, 939.00
1607, 939.00
1608, 939.00
1609, 941.00
1610, 941.00
1611, 943.00
1612, 943.00
1613, 944.00
1614, 945.00
1615, 947.00
1616, 947.00
1617, 948.00
1618, 949.00
1619, 950.00
1620, 950.00
1621, 951.00
1622, 952.00
1623, 954.00
1624, 954.00
1625, 955.00
1626, 955.00
1627, 956.00
1628, 959.00
1629, 958.00
1630, 959.00
1631, 959.00
1632, 960.00
1633, 961.00
1634, 961.00
1635, 962.00
1636, 964.00
1637, 963.00
1638, 965.00
1639, 965.00
1640, 965.00
1641, 966.00
1642, 967.00
1643, 967.00
1644, 968.00
1645, 968.00
1646, 970.00
1647, 970.00
1648, 970.00
1649, 971.00
1650, 972.00

1750, 1326.00
1751, 1325.00
1752, 1327.00
1753, 1325.00
1754, 1326.00
1755, 1325.00
1756, 1325.00
1757, 1324.00
1758, 1326.00
1759, 1325.00
1760, 1324.00
1761, 1325.00
1762, 1325.00
1763, 1325.00
1764, 1325.00
1765, 1326.00
1766, 1325.00
1767, 1325.00
1768, 1326.00
1769, 1325.00
1770, 1324.00
1771, 1323.00
1772, 1323.00
1773, 1324.00
1774, 1323.00
1775, 1324.00
1776, 1323.00
1777, 1322.00
1778, 1322.00
1779, 1323.00
1780, 1322.00
1781, 1322.00
1782, 1322.00
1783, 1322.00
1784, 1321.00
1785, 1322.00
1786, 1322.00
1787, 1320.00
1788, 1321.00
1789, 1320.00
1790, 1319.00
1791, 1319.00
1792, 1318.00
1793, 1319.00
1794, 1319.00
1795, 1319.00
1796, 1317.00
1797, 1318.00
1798, 1318.00
1799, 1318.00
1800, 1316.00
1801, 1317.00
1802, 1315.00
1803, 1315.00
1804, 1317.00
1805, 1314.00
1806, 1316.00
1807, 1316.00
1808, 1315.00
1809, 1315.00
1810, 1313.00
1811, 1314.00
1812, 1312.00
1813, 1313.00
1814, 1309.00
1815, 1312.00
1816, 1311.00
1817, 1313.00
1818, 1309.00
1819, 1309.00
1820, 1311.00
1821, 1308.00
1822, 1309.00
1823, 1309.00
1824, 1307.00
1825, 1304.00
1826, 1306.00
1827, 1304.00
1828, 1305.00
1829, 1302.00
1830, 1301.00
1831, 1302.00
1832, 1302.00
1833, 1300.00
1834, 1298.00
1835, 1298.00
1836, 1297.00
1837, 1292.00
1838, 1294.00
1839, 1292.00
1840, 1291.00
1841, 1289.00
1842, 1289.00
1843, 1287.00
1844, 1285.00
1845, 1283.00
1846, 1282.00
1847, 1282.00
1848, 1280.00
1849, 1277.00
1850, 1279.00
1851, 1276.00
1852, 1274.00
1853, 1274.00
1854, 1273.00
1855, 1270.00
1856, 1270.00
1857, 1269.00
1858, 1266.00
1859, 1266.00
1860, 1264.00
1861, 1264.00
1862, 1261.00
1863, 1259.00
1864, 1261.00
1865, 1262.00
1866, 1259.00
1867, 1256.00
1868, 1257.00
1869, 1254.00
1870, 1256.00
1871, 1254.00
1872, 1254.00
1873, 1253.00
1874, 1252.00
1875, 1250.00
1876, 1250.00
1877, 1250.00
1878, 1249.00
1879, 1249.00
1880, 1248.00
1881, 1248.00
1882, 1247.00
1883, 1247.00
1884, 1247.00
1885, 1246.00
1886, 1245.00
1887, 1244.00
1888, 1246.00
1889, 1244.00
1890, 1243.00
1891, 1245.00
1892, 1244.00
1893, 1242.00
1894, 1244.00
1895, 1242.00
1896, 1243.00
1897, 1243.00
1898, 1243.00
1899, 1241.00
1900, 1242.00
1901, 1245.00
1902, 1239.00
1903, 1241.00
1904, 1241.00
1905, 1241.00
1906, 1239.00
1907, 1237.00
1908, 1240.00
1909, 1239.00
1910, 1241.00
1911, 1240.00
1912, 1240.00
1913, 1238.00
1914, 1241.00
1915, 1240.00
1916, 1240.00
1917, 1241.00
1918, 1240.00
1919, 1239.00
1920, 1239.00
1921, 1239.00
1922, 1241.00
1923, 1238.00
1924, 1239.00
1925, 1241.00
1926, 1240.00
1927, 1240.00
1928, 1240.00
1929, 1239.00
1930, 1238.00
1931, 1240.00
1932, 1239.00
1933, 1239.00
1934, 1239.00
1935, 1239.00
1936, 1240.00
1937, 1240.00
1938, 1239.00
1939, 1240.00
1940, 1241.00
1941, 1241.00
1942, 1240.00
1943, 1240.00
1944, 1241.00
1945, 1240.00
1946, 1239.00
1947, 1241.00
1948, 1240.00
1949, 1241.00
1950, 1242.00
1951, 1243.00
1952, 1243.00
1953, 1242.00
1954, 1242.00
1955, 1242.00
1956, 1243.00
1957, 1244.00
1958, 1242.00
1959, 1242.00
1960, 1241.00
1961, 1244.00
1962, 1245.00
1963, 1245.00
1964, 1246.00
1965, 1244.00
1966, 1245.00
1967, 1244.00
1968, 1245.00
1969, 1246.00
1970, 1245.00
1971, 1246.00
1972, 1245.00
1973, 1247.00
1974, 1247.00
1975, 1248.00
1976, 1247.00
1977, 1247.00
1978, 1248.00
1979, 1248.00
1980, 1249.00
1981, 1249.00
1982, 1250.00
1983, 1250.00
1984, 1250.00
1985, 1250.00
1986, 1251.00
1987, 1250.00
1988, 1251.00
1989, 1252.00
1990, 1252.00
1991, 1253.00
1992, 1253.00
1993, 1253.00
1994, 1254.00
1995, 1252.00
1996, 1254.00
1997, 1253.00
1998, 1256.00
1999, 1254.00
2000, 1253.00
2001, 1255.00
2002, 1257.00
2003, 1257.00
2004, 1257.00
2005, 1257.00
2006, 1259.00
2007, 1257.00
2008, 1258.00
2009, 1257.00
2010, 1258.00
2011, 1260.00
2012, 1259.00
2013, 1258.00
2014, 1258.00
2015, 1259.00
2016, 1259.00
2017, 1261.00
2018, 1261.00
2019, 1261.00
2020, 1262.00
2021, 1263.00
2022, 1261.00
2023, 1262.00
2024, 1264.00
2025, 1263.00
2026, 1263.00
2027, 1264.00
2028, 1265.00
2029, 1264.00
2030, 1267.00
2031, 1265.00
2032, 1267.00
2033, 1266.00
2034, 1267.00
2035, 1268.00
2036, 1267.00
2037, 1267.00
2038, 1269.00
2039, 1268.00
2040, 1268.00
2041, 1269.00
2042, 1268.00
2043, 1271.00
2044, 1272.00
2045, 1271.00
2046, 1272.00
2047, 1271.00
2048, 1272.00
2049, 1273.00
2050, 1273.00
2051, 1273.00
2052, 1274.00
2053, 1274.00
2054, 1274.00
2055, 1277.00
2056, 1277.00
2057, 1277.00
2058, 1276.00
2059, 1278.00
2060, 1280.00
2061, 1280.00
2062, 1281.00
2063, 1280.00
2064, 1280.00
2065, 1282.00
2066, 1281.00
2067, 1281.00
2068, 1283.00
2069, 1284.00
2070, 1285.00
2071, 1285.00
2072, 1285.00
2073, 1285.00
2074, 1286.00
2075, 1284.00
2076, 1286.00
2077, 1289.00
2078, 1288.00
2079, 1289.00
2080, 1291.00
2081, 1290.00
2082, 1289.00
2083, 1290.00
2084, 1290.00
2085, 1291.00
2086, 1292.00
2087, 1293.00
2088, 1292.00
2089, 1292.00
2090, 1294.00
2091, 1292.00
2092, 1294.00
2093, 1293.00
2094, 1296.00
2095, 1295.00
2096, 1297.00
2097, 1296.00
2098, 1297.00
2099, 1295.00
2100, 1295.00
2101, 1297.00
2102, 1297.00
2103, 1299.00
2104, 1299.00
2105, 1300.00
2106, 1299.00
2107, 1299.00
2108, 1301.00
2109, 1299.00
2110, 1299.00
2111, 1302.00
2112, 1301.00
2113, 1302.00
2114, 1302.00
2115, 1300.00
2116, 1301.00
2117, 1302.00
2118, 1303.00
2119, 1303.00
2120, 1303.00
2121, 1302.00
2122, 1303.00
2123, 1304.00
2124, 1303.00
2125, 1303.00
2126, 1304.00
2127, 1305.00
2128, 1303.00
2129, 1303.00
2130, 1304.00
2131, 1304.00
2132, 1305.00
2133, 1305.00
2134, 1307.00
2135, 1306.00
2136, 1306.00
2137, 1307.00
2138, 1307.00
2139, 1305.00
2140, 1307.00
2141, 1307.00
2142, 1307.00
2143, 1308.00
2144, 1309.00
2145, 1308.00
2146, 1310.00
2147, 1310.00
2148, 1310.00
2149, 1310.00
2150, 1310.00
