FW version: 24
Log Version: 3.0.3

General Info:
       Command/Macro Performed,            Timestamp,             Device ID, COM Port, UART/I2C, Test Name, Host Major, Host Minor, Host Revision, Host Git Commit
            Single_measurement,  2023_07_11_10_53_47,       Insight2_F4_xxx,    USB-C,      USB,          ,          0,          1,             1,      4031237645

Show Spectrometer Status:
l0_version, f4_version, battery_perc, battery_mVolt, accelerometer_temp, accelerometer_x, accelerometer_y, accelerometer_z, compass_temp, compass_x, compass_y, compass_z, lamp_0, lamp_1, gain_0, gain_1
        17,         24,           49,          1905,               6352,           65364,             788,           18704,            0,     65367,     65364,     18770,   3276,   3276,      1,      1

Temperature Statistic Info:
NTC AVG [°C], NTC2 AVG [°C]
      39.587,        39.234

Statistic Info:
M1:  num,      min,      max,   median,      AVG,      STD,M2:  num,      min,      max,   median,      AVG,      STD
     301,  2334.00,  2686.00,  2404.00,  2448.91, 109.1477,     401,  2898.00,  3103.00,  2977.00,  2984.40,  65.6759,

Measurements:
Wavelength, Data Amplitude
1350, 2403.00
1351, 2404.00
1352, 2400.00
1353, 2400.00
1354, 2397.00
1355, 2397.00
1356, 2397.00
1357, 2394.00
1358, 2393.00
1359, 2390.00
1360, 2389.00
1361, 2388.00
1362, 2386.00
1363, 2383.00
1364, 2382.00
1365, 2379.00
1366, 2378.00
1367, 2377.00
1368, 2376.00
1369, 2373.00
1370, 2371.00
1371, 2370.00
1372, 2367.00
1373, 2366.00
1374, 2364.00
1375, 2362.00
1376, 2360.00
1377, 2359.00
1378, 2357.00
1379, 2357.00
1380, 2354.00
1381, 2353.00
1382, 2353.00
1383, 2350.00
1384, 2349.00
1385, 2349.00
1386, 2347.00
1387, 2348.00
1388, 2345.00
1389, 2345.00
1390, 2346.00
1391, 2344.00
1392, 2343.00
1393, 2342.00
1394, 2341.00
1395, 2341.00
1396, 2341.00
1397, 2340.00
1398, 2341.00
1399, 2340.00
1400, 2339.00
1401, 2338.00
1402, 2338.00
1403, 2337.00
1404, 2338.00
1405, 2337.00
1406, 2337.00
1407, 2335.00
1408, 2336.00
1409, 2336.00
1410, 2335.00
1411, 2336.00
1412, 2335.00
1413, 2334.00
1414, 2334.00
1415, 2334.00
1416, 2336.00
1417, 2334.00
1418, 2335.00
1419, 2334.00
1420, 2336.00
1421, 2335.00
1422, 2335.00
1423, 2336.00
1424, 2334.00
1425, 2335.00
1426, 2335.00
1427, 2335.00
1428, 2335.00
1429, 2335.00
1430, 2336.00
1431, 2336.00
1432, 2337.00
1433, 2337.00
1434, 2337.00
1435, 2337.00
1436, 2338.00
1437, 2338.00
1438, 2339.00
1439, 2340.00
1440, 2340.00
1441, 2341.00
1442, 2341.00
1443, 2341.00
1444, 2342.00
1445, 2343.00
1446, 2344.00
1447, 2345.00
1448, 2345.00
1449, 2345.00
1450, 2346.00
1451, 2346.00
1452, 2347.00
1453, 2348.00
1454, 2349.00
1455, 2349.00
1456, 2351.00
1457, 2350.00
1458, 2352.00
1459, 2354.00
1460, 2353.00
1461, 2354.00
1462, 2356.00
1463, 2356.00
1464, 2358.00
1465, 2358.00
1466, 2359.00
1467, 2360.00
1468, 2361.00
1469, 2363.00
1470, 2363.00
1471, 2365.00
1472, 2367.00
1473, 2367.00
1474, 2368.00
1475, 2369.00
1476, 2371.00
1477, 2372.00
1478, 2374.00
1479, 2375.00
1480, 2376.00
1481, 2378.00
1482, 2379.00
1483, 2380.00
1484, 2381.00
1485, 2383.00
1486, 2385.00
1487, 2385.00
1488, 2387.00
1489, 2388.00
1490, 2390.00
1491, 2391.00
1492, 2393.00
1493, 2394.00
1494, 2395.00
1495, 2397.00
1496, 2397.00
1497, 2399.00
1498, 2400.00
1499, 2403.00
1500, 2403.00
1501, 2405.00
1502, 2406.00
1503, 2409.00
1504, 2410.00
1505, 2411.00
1506, 2412.00
1507, 2415.00
1508, 2416.00
1509, 2417.00
1510, 2417.00
1511, 2420.00
1512, 2422.00
1513, 2423.00
1514, 2425.00
1515, 2427.00
1516, 2427.00
1517, 2429.00
1518, 2432.00
1519, 2433.00
1520, 2435.00
1521, 2436.00
1522, 2438.00
1523, 2440.00
1524, 2442.00
1525, 2443.00
1526, 2444.00
1527, 2446.00
1528, 2447.00
1529, 2451.00
1530, 2453.00
1531, 2453.00
1532, 2455.00
1533, 2457.00
1534, 2459.00
1535, 2461.00
1536, 2463.00
1537, 2464.00
1538, 2466.00
1539, 2468.00
1540, 2469.00
1541, 2472.00
1542, 2474.00
1543, 2475.00
1544, 2477.00
1545, 2478.00
1546, 2481.00
1547, 2483.00
1548, 2483.00
1549, 2487.00
1550, 2488.00
1551, 2491.00
1552, 2491.00
1553, 2493.00
1554, 2496.00
1555, 2497.00
1556, 2500.00
1557, 2503.00
1558, 2505.00
1559, 2506.00
1560, 2508.00
1561, 2510.00
1562, 2511.00
1563, 2514.00
1564, 2516.00
1565, 2519.00
1566, 2521.00
1567, 2521.00
1568, 2525.00
1569, 2526.00
1570, 2528.00
1571, 2531.00
1572, 2533.00
1573, 2534.00
1574, 2537.00
1575, 2539.00
1576, 2541.00
1577, 2543.00
1578, 2544.00
1579, 2546.00
1580, 2548.00
1581, 2549.00
1582, 2552.00
1583, 2554.00
1584, 2555.00
1585, 2556.00
1586, 2559.00
1587, 2560.00
1588, 2562.00
1589, 2565.00
1590, 2566.00
1591, 2569.00
1592, 2570.00
1593, 2572.00
1594, 2572.00
1595, 2574.00
1596, 2576.00
1597, 2578.00
1598, 2580.00
1599, 2581.00
1600, 2584.00
1601, 2585.00
1602, 2587.00
1603, 2588.00
1604, 2592.00
1605, 2593.00
1606, 2595.00
1607, 2598.00
1608, 2599.00
1609, 2603.00
1610, 2603.00
1611, 2607.00
1612, 2608.00
1613, 2611.00
1614, 2613.00
1615, 2615.00
1616, 2616.00
1617, 2618.00
1618, 2621.00
1619, 2623.00
1620, 2626.00
1621, 2629.00
1622, 2630.00
1623, 2633.00
1624, 2635.00
1625, 2638.00
1626, 2638.00
1627, 2641.00
1628, 2643.00
1629, 2645.00
1630, 2647.00
1631, 2650.00
1632, 2650.00
1633, 2654.00
1634, 2655.00
1635, 2657.00
1636, 2659.00
1637, 2661.00
1638, 2663.00
1639, 2664.00
1640, 2666.00
1641, 2668.00
1642, 2670.00
1643, 2671.00
1644, 2673.00
1645, 2675.00
1646, 2677.00
1647, 2678.00
1648, 2681.00
1649, 2683.00
1650, 2686.00

1750, 3101.00
1751, 3102.00
1752, 3101.00
1753, 3102.00
1754, 3101.00
1755, 3103.00
1756, 3102.00
1757, 3100.00
1758, 3100.00
1759, 3101.00
1760, 3101.00
1761, 3098.00
1762, 3101.00
1763, 3100.00
1764, 3100.00
1765, 3099.00
1766, 3099.00
1767, 3097.00
1768, 3100.00
1769, 3096.00
1770, 3096.00
1771, 3095.00
1772, 3096.00
1773, 3096.00
1774, 3095.00
1775, 3094.00
1776, 3094.00
1777, 3093.00
1778, 3094.00
1779, 3093.00
1780, 3091.00
1781, 3091.00
1782, 3089.00
1783, 3088.00
1784, 3090.00
1785, 3088.00
1786, 3088.00
1787, 3090.00
1788, 3086.00
1789, 3087.00
1790, 3084.00
1791, 3084.00
1792, 3084.00
1793, 3082.00
1794, 3082.00
1795, 3082.00
1796, 3079.00
1797, 3079.00
1798, 3080.00
1799, 3079.00
1800, 3077.00
1801, 3077.00
1802, 3076.00
1803, 3074.00
1804, 3074.00
1805, 3075.00
1806, 3074.00
1807, 3071.00
1808, 3071.00
1809, 3073.00
1810, 3069.00
1811, 3070.00
1812, 3069.00
1813, 3068.00
1814, 3067.00
1815, 3066.00
1816, 3063.00
1817, 3065.00
1818, 3061.00
1819, 3059.00
1820, 3059.00
1821, 3059.00
1822, 3057.00
1823, 3055.00
1824, 3053.00
1825, 3051.00
1826, 3050.00
1827, 3048.00
1828, 3048.00
1829, 3044.00
1830, 3039.00
1831, 3041.00
1832, 3037.00
1833, 3035.00
1834, 3032.00
1835, 3031.00
1836, 3029.00
1837, 3026.00
1838, 3021.00
1839, 3021.00
1840, 3014.00
1841, 3013.00
1842, 3011.00
1843, 3007.00
1844, 3007.00
1845, 3002.00
1846, 3000.00
1847, 2994.00
1848, 2993.00
1849, 2989.00
1850, 2987.00
1851, 2984.00
1852, 2981.00
1853, 2977.00
1854, 2975.00
1855, 2971.00
1856, 2968.00
1857, 2967.00
1858, 2960.00
1859, 2961.00
1860, 2958.00
1861, 2954.00
1862, 2951.00
1863, 2949.00
1864, 2948.00
1865, 2943.00
1866, 2944.00
1867, 2943.00
1868, 2938.00
1869, 2939.00
1870, 2935.00
1871, 2934.00
1872, 2931.00
1873, 2930.00
1874, 2931.00
1875, 2926.00
1876, 2927.00
1877, 2924.00
1878, 2924.00
1879, 2920.00
1880, 2922.00
1881, 2920.00
1882, 2920.00
1883, 2919.00
1884, 2919.00
1885, 2915.00
1886, 2917.00
1887, 2916.00
1888, 2915.00
1889, 2914.00
1890, 2913.00
1891, 2912.00
1892, 2913.00
1893, 2911.00
1894, 2911.00
1895, 2909.00
1896, 2911.00
1897, 2909.00
1898, 2908.00
1899, 2910.00
1900, 2906.00
1901, 2908.00
1902, 2904.00
1903, 2905.00
1904, 2906.00
1905, 2907.00
1906, 2905.00
1907, 2905.00
1908, 2903.00
1909, 2903.00
1910, 2901.00
1911, 2905.00
1912, 2902.00
1913, 2903.00
1914, 2903.00
1915, 2904.00
1916, 2903.00
1917, 2903.00
1918, 2901.00
1919, 2902.00
1920, 2898.00
1921, 2900.00
1922, 2902.00
1923, 2902.00
1924, 2903.00
1925, 2901.00
1926, 2901.00
1927, 2901.00
1928, 2900.00
1929, 2900.00
1930, 2901.00
1931, 2900.00
1932, 2900.00
1933, 2900.00
1934, 2902.00
1935, 2900.00
1936, 2902.00
1937, 2900.00
1938, 2902.00
1939, 2902.00
1940, 2903.00
1941, 2903.00
1942, 2901.00
1943, 2901.00
1944, 2903.00
1945, 2905.00
1946, 2903.00
1947, 2903.00
1948, 2904.00
1949, 2903.00
1950, 2906.00
1951, 2904.00
1952, 2907.00
1953, 2905.00
1954, 2906.00
1955, 2907.00
1956, 2907.00
1957, 2909.00
1958, 2909.00
1959, 2907.00
1960, 2908.00
1961, 2909.00
1962, 2908.00
1963, 2911.00
1964, 2911.00
1965, 2913.00
1966, 2911.00
1967, 2912.00
1968, 2914.00
1969, 2913.00
1970, 2914.00
1971, 2917.00
1972, 2915.00
1973, 2916.00
1974, 2917.00
1975, 2918.00
1976, 2917.00
1977, 2919.00
1978, 2920.00
1979, 2921.00
1980, 2922.00
1981, 2922.00
1982, 2922.00
1983, 2922.00
1984, 2924.00
1985, 2922.00
1986, 2923.00
1987, 2926.00
1988, 2927.00
1989, 2927.00
1990, 2926.00
1991, 2926.00
1992, 2928.00
1993, 2928.00
1994, 2929.00
1995, 2930.00
1996, 2932.00
1997, 2931.00
1998, 2933.00
1999, 2934.00
2000, 2933.00
2001, 2934.00
2002, 2935.00
2003, 2937.00
2004, 2937.00
2005, 2935.00
2006, 2937.00
2007, 2937.00
2008, 2938.00
2009, 2939.00
2010, 2939.00
2011, 2940.00
2012, 2941.00
2013, 2942.00
2014, 2943.00
2015, 2943.00
2016, 2945.00
2017, 2943.00
2018, 2945.00
2019, 2945.00
2020, 2949.00
2021, 2949.00
2022, 2947.00
2023, 2947.00
2024, 2951.00
2025, 2950.00
2026, 2951.00
2027, 2951.00
2028, 2952.00
2029, 2952.00
2030, 2954.00
2031, 2955.00
2032, 2956.00
2033, 2957.00
2034, 2957.00
2035, 2959.00
2036, 2960.00
2037, 2960.00
2038, 2962.00
2039, 2960.00
2040, 2964.00
2041, 2963.00
2042, 2965.00
2043, 2966.00
2044, 2967.00
2045, 2965.00
2046, 2967.00
2047, 2969.00
2048, 2969.00
2049, 2971.00
2050, 2971.00
2051, 2972.00
2052, 2974.00
2053, 2976.00
2054, 2977.00
2055, 2979.00
2056, 2977.00
2057, 2980.00
2058, 2981.00
2059, 2979.00
2060, 2983.00
2061, 2984.00
2062, 2985.00
2063, 2986.00
2064, 2988.00
2065, 2987.00
2066, 2989.00
2067, 2989.00
2068, 2989.00
2069, 2991.00
2070, 2993.00
2071, 2995.00
2072, 2993.00
2073, 2997.00
2074, 2996.00
2075, 2998.00
2076, 2998.00
2077, 2999.00
2078, 3003.00
2079, 3003.00
2080, 3003.00
2081, 3004.00
2082, 3005.00
2083, 3007.00
2084, 3007.00
2085, 3008.00
2086, 3007.00
2087, 3009.00
2088, 3009.00
2089, 3010.00
2090, 3011.00
2091, 3014.00
2092, 3014.00
2093, 3015.00
2094, 3015.00
2095, 3016.00
2096, 3017.00
2097, 3017.00
2098, 3017.00
2099, 3019.00
2100, 3021.00
2101, 3021.00
2102, 3019.00
2103, 3021.00
2104, 3022.00
2105, 3025.00
2106, 3022.00
2107, 3026.00
2108, 3025.00
2109, 3026.00
2110, 3027.00
2111, 3025.00
2112, 3027.00
2113, 3028.00
2114, 3028.00
2115, 3028.00
2116, 3029.00
2117, 3031.00
2118, 3030.00
2119, 3031.00
2120, 3029.00
2121, 3033.00
2122, 3033.00
2123, 3033.00
2124, 3033.00
2125, 3032.00
2126, 3034.00
2127, 3034.00
2128, 3036.00
2129, 3034.00
2130, 3037.00
2131, 3036.00
2132, 3036.00
2133, 3037.00
2134, 3038.00
2135, 3039.00
2136, 3037.00
2137, 3039.00
2138, 3040.00
2139, 3038.00
2140, 3040.00
2141, 3040.00
2142, 3040.00
2143, 3040.00
2144, 3042.00
2145, 3041.00
2146, 3044.00
2147, 3044.00
2148, 3042.00
2149, 3045.00
2150, 3044.00
