FW version: 24
Log Version: 3.0.3

General Info:
       Command/Macro Performed,            Timestamp,             Device ID, COM Port, UART/I2C, Test Name, Host Major, Host Minor, Host Revision, Host Git Commit
            Single_measurement,  2023_07_11_10_53_24,       Insight2_F4_xxx,    USB-C,      USB,          ,          0,          1,             1,      4031237645

Show Spectrometer Status:
l0_version, f4_version, battery_perc, battery_mVolt, accelerometer_temp, accelerometer_x, accelerometer_y, accelerometer_z, compass_temp, compass_x, compass_y, compass_z, lamp_0, lamp_1, gain_0, gain_1
        17,         24,           49,          1903,               6336,           65380,             800,           18712,            0,     65383,     65400,     18778,   2866,   2866,      1,      1

Temperature Statistic Info:
NTC AVG [°C], NTC2 AVG [°C]
      39.352,        38.997

Statistic Info:
M1:  num,      min,      max,   median,      AVG,      STD,M2:  num,      min,      max,   median,      AVG,      STD
     301,  1814.00,  2098.00,  1871.00,  1907.14,  87.9588,     401,  2336.00,  2500.00,  2400.00,  2405.65,  52.9871,

Measurements:
Wavelength, Data Amplitude
1350, 1867.00
1351, 1868.00
1352, 1866.00
1353, 1864.00
1354, 1863.00
1355, 1862.00
1356, 1862.00
1357, 1860.00
1358, 1860.00
1359, 1858.00
1360, 1857.00
1361, 1855.00
1362, 1855.00
1363, 1853.00
1364, 1850.00
1365, 1850.00
1366, 1848.00
1367, 1847.00
1368, 1846.00
1369, 1844.00
1370, 1844.00
1371, 1842.00
1372, 1839.00
1373, 1840.00
1374, 1838.00
1375, 1836.00
1376, 1835.00
1377, 1833.00
1378, 1832.00
1379, 1832.00
1380, 1832.00
1381, 1830.00
1382, 1828.00
1383, 1828.00
1384, 1827.00
1385, 1826.00
1386, 1825.00
1387, 1824.00
1388, 1824.00
1389, 1823.00
1390, 1823.00
1391, 1822.00
1392, 1822.00
1393, 1822.00
1394, 1820.00
1395, 1820.00
1396, 1820.00
1397, 1820.00
1398, 1819.00
1399, 1818.00
1400, 1818.00
1401, 1818.00
1402, 1818.00
1403, 1818.00
1404, 1816.00
1405, 1818.00
1406, 1817.00
1407, 1817.00
1408, 1816.00
1409, 1816.00
1410, 1816.00
1411, 1817.00
1412, 1817.00
1413, 1815.00
1414, 1816.00
1415, 1816.00
1416, 1816.00
1417, 1815.00
1418, 1815.00
1419, 1815.00
1420, 1816.00
1421, 1814.00
1422, 1815.00
1423, 1815.00
1424, 1816.00
1425, 1815.00
1426, 1816.00
1427, 1817.00
1428, 1816.00
1429, 1817.00
1430, 1817.00
1431, 1817.00
1432, 1816.00
1433, 1818.00
1434, 1818.00
1435, 1818.00
1436, 1818.00
1437, 1819.00
1438, 1819.00
1439, 1818.00
1440, 1819.00
1441, 1820.00
1442, 1821.00
1443, 1822.00
1444, 1823.00
1445, 1822.00
1446, 1823.00
1447, 1823.00
1448, 1824.00
1449, 1825.00
1450, 1824.00
1451, 1825.00
1452, 1827.00
1453, 1826.00
1454, 1826.00
1455, 1827.00
1456, 1828.00
1457, 1828.00
1458, 1830.00
1459, 1830.00
1460, 1831.00
1461, 1831.00
1462, 1833.00
1463, 1833.00
1464, 1834.00
1465, 1835.00
1466, 1835.00
1467, 1837.00
1468, 1837.00
1469, 1839.00
1470, 1838.00
1471, 1839.00
1472, 1841.00
1473, 1843.00
1474, 1842.00
1475, 1843.00
1476, 1844.00
1477, 1846.00
1478, 1846.00
1479, 1848.00
1480, 1849.00
1481, 1850.00
1482, 1851.00
1483, 1851.00
1484, 1853.00
1485, 1855.00
1486, 1855.00
1487, 1857.00
1488, 1857.00
1489, 1859.00
1490, 1859.00
1491, 1860.00
1492, 1862.00
1493, 1863.00
1494, 1864.00
1495, 1866.00
1496, 1867.00
1497, 1868.00
1498, 1869.00
1499, 1870.00
1500, 1871.00
1501, 1873.00
1502, 1874.00
1503, 1874.00
1504, 1876.00
1505, 1877.00
1506, 1878.00
1507, 1880.00
1508, 1881.00
1509, 1881.00
1510, 1883.00
1511, 1885.00
1512, 1885.00
1513, 1887.00
1514, 1888.00
1515, 1890.00
1516, 1891.00
1517, 1893.00
1518, 1894.00
1519, 1894.00
1520, 1897.00
1521, 1899.00
1522, 1899.00
1523, 1901.00
1524, 1902.00
1525, 1903.00
1526, 1904.00
1527, 1906.00
1528, 1908.00
1529, 1908.00
1530, 1910.00
1531, 1911.00
1532, 1914.00
1533, 1914.00
1534, 1916.00
1535, 1917.00
1536, 1918.00
1537, 1919.00
1538, 1922.00
1539, 1923.00
1540, 1925.00
1541, 1925.00
1542, 1928.00
1543, 1929.00
1544, 1931.00
1545, 1932.00
1546, 1933.00
1547, 1935.00
1548, 1936.00
1549, 1938.00
1550, 1939.00
1551, 1941.00
1552, 1942.00
1553, 1943.00
1554, 1946.00
1555, 1947.00
1556, 1948.00
1557, 1949.00
1558, 1952.00
1559, 1953.00
1560, 1955.00
1561, 1957.00
1562, 1958.00
1563, 1959.00
1564, 1961.00
1565, 1962.00
1566, 1964.00
1567, 1967.00
1568, 1968.00
1569, 1970.00
1570, 1971.00
1571, 1972.00
1572, 1975.00
1573, 1976.00
1574, 1976.00
1575, 1978.00
1576, 1980.00
1577, 1981.00
1578, 1983.00
1579, 1985.00
1580, 1987.00
1581, 1989.00
1582, 1989.00
1583, 1991.00
1584, 1991.00
1585, 1994.00
1586, 1995.00
1587, 1996.00
1588, 1999.00
1589, 1998.00
1590, 2000.00
1591, 2002.00
1592, 2003.00
1593, 2005.00
1594, 2006.00
1595, 2008.00
1596, 2009.00
1597, 2011.00
1598, 2012.00
1599, 2013.00
1600, 2016.00
1601, 2017.00
1602, 2018.00
1603, 2020.00
1604, 2023.00
1605, 2023.00
1606, 2025.00
1607, 2028.00
1608, 2029.00
1609, 2030.00
1610, 2031.00
1611, 2034.00
1612, 2035.00
1613, 2036.00
1614, 2039.00
1615, 2040.00
1616, 2042.00
1617, 2043.00
1618, 2046.00
1619, 2047.00
1620, 2050.00
1621, 2052.00
1622, 2054.00
1623, 2056.00
1624, 2056.00
1625, 2060.00
1626, 2060.00
1627, 2063.00
1628, 2063.00
1629, 2066.00
1630, 2067.00
1631, 2069.00
1632, 2071.00
1633, 2072.00
1634, 2074.00
1635, 2076.00
1636, 2077.00
1637, 2079.00
1638, 2080.00
1639, 2080.00
1640, 2082.00
1641, 2084.00
1642, 2085.00
1643, 2088.00
1644, 2089.00
1645, 2091.00
1646, 2091.00
1647, 2093.00
1648, 2094.00
1649, 2097.00
1650, 2098.00

1750, 2497.00
1751, 2499.00
1752, 2500.00
1753, 2499.00
1754, 2499.00
1755, 2498.00
1756, 2500.00
1757, 2499.00
1758, 2497.00
1759, 2498.00
1760, 2497.00
1761, 2496.00
1762, 2496.00
1763, 2497.00
1764, 2499.00
1765, 2497.00
1766, 2495.00
1767, 2496.00
1768, 2496.00
1769, 2494.00
1770, 2495.00
1771, 2495.00
1772, 2494.00
1773, 2493.00
1774, 2494.00
1775, 2494.00
1776, 2492.00
1777, 2493.00
1778, 2491.00
1779, 2493.00
1780, 2493.00
1781, 2491.00
1782, 2490.00
1783, 2489.00
1784, 2487.00
1785, 2488.00
1786, 2489.00
1787, 2488.00
1788, 2486.00
1789, 2486.00
1790, 2485.00
1791, 2485.00
1792, 2483.00
1793, 2484.00
1794, 2484.00
1795, 2482.00
1796, 2481.00
1797, 2481.00
1798, 2480.00
1799, 2482.00
1800, 2481.00
1801, 2479.00
1802, 2478.00
1803, 2477.00
1804, 2478.00
1805, 2476.00
1806, 2477.00
1807, 2475.00
1808, 2476.00
1809, 2473.00
1810, 2475.00
1811, 2473.00
1812, 2473.00
1813, 2470.00
1814, 2471.00
1815, 2471.00
1816, 2468.00
1817, 2469.00
1818, 2468.00
1819, 2464.00
1820, 2466.00
1821, 2465.00
1822, 2463.00
1823, 2461.00
1824, 2462.00
1825, 2458.00
1826, 2459.00
1827, 2458.00
1828, 2457.00
1829, 2454.00
1830, 2450.00
1831, 2449.00
1832, 2448.00
1833, 2447.00
1834, 2445.00
1835, 2442.00
1836, 2441.00
1837, 2438.00
1838, 2437.00
1839, 2433.00
1840, 2431.00
1841, 2430.00
1842, 2427.00
1843, 2424.00
1844, 2421.00
1845, 2421.00
1846, 2416.00
1847, 2415.00
1848, 2414.00
1849, 2410.00
1850, 2407.00
1851, 2406.00
1852, 2403.00
1853, 2401.00
1854, 2397.00
1855, 2393.00
1856, 2393.00
1857, 2391.00
1858, 2386.00
1859, 2384.00
1860, 2384.00
1861, 2380.00
1862, 2380.00
1863, 2377.00
1864, 2377.00
1865, 2373.00
1866, 2372.00
1867, 2371.00
1868, 2368.00
1869, 2367.00
1870, 2365.00
1871, 2364.00
1872, 2362.00
1873, 2362.00
1874, 2359.00
1875, 2359.00
1876, 2358.00
1877, 2357.00
1878, 2355.00
1879, 2353.00
1880, 2353.00
1881, 2352.00
1882, 2352.00
1883, 2352.00
1884, 2352.00
1885, 2351.00
1886, 2349.00
1887, 2350.00
1888, 2350.00
1889, 2348.00
1890, 2348.00
1891, 2345.00
1892, 2346.00
1893, 2346.00
1894, 2347.00
1895, 2346.00
1896, 2345.00
1897, 2345.00
1898, 2344.00
1899, 2344.00
1900, 2344.00
1901, 2343.00
1902, 2343.00
1903, 2342.00
1904, 2341.00
1905, 2342.00
1906, 2341.00
1907, 2340.00
1908, 2341.00
1909, 2341.00
1910, 2341.00
1911, 2339.00
1912, 2340.00
1913, 2341.00
1914, 2340.00
1915, 2338.00
1916, 2338.00
1917, 2337.00
1918, 2338.00
1919, 2339.00
1920, 2339.00
1921, 2339.00
1922, 2339.00
1923, 2337.00
1924, 2339.00
1925, 2338.00
1926, 2337.00
1927, 2337.00
1928, 2336.00
1929, 2338.00
1930, 2338.00
1931, 2339.00
1932, 2338.00
1933, 2341.00
1934, 2339.00
1935, 2338.00
1936, 2340.00
1937, 2338.00
1938, 2338.00
1939, 2339.00
1940, 2339.00
1941, 2338.00
1942, 2340.00
1943, 2337.00
1944, 2340.00
1945, 2338.00
1946, 2340.00
1947, 2342.00
1948, 2341.00
1949, 2340.00
1950, 2341.00
1951, 2340.00
1952, 2342.00
1953, 2344.00
1954, 2341.00
1955, 2342.00
1956, 2345.00
1957, 2344.00
1958, 2342.00
1959, 2345.00
1960, 2344.00
1961, 2344.00
1962, 2345.00
1963, 2345.00
1964, 2345.00
1965, 2347.00
1966, 2346.00
1967, 2347.00
1968, 2348.00
1969, 2351.00
1970, 2348.00
1971, 2347.00
1972, 2349.00
1973, 2351.00
1974, 2350.00
1975, 2352.00
1976, 2352.00
1977, 2351.00
1978, 2352.00
1979, 2355.00
1980, 2353.00
1981, 2357.00
1982, 2355.00
1983, 2354.00
1984, 2355.00
1985, 2357.00
1986, 2356.00
1987, 2357.00
1988, 2358.00
1989, 2359.00
1990, 2359.00
1991, 2361.00
1992, 2360.00
1993, 2361.00
1994, 2362.00
1995, 2362.00
1996, 2363.00
1997, 2362.00
1998, 2362.00
1999, 2364.00
2000, 2364.00
2001, 2364.00
2002, 2364.00
2003, 2367.00
2004, 2365.00
2005, 2368.00
2006, 2368.00
2007, 2369.00
2008, 2369.00
2009, 2369.00
2010, 2368.00
2011, 2372.00
2012, 2371.00
2013, 2371.00
2014, 2374.00
2015, 2372.00
2016, 2372.00
2017, 2373.00
2018, 2373.00
2019, 2376.00
2020, 2375.00
2021, 2377.00
2022, 2377.00
2023, 2376.00
2024, 2378.00
2025, 2380.00
2026, 2379.00
2027, 2379.00
2028, 2381.00
2029, 2379.00
2030, 2382.00
2031, 2383.00
2032, 2384.00
2033, 2383.00
2034, 2384.00
2035, 2384.00
2036, 2386.00
2037, 2386.00
2038, 2386.00
2039, 2387.00
2040, 2386.00
2041, 2388.00
2042, 2391.00
2043, 2391.00
2044, 2392.00
2045, 2391.00
2046, 2393.00
2047, 2394.00
2048, 2393.00
2049, 2397.00
2050, 2396.00
2051, 2397.00
2052, 2398.00
2053, 2398.00
2054, 2401.00
2055, 2400.00
2056, 2401.00
2057, 2402.00
2058, 2402.00
2059, 2404.00
2060, 2404.00
2061, 2406.00
2062, 2408.00
2063, 2406.00
2064, 2409.00
2065, 2409.00
2066, 2409.00
2067, 2411.00
2068, 2412.00
2069, 2412.00
2070, 2413.00
2071, 2415.00
2072, 2415.00
2073, 2417.00
2074, 2418.00
2075, 2418.00
2076, 2417.00
2077, 2419.00
2078, 2419.00
2079, 2420.00
2080, 2422.00
2081, 2423.00
2082, 2424.00
2083, 2423.00
2084, 2424.00
2085, 2427.00
2086, 2427.00
2087, 2427.00
2088, 2427.00
2089, 2428.00
2090, 2430.00
2091, 2431.00
2092, 2430.00
2093, 2431.00
2094, 2431.00
2095, 2434.00
2096, 2434.00
2097, 2432.00
2098, 2435.00
2099, 2435.00
2100, 2435.00
2101, 2438.00
2102, 2436.00
2103, 2437.00
2104, 2438.00
2105, 2437.00
2106, 2438.00
2107, 2438.00
2108, 2440.00
2109, 2440.00
2110, 2442.00
2111, 2441.00
2112, 2441.00
2113, 2442.00
2114, 2443.00
2115, 2443.00
2116, 2442.00
2117, 2443.00
2118, 2445.00
2119, 2444.00
2120, 2444.00
2121, 2445.00
2122, 2447.00
2123, 2445.00
2124, 2448.00
2125, 2447.00
2126, 2447.00
2127, 2448.00
2128, 2448.00
2129, 2448.00
2130, 2449.00
2131, 2450.00
2132, 2449.00
2133, 2451.00
2134, 2450.00
2135, 2450.00
2136, 2451.00
2137, 2451.00
2138, 2454.00
2139, 2453.00
2140, 2453.00
2141, 2452.00
2142, 2455.00
2143, 2455.00
2144, 2454.00
2145, 2455.00
2146, 2456.00
2147, 2455.00
2148, 2456.00
2149, 2457.00
2150, 2457.00
