FW version: 24
Log Version: 3.0.3

General Info:
       Command/Macro Performed,            Timestamp,             Device ID, COM Port, UART/I2C, Test Name, Host Major, Host Minor, Host Revision, Host Git Commit
            Single_measurement,  2023_07_11_10_53_08,       Insight2_F4_xxx,    USB-C,      USB,          ,          0,          1,             1,      4031237645

Show Spectrometer Status:
l0_version, f4_version, battery_perc, battery_mVolt, accelerometer_temp, accelerometer_x, accelerometer_y, accelerometer_z, compass_temp, compass_x, compass_y, compass_z, lamp_0, lamp_1, gain_0, gain_1
        17,         24,           49,          1907,               6336,           65380,             796,           18744,            0,     65388,     65373,     18811,   2457,   2457,      1,      1

Temperature Statistic Info:
NTC AVG [°C], NTC2 AVG [°C]
      39.234,        38.882

Statistic Info:
M1:  num,      min,      max,   median,      AVG,      STD,M2:  num,      min,      max,   median,      AVG,      STD
     301,  1345.00,  1563.00,  1389.00,  1416.24,  67.7557,     401,  1805.00,  1932.00,  1856.00,  1859.63,  41.4010,

Measurements:
Wavelength, Data Amplitude
1350, 1382.00
1351, 1383.00
1352, 1381.00
1353, 1381.00
1354, 1380.00
1355, 1380.00
1356, 1379.00
1357, 1378.00
1358, 1377.00
1359, 1377.00
1360, 1375.00
1361, 1374.00
1362, 1373.00
1363, 1372.00
1364, 1371.00
1365, 1371.00
1366, 1368.00
1367, 1369.00
1368, 1368.00
1369, 1366.00
1370, 1365.00
1371, 1365.00
1372, 1363.00
1373, 1362.00
1374, 1362.00
1375, 1361.00
1376, 1359.00
1377, 1359.00
1378, 1357.00
1379, 1356.00
1380, 1356.00
1381, 1356.00
1382, 1356.00
1383, 1354.00
1384, 1353.00
1385, 1354.00
1386, 1353.00
1387, 1352.00
1388, 1352.00
1389, 1352.00
1390, 1351.00
1391, 1351.00
1392, 1350.00
1393, 1350.00
1394, 1349.00
1395, 1349.00
1396, 1348.00
1397, 1348.00
1398, 1349.00
1399, 1348.00
1400, 1348.00
1401, 1348.00
1402, 1348.00
1403, 1347.00
1404, 1348.00
1405, 1347.00
1406, 1347.00
1407, 1346.00
1408, 1346.00
1409, 1347.00
1410, 1347.00
1411, 1346.00
1412, 1345.00
1413, 1345.00
1414, 1346.00
1415, 1345.00
1416, 1345.00
1417, 1345.00
1418, 1345.00
1419, 1345.00
1420, 1346.00
1421, 1346.00
1422, 1345.00
1423, 1347.00
1424, 1345.00
1425, 1346.00
1426, 1347.00
1427, 1346.00
1428, 1346.00
1429, 1347.00
1430, 1346.00
1431, 1347.00
1432, 1348.00
1433, 1348.00
1434, 1348.00
1435, 1349.00
1436, 1349.00
1437, 1348.00
1438, 1349.00
1439, 1350.00
1440, 1350.00
1441, 1351.00
1442, 1350.00
1443, 1351.00
1444, 1350.00
1445, 1351.00
1446, 1352.00
1447, 1352.00
1448, 1352.00
1449, 1352.00
1450, 1353.00
1451, 1354.00
1452, 1354.00
1453, 1354.00
1454, 1355.00
1455, 1355.00
1456, 1356.00
1457, 1356.00
1458, 1357.00
1459, 1358.00
1460, 1358.00
1461, 1358.00
1462, 1358.00
1463, 1360.00
1464, 1359.00
1465, 1360.00
1466, 1362.00
1467, 1362.00
1468, 1363.00
1469, 1364.00
1470, 1364.00
1471, 1365.00
1472, 1365.00
1473, 1366.00
1474, 1367.00
1475, 1367.00
1476, 1370.00
1477, 1370.00
1478, 1370.00
1479, 1371.00
1480, 1372.00
1481, 1373.00
1482, 1373.00
1483, 1374.00
1484, 1375.00
1485, 1375.00
1486, 1376.00
1487, 1378.00
1488, 1378.00
1489, 1379.00
1490, 1381.00
1491, 1381.00
1492, 1382.00
1493, 1383.00
1494, 1384.00
1495, 1385.00
1496, 1386.00
1497, 1387.00
1498, 1388.00
1499, 1388.00
1500, 1389.00
1501, 1390.00
1502, 1390.00
1503, 1392.00
1504, 1393.00
1505, 1393.00
1506, 1394.00
1507, 1396.00
1508, 1396.00
1509, 1398.00
1510, 1398.00
1511, 1399.00
1512, 1401.00
1513, 1401.00
1514, 1402.00
1515, 1402.00
1516, 1405.00
1517, 1405.00
1518, 1406.00
1519, 1407.00
1520, 1408.00
1521, 1410.00
1522, 1411.00
1523, 1411.00
1524, 1413.00
1525, 1414.00
1526, 1414.00
1527, 1416.00
1528, 1417.00
1529, 1419.00
1530, 1419.00
1531, 1421.00
1532, 1422.00
1533, 1422.00
1534, 1423.00
1535, 1425.00
1536, 1426.00
1537, 1426.00
1538, 1428.00
1539, 1428.00
1540, 1430.00
1541, 1433.00
1542, 1433.00
1543, 1434.00
1544, 1435.00
1545, 1436.00
1546, 1437.00
1547, 1438.00
1548, 1439.00
1549, 1440.00
1550, 1441.00
1551, 1443.00
1552, 1444.00
1553, 1446.00
1554, 1446.00
1555, 1447.00
1556, 1449.00
1557, 1449.00
1558, 1451.00
1559, 1452.00
1560, 1454.00
1561, 1455.00
1562, 1456.00
1563, 1457.00
1564, 1458.00
1565, 1459.00
1566, 1461.00
1567, 1462.00
1568, 1464.00
1569, 1464.00
1570, 1466.00
1571, 1466.00
1572, 1467.00
1573, 1469.00
1574, 1471.00
1575, 1472.00
1576, 1472.00
1577, 1473.00
1578, 1476.00
1579, 1476.00
1580, 1477.00
1581, 1479.00
1582, 1479.00
1583, 1480.00
1584, 1482.00
1585, 1484.00
1586, 1485.00
1587, 1485.00
1588, 1486.00
1589, 1487.00
1590, 1489.00
1591, 1490.00
1592, 1490.00
1593, 1492.00
1594, 1493.00
1595, 1495.00
1596, 1495.00
1597, 1496.00
1598, 1497.00
1599, 1498.00
1600, 1499.00
1601, 1500.00
1602, 1502.00
1603, 1504.00
1604, 1504.00
1605, 1506.00
1606, 1507.00
1607, 1509.00
1608, 1510.00
1609, 1511.00
1610, 1512.00
1611, 1513.00
1612, 1515.00
1613, 1515.00
1614, 1517.00
1615, 1519.00
1616, 1520.00
1617, 1522.00
1618, 1523.00
1619, 1525.00
1620, 1526.00
1621, 1527.00
1622, 1529.00
1623, 1530.00
1624, 1531.00
1625, 1533.00
1626, 1534.00
1627, 1535.00
1628, 1536.00
1629, 1539.00
1630, 1540.00
1631, 1540.00
1632, 1542.00
1633, 1542.00
1634, 1544.00
1635, 1545.00
1636, 1547.00
1637, 1549.00
1638, 1549.00
1639, 1550.00
1640, 1551.00
1641, 1552.00
1642, 1553.00
1643, 1554.00
1644, 1556.00
1645, 1557.00
1646, 1559.00
1647, 1559.00
1648, 1560.00
1649, 1560.00
1650, 1563.00

1750, 1932.00
1751, 1932.00
1752, 1931.00
1753, 1931.00
1754, 1930.00
1755, 1930.00
1756, 1931.00
1757, 1930.00
1758, 1930.00
1759, 1931.00
1760, 1929.00
1761, 1930.00
1762, 1930.00
1763, 1929.00
1764, 1929.00
1765, 1929.00
1766, 1929.00
1767, 1931.00
1768, 1928.00
1769, 1929.00
1770, 1927.00
1771, 1928.00
1772, 1926.00
1773, 1927.00
1774, 1928.00
1775, 1928.00
1776, 1924.00
1777, 1925.00
1778, 1924.00
1779, 1928.00
1780, 1924.00
1781, 1924.00
1782, 1923.00
1783, 1923.00
1784, 1924.00
1785, 1924.00
1786, 1921.00
1787, 1923.00
1788, 1924.00
1789, 1921.00
1790, 1922.00
1791, 1921.00
1792, 1919.00
1793, 1919.00
1794, 1918.00
1795, 1919.00
1796, 1919.00
1797, 1919.00
1798, 1917.00
1799, 1919.00
1800, 1916.00
1801, 1916.00
1802, 1915.00
1803, 1914.00
1804, 1914.00
1805, 1915.00
1806, 1913.00
1807, 1914.00
1808, 1914.00
1809, 1913.00
1810, 1913.00
1811, 1913.00
1812, 1911.00
1813, 1910.00
1814, 1909.00
1815, 1911.00
1816, 1907.00
1817, 1909.00
1818, 1906.00
1819, 1905.00
1820, 1904.00
1821, 1905.00
1822, 1905.00
1823, 1904.00
1824, 1902.00
1825, 1901.00
1826, 1901.00
1827, 1899.00
1828, 1897.00
1829, 1897.00
1830, 1895.00
1831, 1894.00
1832, 1892.00
1833, 1891.00
1834, 1888.00
1835, 1887.00
1836, 1886.00
1837, 1884.00
1838, 1883.00
1839, 1882.00
1840, 1879.00
1841, 1878.00
1842, 1877.00
1843, 1874.00
1844, 1872.00
1845, 1871.00
1846, 1869.00
1847, 1867.00
1848, 1865.00
1849, 1861.00
1850, 1861.00
1851, 1857.00
1852, 1857.00
1853, 1856.00
1854, 1852.00
1855, 1851.00
1856, 1849.00
1857, 1849.00
1858, 1844.00
1859, 1843.00
1860, 1843.00
1861, 1839.00
1862, 1836.00
1863, 1837.00
1864, 1836.00
1865, 1835.00
1866, 1833.00
1867, 1831.00
1868, 1830.00
1869, 1830.00
1870, 1827.00
1871, 1826.00
1872, 1828.00
1873, 1825.00
1874, 1823.00
1875, 1824.00
1876, 1821.00
1877, 1821.00
1878, 1820.00
1879, 1821.00
1880, 1820.00
1881, 1819.00
1882, 1818.00
1883, 1816.00
1884, 1816.00
1885, 1816.00
1886, 1817.00
1887, 1816.00
1888, 1815.00
1889, 1815.00
1890, 1814.00
1891, 1815.00
1892, 1813.00
1893, 1813.00
1894, 1811.00
1895, 1811.00
1896, 1812.00
1897, 1812.00
1898, 1811.00
1899, 1810.00
1900, 1810.00
1901, 1811.00
1902, 1811.00
1903, 1809.00
1904, 1809.00
1905, 1808.00
1906, 1809.00
1907, 1810.00
1908, 1808.00
1909, 1808.00
1910, 1807.00
1911, 1808.00
1912, 1809.00
1913, 1806.00
1914, 1807.00
1915, 1807.00
1916, 1806.00
1917, 1807.00
1918, 1807.00
1919, 1806.00
1920, 1807.00
1921, 1805.00
1922, 1808.00
1923, 1805.00
1924, 1807.00
1925, 1805.00
1926, 1807.00
1927, 1808.00
1928, 1807.00
1929, 1805.00
1930, 1805.00
1931, 1805.00
1932, 1807.00
1933, 1806.00
1934, 1807.00
1935, 1807.00
1936, 1806.00
1937, 1806.00
1938, 1808.00
1939, 1806.00
1940, 1807.00
1941, 1807.00
1942, 1807.00
1943, 1807.00
1944, 1806.00
1945, 1807.00
1946, 1808.00
1947, 1807.00
1948, 1808.00
1949, 1807.00
1950, 1808.00
1951, 1810.00
1952, 1809.00
1953, 1810.00
1954, 1810.00
1955, 1809.00
1956, 1809.00
1957, 1811.00
1958, 1813.00
1959, 1811.00
1960, 1811.00
1961, 1811.00
1962, 1813.00
1963, 1813.00
1964, 1812.00
1965, 1814.00
1966, 1813.00
1967, 1814.00
1968, 1814.00
1969, 1816.00
1970, 1814.00
1971, 1816.00
1972, 1815.00
1973, 1815.00
1974, 1817.00
1975, 1817.00
1976, 1819.00
1977, 1819.00
1978, 1819.00
1979, 1817.00
1980, 1819.00
1981, 1819.00
1982, 1819.00
1983, 1822.00
1984, 1818.00
1985, 1821.00
1986, 1821.00
1987, 1821.00
1988, 1823.00
1989, 1823.00
1990, 1824.00
1991, 1825.00
1992, 1824.00
1993, 1825.00
1994, 1825.00
1995, 1825.00
1996, 1826.00
1997, 1825.00
1998, 1828.00
1999, 1828.00
2000, 1827.00
2001, 1829.00
2002, 1829.00
2003, 1830.00
2004, 1828.00
2005, 1828.00
2006, 1828.00
2007, 1830.00
2008, 1832.00
2009, 1831.00
2010, 1831.00
2011, 1832.00
2012, 1832.00
2013, 1831.00
2014, 1832.00
2015, 1834.00
2016, 1833.00
2017, 1836.00
2018, 1834.00
2019, 1835.00
2020, 1836.00
2021, 1835.00
2022, 1837.00
2023, 1838.00
2024, 1837.00
2025, 1839.00
2026, 1841.00
2027, 1842.00
2028, 1840.00
2029, 1840.00
2030, 1839.00
2031, 1843.00
2032, 1841.00
2033, 1843.00
2034, 1841.00
2035, 1844.00
2036, 1845.00
2037, 1844.00
2038, 1845.00
2039, 1845.00
2040, 1846.00
2041, 1848.00
2042, 1849.00
2043, 1849.00
2044, 1849.00
2045, 1851.00
2046, 1850.00
2047, 1852.00
2048, 1852.00
2049, 1851.00
2050, 1853.00
2051, 1855.00
2052, 1853.00
2053, 1856.00
2054, 1855.00
2055, 1858.00
2056, 1856.00
2057, 1858.00
2058, 1860.00
2059, 1859.00
2060, 1860.00
2061, 1860.00
2062, 1861.00
2063, 1861.00
2064, 1863.00
2065, 1862.00
2066, 1864.00
2067, 1864.00
2068, 1864.00
2069, 1866.00
2070, 1867.00
2071, 1866.00
2072, 1867.00
2073, 1869.00
2074, 1871.00
2075, 1870.00
2076, 1871.00
2077, 1872.00
2078, 1872.00
2079, 1873.00
2080, 1874.00
2081, 1875.00
2082, 1875.00
2083, 1874.00
2084, 1876.00
2085, 1877.00
2086, 1878.00
2087, 1877.00
2088, 1877.00
2089, 1877.00
2090, 1879.00
2091, 1879.00
2092, 1880.00
2093, 1881.00
2094, 1880.00
2095, 1882.00
2096, 1883.00
2097, 1882.00
2098, 1883.00
2099, 1884.00
2100, 1884.00
2101, 1885.00
2102, 1886.00
2103, 1886.00
2104, 1885.00
2105, 1887.00
2106, 1887.00
2107, 1886.00
2108, 1887.00
2109, 1887.00
2110, 1887.00
2111, 1890.00
2112, 1888.00
2113, 1889.00
2114, 1891.00
2115, 1889.00
2116, 1891.00
2117, 1891.00
2118, 1892.00
2119, 1892.00
2120, 1891.00
2121, 1893.00
2122, 1892.00
2123, 1895.00
2124, 1894.00
2125, 1894.00
2126, 1894.00
2127, 1894.00
2128, 1895.00
2129, 1894.00
2130, 1895.00
2131, 1894.00
2132, 1896.00
2133, 1899.00
2134, 1897.00
2135, 1898.00
2136, 1897.00
2137, 1895.00
2138, 1898.00
2139, 1899.00
2140, 1899.00
2141, 1898.00
2142, 1899.00
2143, 1900.00
2144, 1899.00
2145, 1902.00
2146, 1900.00
2147, 1901.00
2148, 1901.00
2149, 1901.00
2150, 1902.00
