FW version: 24
Log Version: 3.0.3

General Info:
       Command/Macro Performed,            Timestamp,             Device ID, COM Port, UART/I2C, Test Name, Host Major, Host Minor, Host Revision, Host Git Commit
            Single_measurement,  2023_07_11_10_53_43,       Insight2_F4_xxx,    USB-C,      USB,          ,          0,          1,             1,      4031237645

Show Spectrometer Status:
l0_version, f4_version, battery_perc, battery_mVolt, accelerometer_temp, accelerometer_x, accelerometer_y, accelerometer_z, compass_temp, compass_x, compass_y, compass_z, lamp_0, lamp_1, gain_0, gain_1
        17,         24,           49,          1904,               6368,           65392,             792,           18564,            0,     65393,     65373,     18654,   3276,   3276,      1,      1

Temperature Statistic Info:
NTC AVG [°C], NTC2 AVG [°C]
      39.558,        39.205

Statistic Info:
M1:  num,      min,      max,   median,      AVG,      STD,M2:  num,      min,      max,   median,      AVG,      STD
     301,  2334.00,  2686.00,  2405.00,  2449.54, 109.1059,     401,  2900.00,  3103.00,  2976.00,  2984.92,  65.4870,

Measurements:
Wavelength, Data Amplitude
1350, 2404.00
1351, 2403.00
1352, 2402.00
1353, 2400.00
1354, 2399.00
1355, 2398.00
1356, 2396.00
1357, 2395.00
1358, 2394.00
1359, 2391.00
1360, 2391.00
1361, 2387.00
1362, 2386.00
1363, 2385.00
1364, 2383.00
1365, 2382.00
1366, 2379.00
1367, 2379.00
1368, 2376.00
1369, 2373.00
1370, 2372.00
1371, 2370.00
1372, 2368.00
1373, 2365.00
1374, 2364.00
1375, 2363.00
1376, 2361.00
1377, 2360.00
1378, 2357.00
1379, 2357.00
1380, 2357.00
1381, 2355.00
1382, 2353.00
1383, 2352.00
1384, 2351.00
1385, 2350.00
1386, 2349.00
1387, 2348.00
1388, 2347.00
1389, 2345.00
1390, 2344.00
1391, 2345.00
1392, 2346.00
1393, 2344.00
1394, 2343.00
1395, 2341.00
1396, 2341.00
1397, 2341.00
1398, 2340.00
1399, 2339.00
1400, 2340.00
1401, 2340.00
1402, 2340.00
1403, 2337.00
1404, 2337.00
1405, 2338.00
1406, 2337.00
1407, 2338.00
1408, 2336.00
1409, 2337.00
1410, 2337.00
1411, 2337.00
1412, 2336.00
1413, 2336.00
1414, 2335.00
1415, 2336.00
1416, 2335.00
1417, 2336.00
1418, 2334.00
1419, 2336.00
1420, 2336.00
1421, 2334.00
1422, 2336.00
1423, 2334.00
1424, 2334.00
1425, 2336.00
1426, 2336.00
1427, 2337.00
1428, 2336.00
1429, 2336.00
1430, 2337.00
1431, 2337.00
1432, 2337.00
1433, 2339.00
1434, 2338.00
1435, 2338.00
1436, 2338.00
1437, 2339.00
1438, 2339.00
1439, 2339.00
1440, 2339.00
1441, 2341.00
1442, 2343.00
1443, 2342.00
1444, 2343.00
1445, 2343.00
1446, 2344.00
1447, 2344.00
1448, 2345.00
1449, 2346.00
1450, 2347.00
1451, 2347.00
1452, 2348.00
1453, 2348.00
1454, 2349.00
1455, 2351.00
1456, 2351.00
1457, 2351.00
1458, 2352.00
1459, 2354.00
1460, 2353.00
1461, 2355.00
1462, 2357.00
1463, 2357.00
1464, 2358.00
1465, 2359.00
1466, 2360.00
1467, 2361.00
1468, 2361.00
1469, 2364.00
1470, 2364.00
1471, 2365.00
1472, 2367.00
1473, 2368.00
1474, 2368.00
1475, 2371.00
1476, 2372.00
1477, 2373.00
1478, 2374.00
1479, 2375.00
1480, 2375.00
1481, 2379.00
1482, 2379.00
1483, 2382.00
1484, 2381.00
1485, 2383.00
1486, 2385.00
1487, 2385.00
1488, 2388.00
1489, 2389.00
1490, 2391.00
1491, 2391.00
1492, 2392.00
1493, 2395.00
1494, 2395.00
1495, 2398.00
1496, 2398.00
1497, 2401.00
1498, 2401.00
1499, 2403.00
1500, 2405.00
1501, 2405.00
1502, 2408.00
1503, 2409.00
1504, 2410.00
1505, 2411.00
1506, 2412.00
1507, 2415.00
1508, 2415.00
1509, 2418.00
1510, 2419.00
1511, 2421.00
1512, 2423.00
1513, 2423.00
1514, 2427.00
1515, 2427.00
1516, 2428.00
1517, 2431.00
1518, 2433.00
1519, 2433.00
1520, 2435.00
1521, 2437.00
1522, 2437.00
1523, 2440.00
1524, 2442.00
1525, 2443.00
1526, 2445.00
1527, 2447.00
1528, 2449.00
1529, 2451.00
1530, 2452.00
1531, 2455.00
1532, 2455.00
1533, 2457.00
1534, 2459.00
1535, 2461.00
1536, 2463.00
1537, 2465.00
1538, 2467.00
1539, 2469.00
1540, 2471.00
1541, 2472.00
1542, 2473.00
1543, 2477.00
1544, 2477.00
1545, 2479.00
1546, 2482.00
1547, 2483.00
1548, 2485.00
1549, 2486.00
1550, 2489.00
1551, 2492.00
1552, 2493.00
1553, 2495.00
1554, 2497.00
1555, 2498.00
1556, 2500.00
1557, 2503.00
1558, 2504.00
1559, 2506.00
1560, 2509.00
1561, 2511.00
1562, 2512.00
1563, 2515.00
1564, 2517.00
1565, 2518.00
1566, 2519.00
1567, 2523.00
1568, 2525.00
1569, 2527.00
1570, 2529.00
1571, 2531.00
1572, 2533.00
1573, 2535.00
1574, 2538.00
1575, 2541.00
1576, 2540.00
1577, 2542.00
1578, 2545.00
1579, 2547.00
1580, 2548.00
1581, 2549.00
1582, 2552.00
1583, 2555.00
1584, 2556.00
1585, 2559.00
1586, 2560.00
1587, 2561.00
1588, 2563.00
1589, 2564.00
1590, 2567.00
1591, 2568.00
1592, 2570.00
1593, 2571.00
1594, 2573.00
1595, 2575.00
1596, 2576.00
1597, 2579.00
1598, 2580.00
1599, 2583.00
1600, 2583.00
1601, 2587.00
1602, 2588.00
1603, 2590.00
1604, 2592.00
1605, 2595.00
1606, 2596.00
1607, 2599.00
1608, 2600.00
1609, 2603.00
1610, 2604.00
1611, 2606.00
1612, 2608.00
1613, 2612.00
1614, 2613.00
1615, 2614.00
1616, 2618.00
1617, 2619.00
1618, 2622.00
1619, 2624.00
1620, 2627.00
1621, 2629.00
1622, 2631.00
1623, 2633.00
1624, 2634.00
1625, 2637.00
1626, 2639.00
1627, 2641.00
1628, 2644.00
1629, 2646.00
1630, 2649.00
1631, 2650.00
1632, 2651.00
1633, 2654.00
1634, 2655.00
1635, 2657.00
1636, 2661.00
1637, 2660.00
1638, 2664.00
1639, 2665.00
1640, 2666.00
1641, 2669.00
1642, 2671.00
1643, 2672.00
1644, 2674.00
1645, 2675.00
1646, 2677.00
1647, 2679.00
1648, 2683.00
1649, 2684.00
1650, 2686.00

1750, 3102.00
1751, 3103.00
1752, 3102.00
1753, 3102.00
1754, 3102.00
1755, 3101.00
1756, 3102.00
1757, 3101.00
1758, 3101.00
1759, 3101.00
1760, 3099.00
1761, 3101.00
1762, 3102.00
1763, 3101.00
1764, 3099.00
1765, 3099.00
1766, 3100.00
1767, 3098.00
1768, 3098.00
1769, 3098.00
1770, 3098.00
1771, 3097.00
1772, 3097.00
1773, 3095.00
1774, 3096.00
1775, 3093.00
1776, 3096.00
1777, 3092.00
1778, 3093.00
1779, 3092.00
1780, 3091.00
1781, 3091.00
1782, 3092.00
1783, 3089.00
1784, 3089.00
1785, 3089.00
1786, 3086.00
1787, 3088.00
1788, 3087.00
1789, 3085.00
1790, 3086.00
1791, 3085.00
1792, 3082.00
1793, 3082.00
1794, 3082.00
1795, 3081.00
1796, 3081.00
1797, 3080.00
1798, 3078.00
1799, 3080.00
1800, 3080.00
1801, 3076.00
1802, 3075.00
1803, 3075.00
1804, 3076.00
1805, 3075.00
1806, 3072.00
1807, 3074.00
1808, 3072.00
1809, 3071.00
1810, 3068.00
1811, 3068.00
1812, 3067.00
1813, 3065.00
1814, 3065.00
1815, 3065.00
1816, 3065.00
1817, 3065.00
1818, 3063.00
1819, 3062.00
1820, 3059.00
1821, 3057.00
1822, 3056.00
1823, 3055.00
1824, 3054.00
1825, 3052.00
1826, 3051.00
1827, 3046.00
1828, 3046.00
1829, 3045.00
1830, 3044.00
1831, 3041.00
1832, 3039.00
1833, 3036.00
1834, 3032.00
1835, 3031.00
1836, 3028.00
1837, 3026.00
1838, 3025.00
1839, 3019.00
1840, 3019.00
1841, 3015.00
1842, 3013.00
1843, 3009.00
1844, 3004.00
1845, 3003.00
1846, 2999.00
1847, 2996.00
1848, 2995.00
1849, 2990.00
1850, 2988.00
1851, 2985.00
1852, 2983.00
1853, 2978.00
1854, 2975.00
1855, 2973.00
1856, 2969.00
1857, 2967.00
1858, 2963.00
1859, 2960.00
1860, 2959.00
1861, 2956.00
1862, 2951.00
1863, 2951.00
1864, 2948.00
1865, 2947.00
1866, 2944.00
1867, 2942.00
1868, 2940.00
1869, 2939.00
1870, 2935.00
1871, 2932.00
1872, 2933.00
1873, 2932.00
1874, 2931.00
1875, 2930.00
1876, 2928.00
1877, 2925.00
1878, 2925.00
1879, 2924.00
1880, 2923.00
1881, 2922.00
1882, 2921.00
1883, 2921.00
1884, 2919.00
1885, 2918.00
1886, 2917.00
1887, 2916.00
1888, 2917.00
1889, 2914.00
1890, 2913.00
1891, 2914.00
1892, 2914.00
1893, 2913.00
1894, 2911.00
1895, 2913.00
1896, 2911.00
1897, 2911.00
1898, 2909.00
1899, 2909.00
1900, 2908.00
1901, 2908.00
1902, 2906.00
1903, 2905.00
1904, 2906.00
1905, 2907.00
1906, 2905.00
1907, 2907.00
1908, 2903.00
1909, 2905.00
1910, 2907.00
1911, 2905.00
1912, 2904.00
1913, 2903.00
1914, 2903.00
1915, 2903.00
1916, 2903.00
1917, 2904.00
1918, 2903.00
1919, 2902.00
1920, 2903.00
1921, 2901.00
1922, 2900.00
1923, 2902.00
1924, 2901.00
1925, 2901.00
1926, 2901.00
1927, 2903.00
1928, 2902.00
1929, 2902.00
1930, 2903.00
1931, 2903.00
1932, 2902.00
1933, 2901.00
1934, 2902.00
1935, 2902.00
1936, 2902.00
1937, 2902.00
1938, 2904.00
1939, 2903.00
1940, 2902.00
1941, 2903.00
1942, 2903.00
1943, 2903.00
1944, 2901.00
1945, 2903.00
1946, 2905.00
1947, 2905.00
1948, 2904.00
1949, 2905.00
1950, 2904.00
1951, 2905.00
1952, 2906.00
1953, 2906.00
1954, 2906.00
1955, 2909.00
1956, 2906.00
1957, 2909.00
1958, 2909.00
1959, 2909.00
1960, 2909.00
1961, 2910.00
1962, 2910.00
1963, 2911.00
1964, 2911.00
1965, 2913.00
1966, 2912.00
1967, 2911.00
1968, 2915.00
1969, 2915.00
1970, 2916.00
1971, 2915.00
1972, 2915.00
1973, 2917.00
1974, 2917.00
1975, 2918.00
1976, 2919.00
1977, 2918.00
1978, 2919.00
1979, 2920.00
1980, 2923.00
1981, 2921.00
1982, 2924.00
1983, 2922.00
1984, 2922.00
1985, 2924.00
1986, 2925.00
1987, 2926.00
1988, 2924.00
1989, 2927.00
1990, 2926.00
1991, 2927.00
1992, 2928.00
1993, 2931.00
1994, 2930.00
1995, 2931.00
1996, 2932.00
1997, 2932.00
1998, 2932.00
1999, 2935.00
2000, 2934.00
2001, 2933.00
2002, 2935.00
2003, 2935.00
2004, 2936.00
2005, 2936.00
2006, 2937.00
2007, 2939.00
2008, 2939.00
2009, 2940.00
2010, 2940.00
2011, 2943.00
2012, 2943.00
2013, 2943.00
2014, 2943.00
2015, 2943.00
2016, 2943.00
2017, 2945.00
2018, 2947.00
2019, 2947.00
2020, 2945.00
2021, 2947.00
2022, 2948.00
2023, 2949.00
2024, 2948.00
2025, 2952.00
2026, 2952.00
2027, 2954.00
2028, 2952.00
2029, 2956.00
2030, 2955.00
2031, 2957.00
2032, 2956.00
2033, 2957.00
2034, 2958.00
2035, 2958.00
2036, 2960.00
2037, 2959.00
2038, 2961.00
2039, 2964.00
2040, 2963.00
2041, 2964.00
2042, 2964.00
2043, 2966.00
2044, 2967.00
2045, 2969.00
2046, 2966.00
2047, 2968.00
2048, 2971.00
2049, 2972.00
2050, 2972.00
2051, 2970.00
2052, 2974.00
2053, 2975.00
2054, 2976.00
2055, 2978.00
2056, 2978.00
2057, 2981.00
2058, 2981.00
2059, 2982.00
2060, 2982.00
2061, 2984.00
2062, 2985.00
2063, 2986.00
2064, 2985.00
2065, 2988.00
2066, 2989.00
2067, 2991.00
2068, 2991.00
2069, 2995.00
2070, 2993.00
2071, 2993.00
2072, 2995.00
2073, 2997.00
2074, 2997.00
2075, 2999.00
2076, 2998.00
2077, 2999.00
2078, 3001.00
2079, 3002.00
2080, 3003.00
2081, 3004.00
2082, 3005.00
2083, 3005.00
2084, 3007.00
2085, 3007.00
2086, 3009.00
2087, 3010.00
2088, 3012.00
2089, 3010.00
2090, 3012.00
2091, 3015.00
2092, 3014.00
2093, 3015.00
2094, 3016.00
2095, 3016.00
2096, 3017.00
2097, 3018.00
2098, 3019.00
2099, 3019.00
2100, 3019.00
2101, 3021.00
2102, 3021.00
2103, 3021.00
2104, 3021.00
2105, 3025.00
2106, 3023.00
2107, 3025.00
2108, 3024.00
2109, 3026.00
2110, 3026.00
2111, 3025.00
2112, 3029.00
2113, 3027.00
2114, 3026.00
2115, 3028.00
2116, 3029.00
2117, 3029.00
2118, 3031.00
2119, 3031.00
2120, 3031.00
2121, 3030.00
2122, 3034.00
2123, 3032.00
2124, 3034.00
2125, 3034.00
2126, 3036.00
2127, 3035.00
2128, 3033.00
2129, 3035.00
2130, 3037.00
2131, 3038.00
2132, 3039.00
2133, 3038.00
2134, 3041.00
2135, 3040.00
2136, 3039.00
2137, 3039.00
2138, 3041.00
2139, 3039.00
2140, 3042.00
2141, 3041.00
2142, 3040.00
2143, 3043.00
2144, 3043.00
2145, 3043.00
2146, 3043.00
2147, 3044.00
2148, 3043.00
2149, 3045.00
2150, 3045.00
