FW version: 24
Log Version: 3.0.3

General Info:
       Command/Macro Performed,            Timestamp,             Device ID, COM Port, UART/I2C, Test Name, Host Major, Host Minor, Host Revision, Host Git Commit
            Single_measurement,  2023_07_11_10_53_32,       Insight2_F4_xxx,    USB-C,      USB,          ,          0,          1,             1,      4031237645

Show Spectrometer Status:
l0_version, f4_version, battery_perc, battery_mVolt, accelerometer_temp, accelerometer_x, accelerometer_y, accelerometer_z, compass_temp, compass_x, compass_y, compass_z, lamp_0, lamp_1, gain_0, gain_1
        17,         24,           49,          1905,               6352,           65384,             812,           18724,            0,     65391,     65407,     18807,   2866,   2866,      1,      1

Temperature Statistic Info:
NTC AVG [°C], NTC2 AVG [°C]
      39.411,        39.086

Statistic Info:
M1:  num,      min,      max,   median,      AVG,      STD,M2:  num,      min,      max,   median,      AVG,      STD
     301,  1814.00,  2097.00,  1870.00,  1906.48,  87.9637,     401,  2336.00,  2499.00,  2399.00,  2405.31,  52.9755,

Measurements:
Wavelength, Data Amplitude
1350, 1867.00
1351, 1866.00
1352, 1865.00
1353, 1864.00
1354, 1863.00
1355, 1862.00
1356, 1863.00
1357, 1859.00
1358, 1858.00
1359, 1857.00
1360, 1855.00
1361, 1855.00
1362, 1853.00
1363, 1852.00
1364, 1851.00
1365, 1849.00
1366, 1847.00
1367, 1845.00
1368, 1845.00
1369, 1842.00
1370, 1843.00
1371, 1841.00
1372, 1839.00
1373, 1837.00
1374, 1837.00
1375, 1836.00
1376, 1834.00
1377, 1833.00
1378, 1831.00
1379, 1831.00
1380, 1829.00
1381, 1829.00
1382, 1828.00
1383, 1827.00
1384, 1827.00
1385, 1826.00
1386, 1825.00
1387, 1824.00
1388, 1823.00
1389, 1823.00
1390, 1823.00
1391, 1821.00
1392, 1821.00
1393, 1820.00
1394, 1819.00
1395, 1819.00
1396, 1819.00
1397, 1819.00
1398, 1819.00
1399, 1818.00
1400, 1818.00
1401, 1818.00
1402, 1817.00
1403, 1817.00
1404, 1817.00
1405, 1816.00
1406, 1817.00
1407, 1816.00
1408, 1816.00
1409, 1816.00
1410, 1815.00
1411, 1815.00
1412, 1816.00
1413, 1815.00
1414, 1815.00
1415, 1815.00
1416, 1814.00
1417, 1814.00
1418, 1814.00
1419, 1814.00
1420, 1814.00
1421, 1815.00
1422, 1814.00
1423, 1815.00
1424, 1816.00
1425, 1815.00
1426, 1815.00
1427, 1816.00
1428, 1816.00
1429, 1815.00
1430, 1816.00
1431, 1815.00
1432, 1816.00
1433, 1816.00
1434, 1815.00
1435, 1818.00
1436, 1818.00
1437, 1817.00
1438, 1818.00
1439, 1819.00
1440, 1819.00
1441, 1820.00
1442, 1819.00
1443, 1821.00
1444, 1820.00
1445, 1821.00
1446, 1822.00
1447, 1823.00
1448, 1823.00
1449, 1823.00
1450, 1825.00
1451, 1825.00
1452, 1825.00
1453, 1826.00
1454, 1827.00
1455, 1827.00
1456, 1827.00
1457, 1828.00
1458, 1830.00
1459, 1829.00
1460, 1831.00
1461, 1831.00
1462, 1831.00
1463, 1833.00
1464, 1834.00
1465, 1834.00
1466, 1835.00
1467, 1836.00
1468, 1837.00
1469, 1837.00
1470, 1838.00
1471, 1839.00
1472, 1840.00
1473, 1840.00
1474, 1843.00
1475, 1844.00
1476, 1844.00
1477, 1845.00
1478, 1846.00
1479, 1847.00
1480, 1848.00
1481, 1850.00
1482, 1851.00
1483, 1851.00
1484, 1854.00
1485, 1853.00
1486, 1855.00
1487, 1856.00
1488, 1857.00
1489, 1857.00
1490, 1859.00
1491, 1862.00
1492, 1861.00
1493, 1863.00
1494, 1863.00
1495, 1864.00
1496, 1866.00
1497, 1867.00
1498, 1869.00
1499, 1870.00
1500, 1870.00
1501, 1872.00
1502, 1873.00
1503, 1874.00
1504, 1874.00
1505, 1877.00
1506, 1877.00
1507, 1879.00
1508, 1882.00
1509, 1882.00
1510, 1882.00
1511, 1883.00
1512, 1885.00
1513, 1886.00
1514, 1887.00
1515, 1890.00
1516, 1891.00
1517, 1891.00
1518, 1894.00
1519, 1894.00
1520, 1896.00
1521, 1897.00
1522, 1898.00
1523, 1901.00
1524, 1901.00
1525, 1903.00
1526, 1904.00
1527, 1907.00
1528, 1907.00
1529, 1908.00
1530, 1910.00
1531, 1910.00
1532, 1913.00
1533, 1914.00
1534, 1915.00
1535, 1917.00
1536, 1918.00
1537, 1919.00
1538, 1919.00
1539, 1922.00
1540, 1924.00
1541, 1925.00
1542, 1928.00
1543, 1930.00
1544, 1930.00
1545, 1931.00
1546, 1932.00
1547, 1934.00
1548, 1935.00
1549, 1937.00
1550, 1939.00
1551, 1940.00
1552, 1942.00
1553, 1942.00
1554, 1944.00
1555, 1945.00
1556, 1947.00
1557, 1950.00
1558, 1951.00
1559, 1953.00
1560, 1955.00
1561, 1957.00
1562, 1957.00
1563, 1959.00
1564, 1961.00
1565, 1962.00
1566, 1965.00
1567, 1966.00
1568, 1967.00
1569, 1968.00
1570, 1970.00
1571, 1971.00
1572, 1974.00
1573, 1975.00
1574, 1977.00
1575, 1979.00
1576, 1979.00
1577, 1981.00
1578, 1983.00
1579, 1985.00
1580, 1986.00
1581, 1987.00
1582, 1989.00
1583, 1989.00
1584, 1992.00
1585, 1993.00
1586, 1994.00
1587, 1996.00
1588, 1998.00
1589, 1999.00
1590, 1999.00
1591, 2001.00
1592, 2003.00
1593, 2004.00
1594, 2005.00
1595, 2007.00
1596, 2010.00
1597, 2011.00
1598, 2012.00
1599, 2014.00
1600, 2014.00
1601, 2016.00
1602, 2017.00
1603, 2019.00
1604, 2020.00
1605, 2022.00
1606, 2025.00
1607, 2026.00
1608, 2027.00
1609, 2029.00
1610, 2030.00
1611, 2032.00
1612, 2035.00
1613, 2036.00
1614, 2037.00
1615, 2039.00
1616, 2042.00
1617, 2043.00
1618, 2045.00
1619, 2048.00
1620, 2049.00
1621, 2051.00
1622, 2053.00
1623, 2055.00
1624, 2056.00
1625, 2058.00
1626, 2059.00
1627, 2061.00
1628, 2064.00
1629, 2065.00
1630, 2067.00
1631, 2068.00
1632, 2070.00
1633, 2072.00
1634, 2073.00
1635, 2075.00
1636, 2077.00
1637, 2077.00
1638, 2079.00
1639, 2081.00
1640, 2081.00
1641, 2084.00
1642, 2086.00
1643, 2086.00
1644, 2088.00
1645, 2089.00
1646, 2091.00
1647, 2092.00
1648, 2094.00
1649, 2096.00
1650, 2097.00

1750, 2498.00
1751, 2499.00
1752, 2497.00
1753, 2495.00
1754, 2498.00
1755, 2498.00
1756, 2499.00
1757, 2498.00
1758, 2498.00
1759, 2499.00
1760, 2498.00
1761, 2495.00
1762, 2497.00
1763, 2498.00
1764, 2497.00
1765, 2497.00
1766, 2496.00
1767, 2497.00
1768, 2495.00
1769, 2496.00
1770, 2495.00
1771, 2493.00
1772, 2495.00
1773, 2493.00
1774, 2494.00
1775, 2495.00
1776, 2493.00
1777, 2491.00
1778, 2493.00
1779, 2492.00
1780, 2489.00
1781, 2490.00
1782, 2489.00
1783, 2489.00
1784, 2488.00
1785, 2485.00
1786, 2487.00
1787, 2486.00
1788, 2485.00
1789, 2487.00
1790, 2485.00
1791, 2486.00
1792, 2481.00
1793, 2484.00
1794, 2482.00
1795, 2482.00
1796, 2481.00
1797, 2480.00
1798, 2482.00
1799, 2481.00
1800, 2479.00
1801, 2479.00
1802, 2479.00
1803, 2477.00
1804, 2478.00
1805, 2475.00
1806, 2477.00
1807, 2475.00
1808, 2473.00
1809, 2474.00
1810, 2473.00
1811, 2474.00
1812, 2473.00
1813, 2471.00
1814, 2471.00
1815, 2469.00
1816, 2469.00
1817, 2467.00
1818, 2467.00
1819, 2465.00
1820, 2466.00
1821, 2465.00
1822, 2462.00
1823, 2462.00
1824, 2461.00
1825, 2460.00
1826, 2458.00
1827, 2457.00
1828, 2453.00
1829, 2453.00
1830, 2451.00
1831, 2450.00
1832, 2446.00
1833, 2446.00
1834, 2443.00
1835, 2441.00
1836, 2441.00
1837, 2439.00
1838, 2435.00
1839, 2433.00
1840, 2431.00
1841, 2431.00
1842, 2426.00
1843, 2423.00
1844, 2422.00
1845, 2418.00
1846, 2417.00
1847, 2412.00
1848, 2414.00
1849, 2409.00
1850, 2408.00
1851, 2403.00
1852, 2401.00
1853, 2401.00
1854, 2397.00
1855, 2395.00
1856, 2390.00
1857, 2390.00
1858, 2387.00
1859, 2384.00
1860, 2381.00
1861, 2382.00
1862, 2377.00
1863, 2378.00
1864, 2374.00
1865, 2373.00
1866, 2372.00
1867, 2370.00
1868, 2368.00
1869, 2368.00
1870, 2366.00
1871, 2363.00
1872, 2363.00
1873, 2361.00
1874, 2359.00
1875, 2359.00
1876, 2358.00
1877, 2358.00
1878, 2359.00
1879, 2355.00
1880, 2354.00
1881, 2353.00
1882, 2351.00
1883, 2351.00
1884, 2351.00
1885, 2350.00
1886, 2350.00
1887, 2349.00
1888, 2347.00
1889, 2347.00
1890, 2348.00
1891, 2346.00
1892, 2347.00
1893, 2345.00
1894, 2345.00
1895, 2343.00
1896, 2343.00
1897, 2345.00
1898, 2343.00
1899, 2344.00
1900, 2342.00
1901, 2343.00
1902, 2342.00
1903, 2341.00
1904, 2342.00
1905, 2341.00
1906, 2342.00
1907, 2339.00
1908, 2341.00
1909, 2341.00
1910, 2340.00
1911, 2340.00
1912, 2340.00
1913, 2338.00
1914, 2339.00
1915, 2340.00
1916, 2338.00
1917, 2337.00
1918, 2339.00
1919, 2338.00
1920, 2338.00
1921, 2339.00
1922, 2337.00
1923, 2338.00
1924, 2338.00
1925, 2337.00
1926, 2336.00
1927, 2339.00
1928, 2338.00
1929, 2338.00
1930, 2338.00
1931, 2337.00
1932, 2337.00
1933, 2337.00
1934, 2339.00
1935, 2340.00
1936, 2339.00
1937, 2337.00
1938, 2338.00
1939, 2338.00
1940, 2338.00
1941, 2338.00
1942, 2337.00
1943, 2338.00
1944, 2340.00
1945, 2339.00
1946, 2340.00
1947, 2342.00
1948, 2340.00
1949, 2338.00
1950, 2341.00
1951, 2341.00
1952, 2342.00
1953, 2342.00
1954, 2343.00
1955, 2344.00
1956, 2344.00
1957, 2343.00
1958, 2345.00
1959, 2344.00
1960, 2345.00
1961, 2343.00
1962, 2343.00
1963, 2344.00
1964, 2344.00
1965, 2346.00
1966, 2345.00
1967, 2347.00
1968, 2347.00
1969, 2349.00
1970, 2348.00
1971, 2350.00
1972, 2350.00
1973, 2349.00
1974, 2350.00
1975, 2351.00
1976, 2352.00
1977, 2353.00
1978, 2352.00
1979, 2353.00
1980, 2353.00
1981, 2351.00
1982, 2355.00
1983, 2353.00
1984, 2355.00
1985, 2357.00
1986, 2356.00
1987, 2359.00
1988, 2358.00
1989, 2357.00
1990, 2358.00
1991, 2360.00
1992, 2360.00
1993, 2358.00
1994, 2359.00
1995, 2361.00
1996, 2362.00
1997, 2362.00
1998, 2363.00
1999, 2365.00
2000, 2364.00
2001, 2366.00
2002, 2366.00
2003, 2368.00
2004, 2364.00
2005, 2367.00
2006, 2367.00
2007, 2368.00
2008, 2369.00
2009, 2369.00
2010, 2369.00
2011, 2369.00
2012, 2369.00
2013, 2373.00
2014, 2374.00
2015, 2372.00
2016, 2371.00
2017, 2371.00
2018, 2376.00
2019, 2375.00
2020, 2377.00
2021, 2375.00
2022, 2375.00
2023, 2376.00
2024, 2378.00
2025, 2376.00
2026, 2377.00
2027, 2380.00
2028, 2379.00
2029, 2381.00
2030, 2382.00
2031, 2382.00
2032, 2383.00
2033, 2384.00
2034, 2384.00
2035, 2385.00
2036, 2384.00
2037, 2387.00
2038, 2387.00
2039, 2387.00
2040, 2390.00
2041, 2388.00
2042, 2388.00
2043, 2389.00
2044, 2390.00
2045, 2392.00
2046, 2392.00
2047, 2393.00
2048, 2395.00
2049, 2395.00
2050, 2396.00
2051, 2398.00
2052, 2397.00
2053, 2399.00
2054, 2398.00
2055, 2401.00
2056, 2401.00
2057, 2403.00
2058, 2404.00
2059, 2404.00
2060, 2403.00
2061, 2406.00
2062, 2407.00
2063, 2407.00
2064, 2407.00
2065, 2409.00
2066, 2408.00
2067, 2410.00
2068, 2410.00
2069, 2413.00
2070, 2415.00
2071, 2412.00
2072, 2415.00
2073, 2415.00
2074, 2418.00
2075, 2419.00
2076, 2418.00
2077, 2419.00
2078, 2421.00
2079, 2422.00
2080, 2422.00
2081, 2422.00
2082, 2424.00
2083, 2425.00
2084, 2425.00
2085, 2425.00
2086, 2426.00
2087, 2428.00
2088, 2428.00
2089, 2429.00
2090, 2428.00
2091, 2429.00
2092, 2431.00
2093, 2430.00
2094, 2431.00
2095, 2430.00
2096, 2433.00
2097, 2435.00
2098, 2434.00
2099, 2435.00
2100, 2433.00
2101, 2436.00
2102, 2436.00
2103, 2437.00
2104, 2437.00
2105, 2436.00
2106, 2439.00
2107, 2440.00
2108, 2439.00
2109, 2440.00
2110, 2441.00
2111, 2441.00
2112, 2440.00
2113, 2441.00
2114, 2441.00
2115, 2443.00
2116, 2444.00
2117, 2444.00
2118, 2444.00
2119, 2445.00
2120, 2445.00
2121, 2444.00
2122, 2445.00
2123, 2444.00
2124, 2446.00
2125, 2447.00
2126, 2446.00
2127, 2446.00
2128, 2449.00
2129, 2449.00
2130, 2449.00
2131, 2450.00
2132, 2450.00
2133, 2451.00
2134, 2450.00
2135, 2450.00
2136, 2451.00
2137, 2452.00
2138, 2453.00
2139, 2452.00
2140, 2454.00
2141, 2453.00
2142, 2453.00
2143, 2454.00
2144, 2453.00
2145, 2454.00
2146, 2457.00
2147, 2455.00
2148, 2455.00
2149, 2454.00
2150, 2456.00
