FW version: 24
Log Version: 3.0.3

General Info:
       Command/Macro Performed,            Timestamp,             Device ID, COM Port, UART/I2C, Test Name, Host Major, Host Minor, Host Revision, Host Git Commit
            Single_measurement,  2023_07_04_10_35_14,       Insight2_F4_xxx,    USB-C,      USB,          ,          0,          1,             1,      4031237645

Show Spectrometer Status:
l0_version, f4_version, battery_perc, battery_mVolt, accelerometer_temp, accelerometer_x, accelerometer_y, accelerometer_z, compass_temp, compass_x, compass_y, compass_z, lamp_0, lamp_1, gain_0, gain_1
        17,         24,            0,          1717,               4672,           64888,            1616,           18856,            0,     65405,     65392,     18920,   3276,   3276,      1,      1

Temperature Statistic Info:
NTC AVG [°C], NTC2 AVG [°C]
      31.156,        30.851

Statistic Info:
M1:  num,      min,      max,   median,      AVG,      STD,M2:  num,      min,      max,   median,      AVG,      STD
     301,  1722.00,  1977.00,  1773.00,  1805.98,  78.6725,     401,  2270.00,  2427.00,  2331.00,  2336.94,  51.3749,

Measurements:
Wavelength, Data Amplitude
1350, 1771.00
1351, 1772.00
1352, 1771.00
1353, 1770.00
1354, 1768.00
1355, 1768.00
1356, 1769.00
1357, 1767.00
1358, 1766.00
1359, 1764.00
1360, 1764.00
1361, 1763.00
1362, 1763.00
1363, 1762.00
1364, 1759.00
1365, 1757.00
1366, 1757.00
1367, 1757.00
1368, 1755.00
1369, 1753.00
1370, 1753.00
1371, 1751.00
1372, 1750.00
1373, 1748.00
1374, 1747.00
1375, 1746.00
1376, 1744.00
1377, 1743.00
1378, 1742.00
1379, 1741.00
1380, 1740.00
1381, 1739.00
1382, 1738.00
1383, 1737.00
1384, 1735.00
1385, 1735.00
1386, 1734.00
1387, 1734.00
1388, 1733.00
1389, 1733.00
1390, 1732.00
1391, 1732.00
1392, 1731.00
1393, 1731.00
1394, 1730.00
1395, 1729.00
1396, 1729.00
1397, 1728.00
1398, 1728.00
1399, 1727.00
1400, 1727.00
1401, 1727.00
1402, 1727.00
1403, 1726.00
1404, 1726.00
1405, 1726.00
1406, 1725.00
1407, 1725.00
1408, 1725.00
1409, 1724.00
1410, 1725.00
1411, 1724.00
1412, 1725.00
1413, 1724.00
1414, 1723.00
1415, 1723.00
1416, 1723.00
1417, 1723.00
1418, 1723.00
1419, 1723.00
1420, 1724.00
1421, 1723.00
1422, 1723.00
1423, 1722.00
1424, 1723.00
1425, 1723.00
1426, 1723.00
1427, 1723.00
1428, 1723.00
1429, 1723.00
1430, 1724.00
1431, 1724.00
1432, 1724.00
1433, 1724.00
1434, 1724.00
1435, 1726.00
1436, 1725.00
1437, 1725.00
1438, 1726.00
1439, 1726.00
1440, 1727.00
1441, 1727.00
1442, 1726.00
1443, 1728.00
1444, 1728.00
1445, 1729.00
1446, 1729.00
1447, 1729.00
1448, 1730.00
1449, 1730.00
1450, 1732.00
1451, 1731.00
1452, 1732.00
1453, 1733.00
1454, 1733.00
1455, 1732.00
1456, 1735.00
1457, 1734.00
1458, 1735.00
1459, 1735.00
1460, 1736.00
1461, 1738.00
1462, 1738.00
1463, 1737.00
1464, 1739.00
1465, 1740.00
1466, 1741.00
1467, 1741.00
1468, 1742.00
1469, 1742.00
1470, 1743.00
1471, 1744.00
1472, 1745.00
1473, 1746.00
1474, 1747.00
1475, 1747.00
1476, 1748.00
1477, 1749.00
1478, 1751.00
1479, 1751.00
1480, 1753.00
1481, 1754.00
1482, 1755.00
1483, 1755.00
1484, 1757.00
1485, 1757.00
1486, 1758.00
1487, 1759.00
1488, 1761.00
1489, 1762.00
1490, 1762.00
1491, 1764.00
1492, 1766.00
1493, 1766.00
1494, 1767.00
1495, 1767.00
1496, 1769.00
1497, 1769.00
1498, 1770.00
1499, 1773.00
1500, 1773.00
1501, 1773.00
1502, 1775.00
1503, 1776.00
1504, 1778.00
1505, 1779.00
1506, 1779.00
1507, 1781.00
1508, 1783.00
1509, 1784.00
1510, 1785.00
1511, 1785.00
1512, 1786.00
1513, 1789.00
1514, 1789.00
1515, 1791.00
1516, 1790.00
1517, 1793.00
1518, 1795.00
1519, 1796.00
1520, 1797.00
1521, 1798.00
1522, 1800.00
1523, 1801.00
1524, 1801.00
1525, 1804.00
1526, 1804.00
1527, 1806.00
1528, 1808.00
1529, 1808.00
1530, 1809.00
1531, 1810.00
1532, 1811.00
1533, 1813.00
1534, 1816.00
1535, 1815.00
1536, 1817.00
1537, 1818.00
1538, 1818.00
1539, 1820.00
1540, 1822.00
1541, 1823.00
1542, 1824.00
1543, 1825.00
1544, 1827.00
1545, 1828.00
1546, 1830.00
1547, 1831.00
1548, 1831.00
1549, 1832.00
1550, 1834.00
1551, 1835.00
1552, 1837.00
1553, 1838.00
1554, 1840.00
1555, 1840.00
1556, 1843.00
1557, 1844.00
1558, 1845.00
1559, 1848.00
1560, 1848.00
1561, 1849.00
1562, 1851.00
1563, 1853.00
1564, 1854.00
1565, 1855.00
1566, 1857.00
1567, 1858.00
1568, 1860.00
1569, 1862.00
1570, 1863.00
1571, 1865.00
1572, 1866.00
1573, 1866.00
1574, 1868.00
1575, 1870.00
1576, 1870.00
1577, 1872.00
1578, 1874.00
1579, 1875.00
1580, 1877.00
1581, 1878.00
1582, 1879.00
1583, 1880.00
1584, 1881.00
1585, 1883.00
1586, 1884.00
1587, 1886.00
1588, 1887.00
1589, 1888.00
1590, 1889.00
1591, 1892.00
1592, 1892.00
1593, 1893.00
1594, 1894.00
1595, 1895.00
1596, 1897.00
1597, 1899.00
1598, 1900.00
1599, 1901.00
1600, 1903.00
1601, 1903.00
1602, 1905.00
1603, 1907.00
1604, 1909.00
1605, 1910.00
1606, 1912.00
1607, 1911.00
1608, 1914.00
1609, 1916.00
1610, 1917.00
1611, 1919.00
1612, 1920.00
1613, 1922.00
1614, 1924.00
1615, 1925.00
1616, 1926.00
1617, 1928.00
1618, 1930.00
1619, 1930.00
1620, 1933.00
1621, 1935.00
1622, 1937.00
1623, 1938.00
1624, 1940.00
1625, 1942.00
1626, 1944.00
1627, 1944.00
1628, 1946.00
1629, 1948.00
1630, 1949.00
1631, 1951.00
1632, 1953.00
1633, 1953.00
1634, 1955.00
1635, 1956.00
1636, 1958.00
1637, 1959.00
1638, 1960.00
1639, 1963.00
1640, 1963.00
1641, 1965.00
1642, 1966.00
1643, 1967.00
1644, 1970.00
1645, 1971.00
1646, 1971.00
1647, 1971.00
1648, 1974.00
1649, 1977.00
1650, 1977.00

1750, 2427.00
1751, 2424.00
1752, 2425.00
1753, 2426.00
1754, 2426.00
1755, 2425.00
1756, 2425.00
1757, 2425.00
1758, 2427.00
1759, 2427.00
1760, 2427.00
1761, 2426.00
1762, 2426.00
1763, 2426.00
1764, 2425.00
1765, 2426.00
1766, 2426.00
1767, 2425.00
1768, 2425.00
1769, 2423.00
1770, 2425.00
1771, 2423.00
1772, 2422.00
1773, 2424.00
1774, 2424.00
1775, 2422.00
1776, 2421.00
1777, 2422.00
1778, 2422.00
1779, 2422.00
1780, 2421.00
1781, 2420.00
1782, 2419.00
1783, 2419.00
1784, 2417.00
1785, 2418.00
1786, 2417.00
1787, 2417.00
1788, 2417.00
1789, 2417.00
1790, 2415.00
1791, 2415.00
1792, 2414.00
1793, 2414.00
1794, 2412.00
1795, 2412.00
1796, 2413.00
1797, 2411.00
1798, 2411.00
1799, 2412.00
1800, 2410.00
1801, 2409.00
1802, 2408.00
1803, 2410.00
1804, 2409.00
1805, 2408.00
1806, 2407.00
1807, 2406.00
1808, 2405.00
1809, 2405.00
1810, 2405.00
1811, 2404.00
1812, 2404.00
1813, 2403.00
1814, 2403.00
1815, 2402.00
1816, 2401.00
1817, 2400.00
1818, 2399.00
1819, 2398.00
1820, 2398.00
1821, 2395.00
1822, 2397.00
1823, 2394.00
1824, 2394.00
1825, 2393.00
1826, 2393.00
1827, 2390.00
1828, 2390.00
1829, 2388.00
1830, 2388.00
1831, 2386.00
1832, 2384.00
1833, 2382.00
1834, 2382.00
1835, 2379.00
1836, 2379.00
1837, 2376.00
1838, 2374.00
1839, 2374.00
1840, 2370.00
1841, 2369.00
1842, 2366.00
1843, 2363.00
1844, 2361.00
1845, 2359.00
1846, 2357.00
1847, 2355.00
1848, 2352.00
1849, 2350.00
1850, 2347.00
1851, 2345.00
1852, 2344.00
1853, 2340.00
1854, 2337.00
1855, 2335.00
1856, 2333.00
1857, 2330.00
1858, 2327.00
1859, 2326.00
1860, 2322.00
1861, 2318.00
1862, 2318.00
1863, 2317.00
1864, 2314.00
1865, 2312.00
1866, 2309.00
1867, 2308.00
1868, 2305.00
1869, 2305.00
1870, 2304.00
1871, 2301.00
1872, 2299.00
1873, 2299.00
1874, 2299.00
1875, 2294.00
1876, 2294.00
1877, 2293.00
1878, 2295.00
1879, 2292.00
1880, 2290.00
1881, 2289.00
1882, 2290.00
1883, 2287.00
1884, 2288.00
1885, 2286.00
1886, 2286.00
1887, 2284.00
1888, 2283.00
1889, 2283.00
1890, 2283.00
1891, 2282.00
1892, 2280.00
1893, 2280.00
1894, 2281.00
1895, 2279.00
1896, 2278.00
1897, 2278.00
1898, 2278.00
1899, 2277.00
1900, 2278.00
1901, 2277.00
1902, 2275.00
1903, 2275.00
1904, 2277.00
1905, 2275.00
1906, 2277.00
1907, 2274.00
1908, 2273.00
1909, 2273.00
1910, 2272.00
1911, 2275.00
1912, 2274.00
1913, 2272.00
1914, 2273.00
1915, 2273.00
1916, 2271.00
1917, 2272.00
1918, 2271.00
1919, 2271.00
1920, 2271.00
1921, 2272.00
1922, 2272.00
1923, 2273.00
1924, 2270.00
1925, 2270.00
1926, 2272.00
1927, 2270.00
1928, 2270.00
1929, 2271.00
1930, 2271.00
1931, 2270.00
1932, 2272.00
1933, 2272.00
1934, 2270.00
1935, 2270.00
1936, 2273.00
1937, 2270.00
1938, 2270.00
1939, 2271.00
1940, 2272.00
1941, 2271.00
1942, 2272.00
1943, 2272.00
1944, 2273.00
1945, 2271.00
1946, 2273.00
1947, 2272.00
1948, 2273.00
1949, 2273.00
1950, 2272.00
1951, 2273.00
1952, 2273.00
1953, 2275.00
1954, 2275.00
1955, 2275.00
1956, 2274.00
1957, 2276.00
1958, 2276.00
1959, 2275.00
1960, 2277.00
1961, 2278.00
1962, 2277.00
1963, 2277.00
1964, 2280.00
1965, 2279.00
1966, 2280.00
1967, 2279.00
1968, 2280.00
1969, 2280.00
1970, 2280.00
1971, 2282.00
1972, 2282.00
1973, 2283.00
1974, 2283.00
1975, 2284.00
1976, 2284.00
1977, 2285.00
1978, 2284.00
1979, 2285.00
1980, 2286.00
1981, 2286.00
1982, 2286.00
1983, 2287.00
1984, 2288.00
1985, 2287.00
1986, 2289.00
1987, 2289.00
1988, 2289.00
1989, 2290.00
1990, 2290.00
1991, 2292.00
1992, 2292.00
1993, 2292.00
1994, 2292.00
1995, 2294.00
1996, 2294.00
1997, 2295.00
1998, 2296.00
1999, 2297.00
2000, 2295.00
2001, 2295.00
2002, 2297.00
2003, 2297.00
2004, 2298.00
2005, 2297.00
2006, 2297.00
2007, 2299.00
2008, 2300.00
2009, 2301.00
2010, 2301.00
2011, 2303.00
2012, 2303.00
2013, 2303.00
2014, 2303.00
2015, 2304.00
2016, 2304.00
2017, 2304.00
2018, 2304.00
2019, 2306.00
2020, 2307.00
2021, 2306.00
2022, 2307.00
2023, 2308.00
2024, 2307.00
2025, 2308.00
2026, 2310.00
2027, 2310.00
2028, 2312.00
2029, 2312.00
2030, 2312.00
2031, 2312.00
2032, 2313.00
2033, 2313.00
2034, 2313.00
2035, 2315.00
2036, 2316.00
2037, 2318.00
2038, 2318.00
2039, 2315.00
2040, 2317.00
2041, 2319.00
2042, 2319.00
2043, 2321.00
2044, 2321.00
2045, 2319.00
2046, 2322.00
2047, 2323.00
2048, 2324.00
2049, 2325.00
2050, 2327.00
2051, 2327.00
2052, 2328.00
2053, 2328.00
2054, 2329.00
2055, 2330.00
2056, 2331.00
2057, 2331.00
2058, 2332.00
2059, 2331.00
2060, 2333.00
2061, 2333.00
2062, 2336.00
2063, 2337.00
2064, 2337.00
2065, 2337.00
2066, 2339.00
2067, 2339.00
2068, 2341.00
2069, 2342.00
2070, 2343.00
2071, 2342.00
2072, 2344.00
2073, 2346.00
2074, 2345.00
2075, 2346.00
2076, 2349.00
2077, 2349.00
2078, 2349.00
2079, 2351.00
2080, 2351.00
2081, 2351.00
2082, 2350.00
2083, 2352.00
2084, 2352.00
2085, 2354.00
2086, 2354.00
2087, 2355.00
2088, 2356.00
2089, 2357.00
2090, 2356.00
2091, 2358.00
2092, 2359.00
2093, 2360.00
2094, 2360.00
2095, 2361.00
2096, 2361.00
2097, 2363.00
2098, 2362.00
2099, 2362.00
2100, 2364.00
2101, 2365.00
2102, 2365.00
2103, 2364.00
2104, 2365.00
2105, 2367.00
2106, 2368.00
2107, 2366.00
2108, 2368.00
2109, 2367.00
2110, 2367.00
2111, 2368.00
2112, 2369.00
2113, 2368.00
2114, 2370.00
2115, 2370.00
2116, 2369.00
2117, 2370.00
2118, 2369.00
2119, 2371.00
2120, 2372.00
2121, 2371.00
2122, 2373.00
2123, 2372.00
2124, 2373.00
2125, 2373.00
2126, 2375.00
2127, 2373.00
2128, 2376.00
2129, 2375.00
2130, 2375.00
2131, 2374.00
2132, 2375.00
2133, 2376.00
2134, 2377.00
2135, 2376.00
2136, 2375.00
2137, 2377.00
2138, 2376.00
2139, 2377.00
2140, 2377.00
2141, 2375.00
2142, 2378.00
2143, 2376.00
2144, 2378.00
2145, 2378.00
2146, 2379.00
2147, 2378.00
2148, 2377.00
2149, 2378.00
2150, 2378.00
