FW version: 24
Log Version: 3.0.3

General Info:
       Command/Macro Performed,            Timestamp,             Device ID, COM Port, UART/I2C, Test Name, Host Major, Host Minor, Host Revision, Host Git Commit
            Single_measurement,  2023_07_04_10_35_22,       Insight2_F4_xxx,    USB-C,      USB,          ,          0,          1,             1,      4031237645

Show Spectrometer Status:
l0_version, f4_version, battery_perc, battery_mVolt, accelerometer_temp, accelerometer_x, accelerometer_y, accelerometer_z, compass_temp, compass_x, compass_y, compass_z, lamp_0, lamp_1, gain_0, gain_1
        17,         24,            0,          1717,               4704,           64840,            1668,           18900,            0,     65389,     65527,     18940,   3276,   3276,      1,      1

Temperature Statistic Info:
NTC AVG [°C], NTC2 AVG [°C]
      31.380,        31.015

Statistic Info:
M1:  num,      min,      max,   median,      AVG,      STD,M2:  num,      min,      max,   median,      AVG,      STD
     301,  1721.00,  1975.00,  1773.00,  1804.65,  78.5953,     401,  2268.00,  2426.00,  2330.00,  2335.77,  51.3958,

Measurements:
Wavelength, Data Amplitude
1350, 1772.00
1351, 1771.00
1352, 1769.00
1353, 1768.00
1354, 1768.00
1355, 1767.00
1356, 1766.00
1357, 1766.00
1358, 1765.00
1359, 1764.00
1360, 1763.00
1361, 1762.00
1362, 1762.00
1363, 1759.00
1364, 1758.00
1365, 1757.00
1366, 1754.00
1367, 1755.00
1368, 1753.00
1369, 1752.00
1370, 1751.00
1371, 1748.00
1372, 1747.00
1373, 1746.00
1374, 1745.00
1375, 1745.00
1376, 1743.00
1377, 1741.00
1378, 1741.00
1379, 1740.00
1380, 1738.00
1381, 1738.00
1382, 1735.00
1383, 1737.00
1384, 1735.00
1385, 1734.00
1386, 1732.00
1387, 1733.00
1388, 1732.00
1389, 1731.00
1390, 1731.00
1391, 1730.00
1392, 1730.00
1393, 1730.00
1394, 1729.00
1395, 1727.00
1396, 1727.00
1397, 1727.00
1398, 1727.00
1399, 1726.00
1400, 1726.00
1401, 1726.00
1402, 1725.00
1403, 1724.00
1404, 1725.00
1405, 1724.00
1406, 1725.00
1407, 1723.00
1408, 1723.00
1409, 1722.00
1410, 1723.00
1411, 1723.00
1412, 1723.00
1413, 1722.00
1414, 1722.00
1415, 1721.00
1416, 1723.00
1417, 1722.00
1418, 1721.00
1419, 1721.00
1420, 1722.00
1421, 1722.00
1422, 1722.00
1423, 1722.00
1424, 1722.00
1425, 1722.00
1426, 1722.00
1427, 1721.00
1428, 1722.00
1429, 1722.00
1430, 1723.00
1431, 1723.00
1432, 1723.00
1433, 1723.00
1434, 1723.00
1435, 1724.00
1436, 1724.00
1437, 1724.00
1438, 1725.00
1439, 1725.00
1440, 1724.00
1441, 1725.00
1442, 1727.00
1443, 1727.00
1444, 1727.00
1445, 1727.00
1446, 1729.00
1447, 1727.00
1448, 1729.00
1449, 1729.00
1450, 1729.00
1451, 1730.00
1452, 1729.00
1453, 1732.00
1454, 1732.00
1455, 1733.00
1456, 1733.00
1457, 1732.00
1458, 1734.00
1459, 1734.00
1460, 1735.00
1461, 1736.00
1462, 1737.00
1463, 1737.00
1464, 1739.00
1465, 1738.00
1466, 1740.00
1467, 1740.00
1468, 1741.00
1469, 1741.00
1470, 1743.00
1471, 1742.00
1472, 1744.00
1473, 1744.00
1474, 1746.00
1475, 1746.00
1476, 1747.00
1477, 1748.00
1478, 1749.00
1479, 1750.00
1480, 1751.00
1481, 1753.00
1482, 1754.00
1483, 1754.00
1484, 1755.00
1485, 1755.00
1486, 1757.00
1487, 1759.00
1488, 1760.00
1489, 1761.00
1490, 1761.00
1491, 1762.00
1492, 1764.00
1493, 1765.00
1494, 1766.00
1495, 1766.00
1496, 1767.00
1497, 1769.00
1498, 1770.00
1499, 1771.00
1500, 1773.00
1501, 1773.00
1502, 1775.00
1503, 1775.00
1504, 1777.00
1505, 1778.00
1506, 1778.00
1507, 1779.00
1508, 1781.00
1509, 1783.00
1510, 1783.00
1511, 1785.00
1512, 1787.00
1513, 1787.00
1514, 1788.00
1515, 1788.00
1516, 1790.00
1517, 1792.00
1518, 1793.00
1519, 1794.00
1520, 1796.00
1521, 1797.00
1522, 1797.00
1523, 1800.00
1524, 1800.00
1525, 1802.00
1526, 1802.00
1527, 1804.00
1528, 1806.00
1529, 1808.00
1530, 1809.00
1531, 1809.00
1532, 1810.00
1533, 1812.00
1534, 1813.00
1535, 1813.00
1536, 1815.00
1537, 1816.00
1538, 1818.00
1539, 1819.00
1540, 1821.00
1541, 1821.00
1542, 1824.00
1543, 1823.00
1544, 1826.00
1545, 1827.00
1546, 1828.00
1547, 1829.00
1548, 1831.00
1549, 1831.00
1550, 1833.00
1551, 1834.00
1552, 1836.00
1553, 1836.00
1554, 1837.00
1555, 1839.00
1556, 1841.00
1557, 1842.00
1558, 1844.00
1559, 1845.00
1560, 1846.00
1561, 1849.00
1562, 1850.00
1563, 1851.00
1564, 1852.00
1565, 1854.00
1566, 1856.00
1567, 1857.00
1568, 1859.00
1569, 1859.00
1570, 1862.00
1571, 1863.00
1572, 1864.00
1573, 1866.00
1574, 1867.00
1575, 1869.00
1576, 1870.00
1577, 1871.00
1578, 1873.00
1579, 1874.00
1580, 1875.00
1581, 1876.00
1582, 1878.00
1583, 1879.00
1584, 1879.00
1585, 1882.00
1586, 1883.00
1587, 1884.00
1588, 1886.00
1589, 1886.00
1590, 1887.00
1591, 1889.00
1592, 1891.00
1593, 1892.00
1594, 1893.00
1595, 1894.00
1596, 1896.00
1597, 1897.00
1598, 1899.00
1599, 1901.00
1600, 1900.00
1601, 1903.00
1602, 1903.00
1603, 1905.00
1604, 1908.00
1605, 1909.00
1606, 1909.00
1607, 1911.00
1608, 1913.00
1609, 1914.00
1610, 1916.00
1611, 1917.00
1612, 1918.00
1613, 1920.00
1614, 1922.00
1615, 1924.00
1616, 1925.00
1617, 1927.00
1618, 1929.00
1619, 1930.00
1620, 1932.00
1621, 1934.00
1622, 1936.00
1623, 1937.00
1624, 1938.00
1625, 1939.00
1626, 1941.00
1627, 1943.00
1628, 1944.00
1629, 1946.00
1630, 1947.00
1631, 1949.00
1632, 1951.00
1633, 1953.00
1634, 1953.00
1635, 1955.00
1636, 1957.00
1637, 1957.00
1638, 1960.00
1639, 1960.00
1640, 1961.00
1641, 1965.00
1642, 1964.00
1643, 1966.00
1644, 1968.00
1645, 1968.00
1646, 1970.00
1647, 1972.00
1648, 1972.00
1649, 1974.00
1650, 1975.00

1750, 2423.00
1751, 2424.00
1752, 2426.00
1753, 2426.00
1754, 2425.00
1755, 2425.00
1756, 2426.00
1757, 2425.00
1758, 2425.00
1759, 2423.00
1760, 2423.00
1761, 2424.00
1762, 2423.00
1763, 2423.00
1764, 2424.00
1765, 2425.00
1766, 2424.00
1767, 2424.00
1768, 2423.00
1769, 2424.00
1770, 2423.00
1771, 2424.00
1772, 2421.00
1773, 2421.00
1774, 2421.00
1775, 2420.00
1776, 2422.00
1777, 2421.00
1778, 2420.00
1779, 2419.00
1780, 2419.00
1781, 2419.00
1782, 2419.00
1783, 2418.00
1784, 2418.00
1785, 2418.00
1786, 2416.00
1787, 2416.00
1788, 2417.00
1789, 2414.00
1790, 2414.00
1791, 2413.00
1792, 2415.00
1793, 2412.00
1794, 2412.00
1795, 2412.00
1796, 2411.00
1797, 2409.00
1798, 2410.00
1799, 2409.00
1800, 2409.00
1801, 2407.00
1802, 2409.00
1803, 2408.00
1804, 2407.00
1805, 2407.00
1806, 2405.00
1807, 2406.00
1808, 2404.00
1809, 2404.00
1810, 2402.00
1811, 2403.00
1812, 2401.00
1813, 2403.00
1814, 2402.00
1815, 2400.00
1816, 2400.00
1817, 2398.00
1818, 2399.00
1819, 2397.00
1820, 2398.00
1821, 2397.00
1822, 2396.00
1823, 2394.00
1824, 2392.00
1825, 2392.00
1826, 2391.00
1827, 2390.00
1828, 2389.00
1829, 2387.00
1830, 2385.00
1831, 2385.00
1832, 2384.00
1833, 2382.00
1834, 2381.00
1835, 2379.00
1836, 2376.00
1837, 2373.00
1838, 2374.00
1839, 2371.00
1840, 2370.00
1841, 2368.00
1842, 2365.00
1843, 2362.00
1844, 2360.00
1845, 2357.00
1846, 2355.00
1847, 2354.00
1848, 2353.00
1849, 2349.00
1850, 2346.00
1851, 2343.00
1852, 2343.00
1853, 2338.00
1854, 2334.00
1855, 2332.00
1856, 2330.00
1857, 2329.00
1858, 2326.00
1859, 2324.00
1860, 2322.00
1861, 2319.00
1862, 2317.00
1863, 2314.00
1864, 2314.00
1865, 2311.00
1866, 2310.00
1867, 2307.00
1868, 2305.00
1869, 2303.00
1870, 2302.00
1871, 2300.00
1872, 2298.00
1873, 2297.00
1874, 2296.00
1875, 2294.00
1876, 2292.00
1877, 2292.00
1878, 2290.00
1879, 2290.00
1880, 2288.00
1881, 2288.00
1882, 2287.00
1883, 2286.00
1884, 2286.00
1885, 2284.00
1886, 2283.00
1887, 2283.00
1888, 2282.00
1889, 2282.00
1890, 2281.00
1891, 2280.00
1892, 2282.00
1893, 2279.00
1894, 2277.00
1895, 2277.00
1896, 2278.00
1897, 2279.00
1898, 2278.00
1899, 2275.00
1900, 2275.00
1901, 2276.00
1902, 2276.00
1903, 2273.00
1904, 2276.00
1905, 2274.00
1906, 2275.00
1907, 2273.00
1908, 2275.00
1909, 2273.00
1910, 2272.00
1911, 2272.00
1912, 2271.00
1913, 2271.00
1914, 2272.00
1915, 2272.00
1916, 2271.00
1917, 2270.00
1918, 2272.00
1919, 2269.00
1920, 2270.00
1921, 2270.00
1922, 2270.00
1923, 2270.00
1924, 2270.00
1925, 2271.00
1926, 2268.00
1927, 2269.00
1928, 2270.00
1929, 2269.00
1930, 2269.00
1931, 2270.00
1932, 2269.00
1933, 2271.00
1934, 2269.00
1935, 2270.00
1936, 2271.00
1937, 2270.00
1938, 2271.00
1939, 2271.00
1940, 2270.00
1941, 2271.00
1942, 2270.00
1943, 2270.00
1944, 2269.00
1945, 2272.00
1946, 2272.00
1947, 2270.00
1948, 2271.00
1949, 2273.00
1950, 2274.00
1951, 2273.00
1952, 2272.00
1953, 2273.00
1954, 2273.00
1955, 2273.00
1956, 2273.00
1957, 2276.00
1958, 2276.00
1959, 2276.00
1960, 2276.00
1961, 2274.00
1962, 2276.00
1963, 2275.00
1964, 2278.00
1965, 2277.00
1966, 2279.00
1967, 2278.00
1968, 2279.00
1969, 2278.00
1970, 2278.00
1971, 2281.00
1972, 2280.00
1973, 2279.00
1974, 2280.00
1975, 2281.00
1976, 2282.00
1977, 2283.00
1978, 2283.00
1979, 2285.00
1980, 2284.00
1981, 2285.00
1982, 2284.00
1983, 2285.00
1984, 2288.00
1985, 2287.00
1986, 2288.00
1987, 2289.00
1988, 2289.00
1989, 2288.00
1990, 2289.00
1991, 2289.00
1992, 2291.00
1993, 2292.00
1994, 2292.00
1995, 2292.00
1996, 2292.00
1997, 2293.00
1998, 2295.00
1999, 2294.00
2000, 2293.00
2001, 2293.00
2002, 2296.00
2003, 2295.00
2004, 2297.00
2005, 2296.00
2006, 2299.00
2007, 2298.00
2008, 2298.00
2009, 2298.00
2010, 2300.00
2011, 2299.00
2012, 2299.00
2013, 2302.00
2014, 2300.00
2015, 2302.00
2016, 2303.00
2017, 2304.00
2018, 2305.00
2019, 2305.00
2020, 2305.00
2021, 2305.00
2022, 2306.00
2023, 2307.00
2024, 2308.00
2025, 2308.00
2026, 2309.00
2027, 2310.00
2028, 2309.00
2029, 2311.00
2030, 2311.00
2031, 2311.00
2032, 2313.00
2033, 2313.00
2034, 2313.00
2035, 2313.00
2036, 2315.00
2037, 2315.00
2038, 2317.00
2039, 2317.00
2040, 2317.00
2041, 2317.00
2042, 2319.00
2043, 2320.00
2044, 2320.00
2045, 2320.00
2046, 2322.00
2047, 2323.00
2048, 2323.00
2049, 2325.00
2050, 2325.00
2051, 2325.00
2052, 2326.00
2053, 2328.00
2054, 2328.00
2055, 2329.00
2056, 2329.00
2057, 2330.00
2058, 2330.00
2059, 2332.00
2060, 2333.00
2061, 2335.00
2062, 2334.00
2063, 2336.00
2064, 2337.00
2065, 2338.00
2066, 2338.00
2067, 2337.00
2068, 2341.00
2069, 2340.00
2070, 2341.00
2071, 2343.00
2072, 2343.00
2073, 2344.00
2074, 2344.00
2075, 2346.00
2076, 2346.00
2077, 2349.00
2078, 2348.00
2079, 2347.00
2080, 2350.00
2081, 2349.00
2082, 2350.00
2083, 2350.00
2084, 2352.00
2085, 2353.00
2086, 2355.00
2087, 2354.00
2088, 2356.00
2089, 2356.00
2090, 2356.00
2091, 2357.00
2092, 2357.00
2093, 2358.00
2094, 2359.00
2095, 2360.00
2096, 2362.00
2097, 2360.00
2098, 2362.00
2099, 2363.00
2100, 2361.00
2101, 2362.00
2102, 2364.00
2103, 2362.00
2104, 2363.00
2105, 2363.00
2106, 2365.00
2107, 2366.00
2108, 2367.00
2109, 2367.00
2110, 2366.00
2111, 2368.00
2112, 2368.00
2113, 2367.00
2114, 2368.00
2115, 2368.00
2116, 2368.00
2117, 2368.00
2118, 2368.00
2119, 2373.00
2120, 2371.00
2121, 2370.00
2122, 2370.00
2123, 2370.00
2124, 2371.00
2125, 2370.00
2126, 2372.00
2127, 2372.00
2128, 2372.00
2129, 2373.00
2130, 2373.00
2131, 2373.00
2132, 2375.00
2133, 2373.00
2134, 2374.00
2135, 2375.00
2136, 2377.00
2137, 2375.00
2138, 2376.00
2139, 2376.00
2140, 2375.00
2141, 2376.00
2142, 2376.00
2143, 2378.00
2144, 2377.00
2145, 2378.00
2146, 2378.00
2147, 2376.00
2148, 2378.00
2149, 2377.00
2150, 2377.00
