FW version: 24
Log Version: 3.0.3

General Info:
       Command/Macro Performed,            Timestamp,             Device ID, COM Port, UART/I2C, Test Name, Host Major, Host Minor, Host Revision, Host Git Commit
            Single_measurement,  2023_07_04_10_35_03,       Insight2_F4_xxx,    USB-C,      USB,          ,          0,          1,             1,      4031237645

Show Spectrometer Status:
l0_version, f4_version, battery_perc, battery_mVolt, accelerometer_temp, accelerometer_x, accelerometer_y, accelerometer_z, compass_temp, compass_x, compass_y, compass_z, lamp_0, lamp_1, gain_0, gain_1
        17,         24,            0,          1704,               4640,           64844,            1608,           18936,            0,     65406,     65390,     18941,   2866,   2866,      1,      1

Temperature Statistic Info:
NTC AVG [°C], NTC2 AVG [°C]
      30.987,        30.632

Statistic Info:
M1:  num,      min,      max,   median,      AVG,      STD,M2:  num,      min,      max,   median,      AVG,      STD
     301,  1340.00,  1546.00,  1382.00,  1407.81,  63.1797,     401,  1829.00,  1955.00,  1880.00,  1884.02,  41.5100,

Measurements:
Wavelength, Data Amplitude
1350, 1379.00
1351, 1378.00
1352, 1377.00
1353, 1377.00
1354, 1376.00
1355, 1375.00
1356, 1375.00
1357, 1374.00
1358, 1374.00
1359, 1373.00
1360, 1373.00
1361, 1372.00
1362, 1371.00
1363, 1369.00
1364, 1368.00
1365, 1367.00
1366, 1367.00
1367, 1367.00
1368, 1365.00
1369, 1365.00
1370, 1364.00
1371, 1362.00
1372, 1361.00
1373, 1360.00
1374, 1360.00
1375, 1358.00
1376, 1358.00
1377, 1356.00
1378, 1355.00
1379, 1356.00
1380, 1354.00
1381, 1353.00
1382, 1352.00
1383, 1352.00
1384, 1351.00
1385, 1350.00
1386, 1350.00
1387, 1349.00
1388, 1349.00
1389, 1348.00
1390, 1347.00
1391, 1347.00
1392, 1347.00
1393, 1346.00
1394, 1346.00
1395, 1345.00
1396, 1346.00
1397, 1345.00
1398, 1345.00
1399, 1343.00
1400, 1344.00
1401, 1344.00
1402, 1344.00
1403, 1344.00
1404, 1343.00
1405, 1343.00
1406, 1344.00
1407, 1342.00
1408, 1342.00
1409, 1344.00
1410, 1342.00
1411, 1341.00
1412, 1342.00
1413, 1342.00
1414, 1342.00
1415, 1342.00
1416, 1341.00
1417, 1342.00
1418, 1341.00
1419, 1340.00
1420, 1342.00
1421, 1342.00
1422, 1341.00
1423, 1342.00
1424, 1342.00
1425, 1342.00
1426, 1340.00
1427, 1342.00
1428, 1343.00
1429, 1342.00
1430, 1343.00
1431, 1341.00
1432, 1343.00
1433, 1343.00
1434, 1343.00
1435, 1343.00
1436, 1342.00
1437, 1343.00
1438, 1344.00
1439, 1345.00
1440, 1344.00
1441, 1345.00
1442, 1345.00
1443, 1345.00
1444, 1346.00
1445, 1345.00
1446, 1347.00
1447, 1347.00
1448, 1347.00
1449, 1348.00
1450, 1348.00
1451, 1348.00
1452, 1349.00
1453, 1349.00
1454, 1349.00
1455, 1350.00
1456, 1351.00
1457, 1350.00
1458, 1351.00
1459, 1351.00
1460, 1352.00
1461, 1353.00
1462, 1353.00
1463, 1354.00
1464, 1354.00
1465, 1355.00
1466, 1355.00
1467, 1356.00
1468, 1357.00
1469, 1358.00
1470, 1357.00
1471, 1359.00
1472, 1358.00
1473, 1360.00
1474, 1360.00
1475, 1361.00
1476, 1363.00
1477, 1363.00
1478, 1364.00
1479, 1365.00
1480, 1365.00
1481, 1366.00
1482, 1367.00
1483, 1367.00
1484, 1368.00
1485, 1369.00
1486, 1371.00
1487, 1371.00
1488, 1373.00
1489, 1373.00
1490, 1373.00
1491, 1375.00
1492, 1375.00
1493, 1376.00
1494, 1377.00
1495, 1378.00
1496, 1379.00
1497, 1380.00
1498, 1380.00
1499, 1381.00
1500, 1382.00
1501, 1383.00
1502, 1385.00
1503, 1385.00
1504, 1386.00
1505, 1387.00
1506, 1387.00
1507, 1389.00
1508, 1390.00
1509, 1391.00
1510, 1391.00
1511, 1393.00
1512, 1393.00
1513, 1395.00
1514, 1395.00
1515, 1396.00
1516, 1398.00
1517, 1398.00
1518, 1400.00
1519, 1401.00
1520, 1401.00
1521, 1403.00
1522, 1403.00
1523, 1403.00
1524, 1405.00
1525, 1406.00
1526, 1407.00
1527, 1409.00
1528, 1410.00
1529, 1409.00
1530, 1412.00
1531, 1413.00
1532, 1413.00
1533, 1415.00
1534, 1415.00
1535, 1416.00
1536, 1417.00
1537, 1417.00
1538, 1419.00
1539, 1420.00
1540, 1421.00
1541, 1421.00
1542, 1423.00
1543, 1424.00
1544, 1425.00
1545, 1425.00
1546, 1426.00
1547, 1428.00
1548, 1429.00
1549, 1431.00
1550, 1432.00
1551, 1433.00
1552, 1433.00
1553, 1435.00
1554, 1435.00
1555, 1436.00
1556, 1437.00
1557, 1438.00
1558, 1440.00
1559, 1440.00
1560, 1442.00
1561, 1443.00
1562, 1444.00
1563, 1444.00
1564, 1447.00
1565, 1447.00
1566, 1448.00
1567, 1449.00
1568, 1450.00
1569, 1452.00
1570, 1453.00
1571, 1454.00
1572, 1456.00
1573, 1456.00
1574, 1457.00
1575, 1459.00
1576, 1460.00
1577, 1461.00
1578, 1462.00
1579, 1463.00
1580, 1465.00
1581, 1465.00
1582, 1466.00
1583, 1467.00
1584, 1468.00
1585, 1470.00
1586, 1470.00
1587, 1471.00
1588, 1472.00
1589, 1474.00
1590, 1475.00
1591, 1476.00
1592, 1476.00
1593, 1477.00
1594, 1478.00
1595, 1480.00
1596, 1480.00
1597, 1481.00
1598, 1482.00
1599, 1484.00
1600, 1485.00
1601, 1486.00
1602, 1487.00
1603, 1487.00
1604, 1489.00
1605, 1491.00
1606, 1492.00
1607, 1494.00
1608, 1493.00
1609, 1496.00
1610, 1497.00
1611, 1498.00
1612, 1499.00
1613, 1501.00
1614, 1502.00
1615, 1504.00
1616, 1504.00
1617, 1506.00
1618, 1508.00
1619, 1509.00
1620, 1510.00
1621, 1511.00
1622, 1513.00
1623, 1514.00
1624, 1515.00
1625, 1517.00
1626, 1518.00
1627, 1519.00
1628, 1521.00
1629, 1522.00
1630, 1523.00
1631, 1524.00
1632, 1525.00
1633, 1526.00
1634, 1528.00
1635, 1529.00
1636, 1530.00
1637, 1531.00
1638, 1533.00
1639, 1533.00
1640, 1534.00
1641, 1536.00
1642, 1536.00
1643, 1538.00
1644, 1538.00
1645, 1540.00
1646, 1541.00
1647, 1542.00
1648, 1543.00
1649, 1544.00
1650, 1546.00

1750, 1954.00
1751, 1953.00
1752, 1955.00
1753, 1955.00
1754, 1954.00
1755, 1954.00
1756, 1955.00
1757, 1954.00
1758, 1955.00
1759, 1955.00
1760, 1955.00
1761, 1955.00
1762, 1954.00
1763, 1954.00
1764, 1953.00
1765, 1955.00
1766, 1955.00
1767, 1955.00
1768, 1952.00
1769, 1954.00
1770, 1954.00
1771, 1953.00
1772, 1953.00
1773, 1953.00
1774, 1952.00
1775, 1953.00
1776, 1953.00
1777, 1951.00
1778, 1950.00
1779, 1950.00
1780, 1951.00
1781, 1951.00
1782, 1949.00
1783, 1950.00
1784, 1949.00
1785, 1949.00
1786, 1947.00
1787, 1947.00
1788, 1948.00
1789, 1947.00
1790, 1947.00
1791, 1946.00
1792, 1946.00
1793, 1947.00
1794, 1943.00
1795, 1945.00
1796, 1944.00
1797, 1945.00
1798, 1943.00
1799, 1943.00
1800, 1942.00
1801, 1942.00
1802, 1941.00
1803, 1942.00
1804, 1941.00
1805, 1939.00
1806, 1940.00
1807, 1940.00
1808, 1939.00
1809, 1938.00
1810, 1937.00
1811, 1939.00
1812, 1938.00
1813, 1937.00
1814, 1934.00
1815, 1936.00
1816, 1936.00
1817, 1933.00
1818, 1934.00
1819, 1935.00
1820, 1932.00
1821, 1932.00
1822, 1931.00
1823, 1930.00
1824, 1929.00
1825, 1929.00
1826, 1927.00
1827, 1928.00
1828, 1927.00
1829, 1925.00
1830, 1924.00
1831, 1923.00
1832, 1923.00
1833, 1920.00
1834, 1920.00
1835, 1919.00
1836, 1916.00
1837, 1916.00
1838, 1915.00
1839, 1912.00
1840, 1911.00
1841, 1910.00
1842, 1907.00
1843, 1905.00
1844, 1903.00
1845, 1900.00
1846, 1900.00
1847, 1899.00
1848, 1897.00
1849, 1893.00
1850, 1891.00
1851, 1890.00
1852, 1888.00
1853, 1886.00
1854, 1886.00
1855, 1881.00
1856, 1879.00
1857, 1878.00
1858, 1875.00
1859, 1873.00
1860, 1874.00
1861, 1871.00
1862, 1869.00
1863, 1865.00
1864, 1865.00
1865, 1864.00
1866, 1861.00
1867, 1859.00
1868, 1859.00
1869, 1857.00
1870, 1855.00
1871, 1855.00
1872, 1854.00
1873, 1853.00
1874, 1853.00
1875, 1850.00
1876, 1848.00
1877, 1848.00
1878, 1848.00
1879, 1847.00
1880, 1845.00
1881, 1845.00
1882, 1845.00
1883, 1846.00
1884, 1843.00
1885, 1842.00
1886, 1841.00
1887, 1842.00
1888, 1840.00
1889, 1838.00
1890, 1839.00
1891, 1837.00
1892, 1838.00
1893, 1837.00
1894, 1837.00
1895, 1836.00
1896, 1837.00
1897, 1835.00
1898, 1835.00
1899, 1836.00
1900, 1836.00
1901, 1834.00
1902, 1835.00
1903, 1834.00
1904, 1834.00
1905, 1835.00
1906, 1833.00
1907, 1833.00
1908, 1832.00
1909, 1833.00
1910, 1831.00
1911, 1832.00
1912, 1833.00
1913, 1833.00
1914, 1832.00
1915, 1831.00
1916, 1831.00
1917, 1831.00
1918, 1832.00
1919, 1832.00
1920, 1832.00
1921, 1831.00
1922, 1830.00
1923, 1832.00
1924, 1831.00
1925, 1831.00
1926, 1829.00
1927, 1829.00
1928, 1830.00
1929, 1829.00
1930, 1830.00
1931, 1831.00
1932, 1831.00
1933, 1830.00
1934, 1829.00
1935, 1830.00
1936, 1830.00
1937, 1831.00
1938, 1830.00
1939, 1830.00
1940, 1831.00
1941, 1831.00
1942, 1831.00
1943, 1833.00
1944, 1831.00
1945, 1832.00
1946, 1831.00
1947, 1832.00
1948, 1831.00
1949, 1833.00
1950, 1833.00
1951, 1832.00
1952, 1833.00
1953, 1833.00
1954, 1833.00
1955, 1835.00
1956, 1834.00
1957, 1835.00
1958, 1834.00
1959, 1834.00
1960, 1835.00
1961, 1835.00
1962, 1834.00
1963, 1837.00
1964, 1836.00
1965, 1838.00
1966, 1836.00
1967, 1836.00
1968, 1839.00
1969, 1839.00
1970, 1839.00
1971, 1840.00
1972, 1840.00
1973, 1838.00
1974, 1840.00
1975, 1840.00
1976, 1840.00
1977, 1841.00
1978, 1840.00
1979, 1841.00
1980, 1842.00
1981, 1843.00
1982, 1844.00
1983, 1845.00
1984, 1844.00
1985, 1846.00
1986, 1844.00
1987, 1844.00
1988, 1846.00
1989, 1847.00
1990, 1846.00
1991, 1848.00
1992, 1848.00
1993, 1848.00
1994, 1847.00
1995, 1848.00
1996, 1849.00
1997, 1849.00
1998, 1851.00
1999, 1851.00
2000, 1850.00
2001, 1851.00
2002, 1849.00
2003, 1851.00
2004, 1853.00
2005, 1852.00
2006, 1853.00
2007, 1854.00
2008, 1855.00
2009, 1853.00
2010, 1854.00
2011, 1856.00
2012, 1856.00
2013, 1857.00
2014, 1855.00
2015, 1855.00
2016, 1858.00
2017, 1859.00
2018, 1858.00
2019, 1860.00
2020, 1859.00
2021, 1859.00
2022, 1860.00
2023, 1860.00
2024, 1862.00
2025, 1862.00
2026, 1861.00
2027, 1862.00
2028, 1864.00
2029, 1862.00
2030, 1864.00
2031, 1864.00
2032, 1864.00
2033, 1866.00
2034, 1866.00
2035, 1869.00
2036, 1867.00
2037, 1867.00
2038, 1867.00
2039, 1870.00
2040, 1870.00
2041, 1870.00
2042, 1871.00
2043, 1871.00
2044, 1871.00
2045, 1873.00
2046, 1873.00
2047, 1874.00
2048, 1873.00
2049, 1876.00
2050, 1875.00
2051, 1876.00
2052, 1877.00
2053, 1877.00
2054, 1878.00
2055, 1878.00
2056, 1881.00
2057, 1880.00
2058, 1882.00
2059, 1882.00
2060, 1883.00
2061, 1884.00
2062, 1884.00
2063, 1885.00
2064, 1885.00
2065, 1885.00
2066, 1887.00
2067, 1887.00
2068, 1888.00
2069, 1889.00
2070, 1890.00
2071, 1891.00
2072, 1891.00
2073, 1891.00
2074, 1891.00
2075, 1893.00
2076, 1894.00
2077, 1892.00
2078, 1895.00
2079, 1896.00
2080, 1895.00
2081, 1897.00
2082, 1899.00
2083, 1898.00
2084, 1897.00
2085, 1897.00
2086, 1901.00
2087, 1899.00
2088, 1901.00
2089, 1902.00
2090, 1901.00
2091, 1903.00
2092, 1902.00
2093, 1904.00
2094, 1903.00
2095, 1903.00
2096, 1906.00
2097, 1906.00
2098, 1905.00
2099, 1906.00
2100, 1907.00
2101, 1907.00
2102, 1907.00
2103, 1908.00
2104, 1909.00
2105, 1908.00
2106, 1910.00
2107, 1909.00
2108, 1908.00
2109, 1911.00
2110, 1911.00
2111, 1911.00
2112, 1911.00
2113, 1911.00
2114, 1912.00
2115, 1912.00
2116, 1912.00
2117, 1913.00
2118, 1912.00
2119, 1913.00
2120, 1913.00
2121, 1915.00
2122, 1913.00
2123, 1915.00
2124, 1914.00
2125, 1915.00
2126, 1914.00
2127, 1914.00
2128, 1915.00
2129, 1916.00
2130, 1916.00
2131, 1916.00
2132, 1916.00
2133, 1915.00
2134, 1916.00
2135, 1918.00
2136, 1917.00
2137, 1917.00
2138, 1918.00
2139, 1919.00
2140, 1918.00
2141, 1918.00
2142, 1918.00
2143, 1918.00
2144, 1919.00
2145, 1919.00
2146, 1919.00
2147, 1918.00
2148, 1919.00
2149, 1918.00
2150, 1918.00
