FW version: 24
Log Version: 3.0.3

General Info:
       Command/Macro Performed,            Timestamp,             Device ID, COM Port, UART/I2C, Test Name, Host Major, Host Minor, Host Revision, Host Git Commit
            Single_measurement,  2023_07_04_10_34_04,       Insight2_F4_xxx,    USB-C,      USB,          ,          0,          1,             1,      4031237645

Show Spectrometer Status:
l0_version, f4_version, battery_perc, battery_mVolt, accelerometer_temp, accelerometer_x, accelerometer_y, accelerometer_z, compass_temp, compass_x, compass_y, compass_z, lamp_0, lamp_1, gain_0, gain_1
        17,         24,            0,          1713,               4528,           64868,            1552,           18848,            0,     65396,     65405,     18917,   3276,   3276,      0,      0

Temperature Statistic Info:
NTC AVG [°C], NTC2 AVG [°C]
      29.937,        29.582

Statistic Info:
M1:  num,      min,      max,   median,      AVG,      STD,M2:  num,      min,      max,   median,      AVG,      STD
     301,   596.00,   683.00,   613.00,   624.74,  27.0754,     401,   785.00,   840.00,   807.00,   808.70,  17.8618,

Measurements:
Wavelength, Data Amplitude
1350, 613.00
1351, 613.00
1352, 613.00
1353, 613.00
1354, 612.00
1355, 612.00
1356, 612.00
1357, 612.00
1358, 611.00
1359, 611.00
1360, 611.00
1361, 610.00
1362, 610.00
1363, 609.00
1364, 609.00
1365, 609.00
1366, 608.00
1367, 608.00
1368, 608.00
1369, 607.00
1370, 607.00
1371, 607.00
1372, 606.00
1373, 605.00
1374, 605.00
1375, 604.00
1376, 604.00
1377, 603.00
1378, 603.00
1379, 603.00
1380, 602.00
1381, 602.00
1382, 602.00
1383, 601.00
1384, 601.00
1385, 600.00
1386, 600.00
1387, 600.00
1388, 600.00
1389, 600.00
1390, 599.00
1391, 599.00
1392, 599.00
1393, 599.00
1394, 598.00
1395, 599.00
1396, 598.00
1397, 598.00
1398, 598.00
1399, 597.00
1400, 598.00
1401, 598.00
1402, 597.00
1403, 597.00
1404, 598.00
1405, 597.00
1406, 597.00
1407, 597.00
1408, 596.00
1409, 597.00
1410, 597.00
1411, 597.00
1412, 597.00
1413, 597.00
1414, 597.00
1415, 596.00
1416, 596.00
1417, 596.00
1418, 596.00
1419, 596.00
1420, 596.00
1421, 596.00
1422, 596.00
1423, 597.00
1424, 596.00
1425, 596.00
1426, 596.00
1427, 596.00
1428, 596.00
1429, 597.00
1430, 597.00
1431, 596.00
1432, 597.00
1433, 597.00
1434, 597.00
1435, 597.00
1436, 597.00
1437, 597.00
1438, 598.00
1439, 597.00
1440, 597.00
1441, 597.00
1442, 597.00
1443, 598.00
1444, 598.00
1445, 598.00
1446, 598.00
1447, 598.00
1448, 598.00
1449, 599.00
1450, 599.00
1451, 599.00
1452, 599.00
1453, 599.00
1454, 599.00
1455, 600.00
1456, 600.00
1457, 600.00
1458, 600.00
1459, 600.00
1460, 600.00
1461, 601.00
1462, 601.00
1463, 601.00
1464, 601.00
1465, 602.00
1466, 602.00
1467, 603.00
1468, 602.00
1469, 603.00
1470, 603.00
1471, 603.00
1472, 604.00
1473, 604.00
1474, 604.00
1475, 604.00
1476, 605.00
1477, 605.00
1478, 605.00
1479, 606.00
1480, 606.00
1481, 606.00
1482, 607.00
1483, 607.00
1484, 608.00
1485, 608.00
1486, 608.00
1487, 609.00
1488, 609.00
1489, 609.00
1490, 609.00
1491, 610.00
1492, 610.00
1493, 611.00
1494, 611.00
1495, 611.00
1496, 611.00
1497, 612.00
1498, 613.00
1499, 613.00
1500, 613.00
1501, 614.00
1502, 614.00
1503, 615.00
1504, 615.00
1505, 616.00
1506, 616.00
1507, 616.00
1508, 617.00
1509, 617.00
1510, 617.00
1511, 618.00
1512, 618.00
1513, 618.00
1514, 619.00
1515, 619.00
1516, 620.00
1517, 620.00
1518, 621.00
1519, 621.00
1520, 621.00
1521, 622.00
1522, 622.00
1523, 623.00
1524, 623.00
1525, 624.00
1526, 624.00
1527, 624.00
1528, 625.00
1529, 625.00
1530, 626.00
1531, 627.00
1532, 627.00
1533, 627.00
1534, 628.00
1535, 628.00
1536, 628.00
1537, 629.00
1538, 630.00
1539, 630.00
1540, 631.00
1541, 631.00
1542, 631.00
1543, 632.00
1544, 632.00
1545, 632.00
1546, 632.00
1547, 633.00
1548, 633.00
1549, 634.00
1550, 635.00
1551, 635.00
1552, 635.00
1553, 636.00
1554, 636.00
1555, 636.00
1556, 637.00
1557, 638.00
1558, 639.00
1559, 639.00
1560, 639.00
1561, 640.00
1562, 640.00
1563, 641.00
1564, 641.00
1565, 641.00
1566, 642.00
1567, 643.00
1568, 643.00
1569, 644.00
1570, 644.00
1571, 644.00
1572, 645.00
1573, 645.00
1574, 646.00
1575, 647.00
1576, 647.00
1577, 647.00
1578, 648.00
1579, 648.00
1580, 649.00
1581, 649.00
1582, 650.00
1583, 650.00
1584, 651.00
1585, 651.00
1586, 651.00
1587, 652.00
1588, 653.00
1589, 653.00
1590, 654.00
1591, 654.00
1592, 654.00
1593, 655.00
1594, 655.00
1595, 656.00
1596, 656.00
1597, 657.00
1598, 657.00
1599, 657.00
1600, 658.00
1601, 658.00
1602, 659.00
1603, 660.00
1604, 660.00
1605, 660.00
1606, 660.00
1607, 661.00
1608, 662.00
1609, 662.00
1610, 663.00
1611, 664.00
1612, 664.00
1613, 664.00
1614, 665.00
1615, 666.00
1616, 666.00
1617, 667.00
1618, 667.00
1619, 668.00
1620, 669.00
1621, 669.00
1622, 669.00
1623, 670.00
1624, 671.00
1625, 672.00
1626, 672.00
1627, 673.00
1628, 673.00
1629, 674.00
1630, 674.00
1631, 674.00
1632, 676.00
1633, 676.00
1634, 676.00
1635, 677.00
1636, 677.00
1637, 678.00
1638, 678.00
1639, 679.00
1640, 679.00
1641, 679.00
1642, 680.00
1643, 680.00
1644, 681.00
1645, 682.00
1646, 682.00
1647, 682.00
1648, 683.00
1649, 683.00
1650, 683.00

1750, 840.00
1751, 839.00
1752, 839.00
1753, 839.00
1754, 839.00
1755, 840.00
1756, 840.00
1757, 839.00
1758, 840.00
1759, 839.00
1760, 839.00
1761, 840.00
1762, 839.00
1763, 840.00
1764, 839.00
1765, 839.00
1766, 840.00
1767, 839.00
1768, 840.00
1769, 839.00
1770, 839.00
1771, 839.00
1772, 839.00
1773, 839.00
1774, 838.00
1775, 839.00
1776, 838.00
1777, 839.00
1778, 838.00
1779, 838.00
1780, 838.00
1781, 838.00
1782, 838.00
1783, 837.00
1784, 837.00
1785, 837.00
1786, 837.00
1787, 837.00
1788, 836.00
1789, 836.00
1790, 836.00
1791, 835.00
1792, 835.00
1793, 836.00
1794, 836.00
1795, 836.00
1796, 835.00
1797, 834.00
1798, 834.00
1799, 834.00
1800, 834.00
1801, 834.00
1802, 834.00
1803, 833.00
1804, 834.00
1805, 834.00
1806, 833.00
1807, 833.00
1808, 833.00
1809, 833.00
1810, 833.00
1811, 832.00
1812, 832.00
1813, 832.00
1814, 832.00
1815, 831.00
1816, 831.00
1817, 831.00
1818, 831.00
1819, 830.00
1820, 830.00
1821, 830.00
1822, 829.00
1823, 830.00
1824, 829.00
1825, 829.00
1826, 828.00
1827, 828.00
1828, 827.00
1829, 827.00
1830, 827.00
1831, 826.00
1832, 825.00
1833, 825.00
1834, 824.00
1835, 824.00
1836, 823.00
1837, 823.00
1838, 822.00
1839, 822.00
1840, 821.00
1841, 820.00
1842, 819.00
1843, 818.00
1844, 817.00
1845, 817.00
1846, 816.00
1847, 815.00
1848, 814.00
1849, 813.00
1850, 813.00
1851, 811.00
1852, 811.00
1853, 810.00
1854, 809.00
1855, 808.00
1856, 807.00
1857, 807.00
1858, 806.00
1859, 805.00
1860, 805.00
1861, 803.00
1862, 802.00
1863, 802.00
1864, 801.00
1865, 801.00
1866, 800.00
1867, 798.00
1868, 799.00
1869, 798.00
1870, 797.00
1871, 796.00
1872, 796.00
1873, 796.00
1874, 795.00
1875, 795.00
1876, 794.00
1877, 794.00
1878, 793.00
1879, 793.00
1880, 792.00
1881, 792.00
1882, 792.00
1883, 791.00
1884, 791.00
1885, 792.00
1886, 791.00
1887, 790.00
1888, 791.00
1889, 790.00
1890, 790.00
1891, 790.00
1892, 790.00
1893, 789.00
1894, 789.00
1895, 789.00
1896, 788.00
1897, 789.00
1898, 788.00
1899, 789.00
1900, 788.00
1901, 787.00
1902, 788.00
1903, 788.00
1904, 788.00
1905, 787.00
1906, 787.00
1907, 788.00
1908, 787.00
1909, 787.00
1910, 787.00
1911, 787.00
1912, 787.00
1913, 786.00
1914, 786.00
1915, 786.00
1916, 786.00
1917, 787.00
1918, 786.00
1919, 787.00
1920, 787.00
1921, 786.00
1922, 786.00
1923, 786.00
1924, 786.00
1925, 785.00
1926, 786.00
1927, 785.00
1928, 786.00
1929, 786.00
1930, 785.00
1931, 786.00
1932, 786.00
1933, 786.00
1934, 785.00
1935, 786.00
1936, 786.00
1937, 785.00
1938, 786.00
1939, 786.00
1940, 786.00
1941, 786.00
1942, 786.00
1943, 786.00
1944, 787.00
1945, 786.00
1946, 786.00
1947, 787.00
1948, 786.00
1949, 787.00
1950, 786.00
1951, 787.00
1952, 787.00
1953, 786.00
1954, 787.00
1955, 787.00
1956, 787.00
1957, 787.00
1958, 788.00
1959, 788.00
1960, 788.00
1961, 788.00
1962, 788.00
1963, 788.00
1964, 788.00
1965, 788.00
1966, 789.00
1967, 788.00
1968, 789.00
1969, 789.00
1970, 789.00
1971, 789.00
1972, 789.00
1973, 789.00
1974, 790.00
1975, 790.00
1976, 790.00
1977, 790.00
1978, 790.00
1979, 791.00
1980, 790.00
1981, 791.00
1982, 791.00
1983, 792.00
1984, 791.00
1985, 791.00
1986, 792.00
1987, 792.00
1988, 792.00
1989, 792.00
1990, 792.00
1991, 793.00
1992, 793.00
1993, 792.00
1994, 793.00
1995, 793.00
1996, 794.00
1997, 793.00
1998, 793.00
1999, 795.00
2000, 794.00
2001, 795.00
2002, 795.00
2003, 795.00
2004, 795.00
2005, 795.00
2006, 795.00
2007, 795.00
2008, 796.00
2009, 796.00
2010, 796.00
2011, 797.00
2012, 797.00
2013, 797.00
2014, 796.00
2015, 797.00
2016, 797.00
2017, 797.00
2018, 797.00
2019, 798.00
2020, 798.00
2021, 798.00
2022, 798.00
2023, 798.00
2024, 798.00
2025, 799.00
2026, 800.00
2027, 799.00
2028, 799.00
2029, 800.00
2030, 800.00
2031, 800.00
2032, 800.00
2033, 800.00
2034, 801.00
2035, 801.00
2036, 801.00
2037, 802.00
2038, 802.00
2039, 802.00
2040, 802.00
2041, 803.00
2042, 803.00
2043, 803.00
2044, 803.00
2045, 803.00
2046, 803.00
2047, 804.00
2048, 805.00
2049, 804.00
2050, 804.00
2051, 805.00
2052, 806.00
2053, 806.00
2054, 806.00
2055, 806.00
2056, 807.00
2057, 807.00
2058, 807.00
2059, 807.00
2060, 808.00
2061, 808.00
2062, 808.00
2063, 808.00
2064, 809.00
2065, 809.00
2066, 810.00
2067, 809.00
2068, 810.00
2069, 810.00
2070, 811.00
2071, 810.00
2072, 811.00
2073, 811.00
2074, 811.00
2075, 812.00
2076, 812.00
2077, 812.00
2078, 813.00
2079, 813.00
2080, 813.00
2081, 813.00
2082, 813.00
2083, 814.00
2084, 815.00
2085, 814.00
2086, 815.00
2087, 815.00
2088, 815.00
2089, 816.00
2090, 816.00
2091, 816.00
2092, 816.00
2093, 817.00
2094, 816.00
2095, 817.00
2096, 817.00
2097, 817.00
2098, 817.00
2099, 818.00
2100, 818.00
2101, 818.00
2102, 818.00
2103, 818.00
2104, 818.00
2105, 819.00
2106, 819.00
2107, 818.00
2108, 819.00
2109, 818.00
2110, 819.00
2111, 819.00
2112, 820.00
2113, 820.00
2114, 820.00
2115, 819.00
2116, 820.00
2117, 820.00
2118, 820.00
2119, 820.00
2120, 821.00
2121, 820.00
2122, 821.00
2123, 821.00
2124, 822.00
2125, 821.00
2126, 821.00
2127, 821.00
2128, 822.00
2129, 821.00
2130, 821.00
2131, 822.00
2132, 822.00
2133, 822.00
2134, 822.00
2135, 822.00
2136, 822.00
2137, 822.00
2138, 822.00
2139, 822.00
2140, 822.00
2141, 822.00
2142, 823.00
2143, 822.00
2144, 823.00
2145, 823.00
2146, 822.00
2147, 823.00
2148, 823.00
2149, 822.00
2150, 823.00
