FW version: 24
Log Version: 3.0.3

General Info:
       Command/Macro Performed,            Timestamp,             Device ID, COM Port, UART/I2C, Test Name, Host Major, Host Minor, Host Revision, Host Git Commit
            Single_measurement,  2023_06_29_11_25_30,       Insight2_F4_xxx,    USB-C,      USB,          ,          0,          1,             1,      4031237645

Show Spectrometer Status:
l0_version, f4_version, battery_perc, battery_mVolt, accelerometer_temp, accelerometer_x, accelerometer_y, accelerometer_z, compass_temp, compass_x, compass_y, compass_z, lamp_0, lamp_1, gain_0, gain_1
        17,         24,           94,          2077,               5632,           65420,             164,           18480,            0,     65484,     65518,     65535,   3276,   3276,      1,      1

Temperature Statistic Info:
NTC AVG [°C], NTC2 AVG [°C]
      36.891,        36.551

Statistic Info:
M1:  num,      min,      max,   median,      AVG,      STD,M2:  num,      min,      max,   median,      AVG,      STD
     301,  1692.00,  1939.00,  1742.00,  1773.37,  76.3132,     401,  2208.00,  2354.00,  2263.00,  2269.51,  46.4367,

Measurements:
Wavelength, Data Amplitude
1350, 1742.00
1351, 1741.00
1352, 1740.00
1353, 1741.00
1354, 1739.00
1355, 1738.00
1356, 1737.00
1357, 1736.00
1358, 1735.00
1359, 1734.00
1360, 1733.00
1361, 1732.00
1362, 1731.00
1363, 1728.00
1364, 1727.00
1365, 1725.00
1366, 1725.00
1367, 1725.00
1368, 1723.00
1369, 1721.00
1370, 1720.00
1371, 1719.00
1372, 1718.00
1373, 1717.00
1374, 1715.00
1375, 1715.00
1376, 1713.00
1377, 1712.00
1378, 1710.00
1379, 1709.00
1380, 1709.00
1381, 1707.00
1382, 1706.00
1383, 1706.00
1384, 1706.00
1385, 1704.00
1386, 1702.00
1387, 1703.00
1388, 1701.00
1389, 1702.00
1390, 1701.00
1391, 1700.00
1392, 1699.00
1393, 1699.00
1394, 1699.00
1395, 1697.00
1396, 1698.00
1397, 1699.00
1398, 1698.00
1399, 1697.00
1400, 1698.00
1401, 1698.00
1402, 1697.00
1403, 1695.00
1404, 1695.00
1405, 1695.00
1406, 1695.00
1407, 1694.00
1408, 1693.00
1409, 1695.00
1410, 1695.00
1411, 1694.00
1412, 1695.00
1413, 1694.00
1414, 1694.00
1415, 1693.00
1416, 1693.00
1417, 1694.00
1418, 1693.00
1419, 1694.00
1420, 1692.00
1421, 1693.00
1422, 1692.00
1423, 1694.00
1424, 1693.00
1425, 1693.00
1426, 1693.00
1427, 1695.00
1428, 1693.00
1429, 1694.00
1430, 1693.00
1431, 1693.00
1432, 1694.00
1433, 1695.00
1434, 1695.00
1435, 1696.00
1436, 1696.00
1437, 1695.00
1438, 1696.00
1439, 1697.00
1440, 1696.00
1441, 1697.00
1442, 1698.00
1443, 1698.00
1444, 1698.00
1445, 1700.00
1446, 1699.00
1447, 1699.00
1448, 1700.00
1449, 1701.00
1450, 1701.00
1451, 1701.00
1452, 1703.00
1453, 1702.00
1454, 1703.00
1455, 1704.00
1456, 1703.00
1457, 1704.00
1458, 1705.00
1459, 1706.00
1460, 1707.00
1461, 1707.00
1462, 1708.00
1463, 1707.00
1464, 1708.00
1465, 1710.00
1466, 1711.00
1467, 1710.00
1468, 1711.00
1469, 1713.00
1470, 1713.00
1471, 1714.00
1472, 1714.00
1473, 1716.00
1474, 1717.00
1475, 1717.00
1476, 1719.00
1477, 1719.00
1478, 1720.00
1479, 1721.00
1480, 1722.00
1481, 1723.00
1482, 1724.00
1483, 1724.00
1484, 1726.00
1485, 1726.00
1486, 1727.00
1487, 1729.00
1488, 1730.00
1489, 1730.00
1490, 1731.00
1491, 1732.00
1492, 1732.00
1493, 1734.00
1494, 1735.00
1495, 1736.00
1496, 1737.00
1497, 1739.00
1498, 1740.00
1499, 1740.00
1500, 1742.00
1501, 1743.00
1502, 1744.00
1503, 1745.00
1504, 1746.00
1505, 1746.00
1506, 1747.00
1507, 1748.00
1508, 1750.00
1509, 1751.00
1510, 1753.00
1511, 1754.00
1512, 1755.00
1513, 1756.00
1514, 1757.00
1515, 1756.00
1516, 1759.00
1517, 1759.00
1518, 1761.00
1519, 1763.00
1520, 1764.00
1521, 1766.00
1522, 1767.00
1523, 1769.00
1524, 1769.00
1525, 1769.00
1526, 1772.00
1527, 1773.00
1528, 1774.00
1529, 1774.00
1530, 1775.00
1531, 1777.00
1532, 1779.00
1533, 1779.00
1534, 1780.00
1535, 1783.00
1536, 1784.00
1537, 1784.00
1538, 1786.00
1539, 1787.00
1540, 1787.00
1541, 1789.00
1542, 1790.00
1543, 1792.00
1544, 1793.00
1545, 1796.00
1546, 1797.00
1547, 1797.00
1548, 1797.00
1549, 1799.00
1550, 1801.00
1551, 1801.00
1552, 1802.00
1553, 1804.00
1554, 1806.00
1555, 1808.00
1556, 1808.00
1557, 1810.00
1558, 1812.00
1559, 1813.00
1560, 1814.00
1561, 1815.00
1562, 1816.00
1563, 1817.00
1564, 1819.00
1565, 1822.00
1566, 1822.00
1567, 1823.00
1568, 1826.00
1569, 1827.00
1570, 1829.00
1571, 1830.00
1572, 1831.00
1573, 1833.00
1574, 1834.00
1575, 1835.00
1576, 1837.00
1577, 1838.00
1578, 1840.00
1579, 1840.00
1580, 1841.00
1581, 1843.00
1582, 1845.00
1583, 1846.00
1584, 1847.00
1585, 1848.00
1586, 1849.00
1587, 1851.00
1588, 1851.00
1589, 1853.00
1590, 1855.00
1591, 1856.00
1592, 1858.00
1593, 1860.00
1594, 1859.00
1595, 1861.00
1596, 1862.00
1597, 1863.00
1598, 1865.00
1599, 1866.00
1600, 1867.00
1601, 1869.00
1602, 1870.00
1603, 1872.00
1604, 1872.00
1605, 1874.00
1606, 1875.00
1607, 1876.00
1608, 1878.00
1609, 1880.00
1610, 1881.00
1611, 1883.00
1612, 1885.00
1613, 1887.00
1614, 1889.00
1615, 1889.00
1616, 1891.00
1617, 1892.00
1618, 1894.00
1619, 1895.00
1620, 1898.00
1621, 1898.00
1622, 1900.00
1623, 1902.00
1624, 1903.00
1625, 1906.00
1626, 1906.00
1627, 1908.00
1628, 1910.00
1629, 1912.00
1630, 1912.00
1631, 1914.00
1632, 1916.00
1633, 1917.00
1634, 1918.00
1635, 1919.00
1636, 1921.00
1637, 1921.00
1638, 1923.00
1639, 1924.00
1640, 1926.00
1641, 1928.00
1642, 1929.00
1643, 1930.00
1644, 1931.00
1645, 1932.00
1646, 1933.00
1647, 1934.00
1648, 1936.00
1649, 1938.00
1650, 1939.00

1750, 2352.00
1751, 2351.00
1752, 2352.00
1753, 2353.00
1754, 2353.00
1755, 2354.00
1756, 2353.00
1757, 2351.00
1758, 2351.00
1759, 2353.00
1760, 2351.00
1761, 2352.00
1762, 2351.00
1763, 2351.00
1764, 2353.00
1765, 2352.00
1766, 2351.00
1767, 2351.00
1768, 2351.00
1769, 2351.00
1770, 2353.00
1771, 2351.00
1772, 2350.00
1773, 2348.00
1774, 2347.00
1775, 2346.00
1776, 2347.00
1777, 2347.00
1778, 2347.00
1779, 2347.00
1780, 2348.00
1781, 2345.00
1782, 2345.00
1783, 2345.00
1784, 2344.00
1785, 2343.00
1786, 2340.00
1787, 2342.00
1788, 2340.00
1789, 2341.00
1790, 2341.00
1791, 2340.00
1792, 2339.00
1793, 2340.00
1794, 2339.00
1795, 2340.00
1796, 2339.00
1797, 2337.00
1798, 2339.00
1799, 2336.00
1800, 2336.00
1801, 2334.00
1802, 2334.00
1803, 2334.00
1804, 2333.00
1805, 2333.00
1806, 2333.00
1807, 2334.00
1808, 2333.00
1809, 2334.00
1810, 2332.00
1811, 2331.00
1812, 2329.00
1813, 2327.00
1814, 2328.00
1815, 2328.00
1816, 2327.00
1817, 2326.00
1818, 2326.00
1819, 2323.00
1820, 2326.00
1821, 2323.00
1822, 2322.00
1823, 2322.00
1824, 2320.00
1825, 2319.00
1826, 2316.00
1827, 2315.00
1828, 2314.00
1829, 2313.00
1830, 2312.00
1831, 2311.00
1832, 2309.00
1833, 2307.00
1834, 2305.00
1835, 2304.00
1836, 2301.00
1837, 2301.00
1838, 2298.00
1839, 2296.00
1840, 2295.00
1841, 2293.00
1842, 2291.00
1843, 2287.00
1844, 2285.00
1845, 2283.00
1846, 2281.00
1847, 2279.00
1848, 2279.00
1849, 2276.00
1850, 2274.00
1851, 2272.00
1852, 2269.00
1853, 2266.00
1854, 2262.00
1855, 2263.00
1856, 2258.00
1857, 2257.00
1858, 2256.00
1859, 2254.00
1860, 2252.00
1861, 2252.00
1862, 2249.00
1863, 2247.00
1864, 2245.00
1865, 2243.00
1866, 2241.00
1867, 2239.00
1868, 2238.00
1869, 2237.00
1870, 2236.00
1871, 2235.00
1872, 2234.00
1873, 2233.00
1874, 2233.00
1875, 2231.00
1876, 2229.00
1877, 2229.00
1878, 2227.00
1879, 2227.00
1880, 2227.00
1881, 2224.00
1882, 2225.00
1883, 2224.00
1884, 2223.00
1885, 2223.00
1886, 2223.00
1887, 2221.00
1888, 2222.00
1889, 2220.00
1890, 2220.00
1891, 2219.00
1892, 2220.00
1893, 2219.00
1894, 2219.00
1895, 2218.00
1896, 2218.00
1897, 2218.00
1898, 2217.00
1899, 2216.00
1900, 2216.00
1901, 2216.00
1902, 2215.00
1903, 2215.00
1904, 2215.00
1905, 2212.00
1906, 2213.00
1907, 2214.00
1908, 2214.00
1909, 2213.00
1910, 2212.00
1911, 2214.00
1912, 2213.00
1913, 2212.00
1914, 2213.00
1915, 2214.00
1916, 2212.00
1917, 2212.00
1918, 2211.00
1919, 2214.00
1920, 2211.00
1921, 2213.00
1922, 2212.00
1923, 2211.00
1924, 2211.00
1925, 2208.00
1926, 2212.00
1927, 2210.00
1928, 2211.00
1929, 2210.00
1930, 2210.00
1931, 2209.00
1932, 2210.00
1933, 2212.00
1934, 2211.00
1935, 2211.00
1936, 2211.00
1937, 2212.00
1938, 2211.00
1939, 2210.00
1940, 2213.00
1941, 2211.00
1942, 2212.00
1943, 2211.00
1944, 2212.00
1945, 2213.00
1946, 2211.00
1947, 2213.00
1948, 2214.00
1949, 2212.00
1950, 2214.00
1951, 2213.00
1952, 2213.00
1953, 2215.00
1954, 2215.00
1955, 2214.00
1956, 2215.00
1957, 2214.00
1958, 2217.00
1959, 2216.00
1960, 2216.00
1961, 2217.00
1962, 2217.00
1963, 2218.00
1964, 2218.00
1965, 2219.00
1966, 2219.00
1967, 2219.00
1968, 2218.00
1969, 2220.00
1970, 2219.00
1971, 2219.00
1972, 2220.00
1973, 2220.00
1974, 2222.00
1975, 2222.00
1976, 2223.00
1977, 2224.00
1978, 2225.00
1979, 2225.00
1980, 2224.00
1981, 2224.00
1982, 2225.00
1983, 2224.00
1984, 2225.00
1985, 2225.00
1986, 2226.00
1987, 2227.00
1988, 2228.00
1989, 2228.00
1990, 2226.00
1991, 2228.00
1992, 2229.00
1993, 2231.00
1994, 2231.00
1995, 2231.00
1996, 2231.00
1997, 2232.00
1998, 2232.00
1999, 2231.00
2000, 2233.00
2001, 2233.00
2002, 2233.00
2003, 2234.00
2004, 2234.00
2005, 2235.00
2006, 2235.00
2007, 2237.00
2008, 2237.00
2009, 2238.00
2010, 2236.00
2011, 2237.00
2012, 2236.00
2013, 2238.00
2014, 2240.00
2015, 2239.00
2016, 2240.00
2017, 2241.00
2018, 2241.00
2019, 2242.00
2020, 2241.00
2021, 2243.00
2022, 2244.00
2023, 2243.00
2024, 2246.00
2025, 2244.00
2026, 2244.00
2027, 2244.00
2028, 2245.00
2029, 2246.00
2030, 2248.00
2031, 2249.00
2032, 2250.00
2033, 2249.00
2034, 2249.00
2035, 2251.00
2036, 2250.00
2037, 2251.00
2038, 2251.00
2039, 2250.00
2040, 2253.00
2041, 2252.00
2042, 2254.00
2043, 2256.00
2044, 2256.00
2045, 2257.00
2046, 2255.00
2047, 2258.00
2048, 2259.00
2049, 2259.00
2050, 2258.00
2051, 2259.00
2052, 2261.00
2053, 2262.00
2054, 2263.00
2055, 2264.00
2056, 2263.00
2057, 2267.00
2058, 2263.00
2059, 2267.00
2060, 2267.00
2061, 2266.00
2062, 2267.00
2063, 2268.00
2064, 2271.00
2065, 2273.00
2066, 2270.00
2067, 2271.00
2068, 2274.00
2069, 2274.00
2070, 2275.00
2071, 2274.00
2072, 2277.00
2073, 2276.00
2074, 2279.00
2075, 2280.00
2076, 2280.00
2077, 2279.00
2078, 2281.00
2079, 2280.00
2080, 2281.00
2081, 2281.00
2082, 2282.00
2083, 2284.00
2084, 2284.00
2085, 2286.00
2086, 2287.00
2087, 2287.00
2088, 2289.00
2089, 2287.00
2090, 2287.00
2091, 2288.00
2092, 2289.00
2093, 2289.00
2094, 2289.00
2095, 2292.00
2096, 2293.00
2097, 2292.00
2098, 2292.00
2099, 2293.00
2100, 2293.00
2101, 2292.00
2102, 2294.00
2103, 2297.00
2104, 2293.00
2105, 2295.00
2106, 2295.00
2107, 2296.00
2108, 2295.00
2109, 2295.00
2110, 2298.00
2111, 2297.00
2112, 2298.00
2113, 2298.00
2114, 2297.00
2115, 2302.00
2116, 2301.00
2117, 2299.00
2118, 2301.00
2119, 2300.00
2120, 2301.00
2121, 2302.00
2122, 2301.00
2123, 2301.00
2124, 2302.00
2125, 2302.00
2126, 2304.00
2127, 2304.00
2128, 2305.00
2129, 2304.00
2130, 2303.00
2131, 2304.00
2132, 2306.00
2133, 2306.00
2134, 2307.00
2135, 2306.00
2136, 2307.00
2137, 2306.00
2138, 2309.00
2139, 2306.00
2140, 2308.00
2141, 2307.00
2142, 2308.00
2143, 2310.00
2144, 2309.00
2145, 2309.00
2146, 2309.00
2147, 2310.00
2148, 2310.00
2149, 2310.00
2150, 2309.00
