FW version: 24
Log Version: 3.0.3

General Info:
       Command/Macro Performed,            Timestamp,             Device ID, COM Port, UART/I2C, Test Name, Host Major, Host Minor, Host Revision, Host Git Commit
            Single_measurement,  2023_06_29_11_25_22,       Insight2_F4_xxx,    USB-C,      USB,          ,          0,          1,             1,      4031237645

Show Spectrometer Status:
l0_version, f4_version, battery_perc, battery_mVolt, accelerometer_temp, accelerometer_x, accelerometer_y, accelerometer_z, compass_temp, compass_x, compass_y, compass_z, lamp_0, lamp_1, gain_0, gain_1
        17,         24,           94,          2075,               5600,           65376,             124,           18528,            0,     65377,     65406,     65525,   3276,   3276,      1,      1

Temperature Statistic Info:
NTC AVG [°C], NTC2 AVG [°C]
      36.807,        36.465

Statistic Info:
M1:  num,      min,      max,   median,      AVG,      STD,M2:  num,      min,      max,   median,      AVG,      STD
     301,  1695.00,  1943.00,  1744.00,  1775.71,  76.3304,     401,  2211.00,  2356.00,  2265.00,  2271.76,  46.5101,

Measurements:
Wavelength, Data Amplitude
1350, 1744.00
1351, 1744.00
1352, 1742.00
1353, 1741.00
1354, 1740.00
1355, 1739.00
1356, 1739.00
1357, 1738.00
1358, 1738.00
1359, 1736.00
1360, 1736.00
1361, 1734.00
1362, 1733.00
1363, 1732.00
1364, 1730.00
1365, 1729.00
1366, 1727.00
1367, 1726.00
1368, 1725.00
1369, 1721.00
1370, 1723.00
1371, 1721.00
1372, 1719.00
1373, 1718.00
1374, 1719.00
1375, 1717.00
1376, 1716.00
1377, 1714.00
1378, 1712.00
1379, 1712.00
1380, 1711.00
1381, 1710.00
1382, 1708.00
1383, 1707.00
1384, 1707.00
1385, 1706.00
1386, 1706.00
1387, 1705.00
1388, 1705.00
1389, 1705.00
1390, 1704.00
1391, 1703.00
1392, 1702.00
1393, 1702.00
1394, 1701.00
1395, 1701.00
1396, 1701.00
1397, 1700.00
1398, 1699.00
1399, 1699.00
1400, 1699.00
1401, 1700.00
1402, 1699.00
1403, 1698.00
1404, 1699.00
1405, 1699.00
1406, 1697.00
1407, 1697.00
1408, 1698.00
1409, 1696.00
1410, 1697.00
1411, 1697.00
1412, 1697.00
1413, 1696.00
1414, 1696.00
1415, 1697.00
1416, 1697.00
1417, 1696.00
1418, 1696.00
1419, 1696.00
1420, 1695.00
1421, 1696.00
1422, 1696.00
1423, 1696.00
1424, 1695.00
1425, 1696.00
1426, 1695.00
1427, 1696.00
1428, 1696.00
1429, 1697.00
1430, 1697.00
1431, 1697.00
1432, 1697.00
1433, 1697.00
1434, 1697.00
1435, 1697.00
1436, 1697.00
1437, 1699.00
1438, 1699.00
1439, 1699.00
1440, 1699.00
1441, 1699.00
1442, 1700.00
1443, 1700.00
1444, 1701.00
1445, 1701.00
1446, 1701.00
1447, 1702.00
1448, 1702.00
1449, 1703.00
1450, 1702.00
1451, 1703.00
1452, 1705.00
1453, 1705.00
1454, 1705.00
1455, 1705.00
1456, 1706.00
1457, 1707.00
1458, 1707.00
1459, 1707.00
1460, 1708.00
1461, 1709.00
1462, 1710.00
1463, 1710.00
1464, 1711.00
1465, 1711.00
1466, 1714.00
1467, 1713.00
1468, 1714.00
1469, 1714.00
1470, 1715.00
1471, 1716.00
1472, 1717.00
1473, 1718.00
1474, 1718.00
1475, 1719.00
1476, 1721.00
1477, 1721.00
1478, 1723.00
1479, 1723.00
1480, 1724.00
1481, 1725.00
1482, 1726.00
1483, 1726.00
1484, 1727.00
1485, 1729.00
1486, 1731.00
1487, 1731.00
1488, 1732.00
1489, 1733.00
1490, 1735.00
1491, 1735.00
1492, 1735.00
1493, 1737.00
1494, 1738.00
1495, 1738.00
1496, 1740.00
1497, 1741.00
1498, 1741.00
1499, 1743.00
1500, 1744.00
1501, 1743.00
1502, 1746.00
1503, 1747.00
1504, 1747.00
1505, 1749.00
1506, 1751.00
1507, 1751.00
1508, 1752.00
1509, 1753.00
1510, 1753.00
1511, 1756.00
1512, 1757.00
1513, 1758.00
1514, 1759.00
1515, 1761.00
1516, 1761.00
1517, 1763.00
1518, 1764.00
1519, 1764.00
1520, 1767.00
1521, 1768.00
1522, 1769.00
1523, 1770.00
1524, 1772.00
1525, 1772.00
1526, 1773.00
1527, 1774.00
1528, 1775.00
1529, 1776.00
1530, 1779.00
1531, 1780.00
1532, 1781.00
1533, 1782.00
1534, 1784.00
1535, 1785.00
1536, 1785.00
1537, 1787.00
1538, 1787.00
1539, 1788.00
1540, 1790.00
1541, 1792.00
1542, 1793.00
1543, 1796.00
1544, 1795.00
1545, 1796.00
1546, 1798.00
1547, 1799.00
1548, 1801.00
1549, 1802.00
1550, 1802.00
1551, 1805.00
1552, 1805.00
1553, 1807.00
1554, 1808.00
1555, 1810.00
1556, 1811.00
1557, 1812.00
1558, 1814.00
1559, 1815.00
1560, 1817.00
1561, 1816.00
1562, 1819.00
1563, 1820.00
1564, 1821.00
1565, 1822.00
1566, 1825.00
1567, 1826.00
1568, 1829.00
1569, 1831.00
1570, 1833.00
1571, 1831.00
1572, 1833.00
1573, 1835.00
1574, 1836.00
1575, 1837.00
1576, 1839.00
1577, 1839.00
1578, 1842.00
1579, 1844.00
1580, 1845.00
1581, 1846.00
1582, 1847.00
1583, 1848.00
1584, 1849.00
1585, 1850.00
1586, 1851.00
1587, 1851.00
1588, 1854.00
1589, 1856.00
1590, 1857.00
1591, 1859.00
1592, 1860.00
1593, 1859.00
1594, 1862.00
1595, 1863.00
1596, 1864.00
1597, 1865.00
1598, 1866.00
1599, 1869.00
1600, 1871.00
1601, 1871.00
1602, 1873.00
1603, 1873.00
1604, 1876.00
1605, 1876.00
1606, 1877.00
1607, 1879.00
1608, 1880.00
1609, 1882.00
1610, 1884.00
1611, 1886.00
1612, 1887.00
1613, 1889.00
1614, 1889.00
1615, 1891.00
1616, 1893.00
1617, 1895.00
1618, 1896.00
1619, 1898.00
1620, 1900.00
1621, 1901.00
1622, 1903.00
1623, 1904.00
1624, 1905.00
1625, 1907.00
1626, 1909.00
1627, 1908.00
1628, 1913.00
1629, 1913.00
1630, 1917.00
1631, 1917.00
1632, 1918.00
1633, 1919.00
1634, 1921.00
1635, 1921.00
1636, 1923.00
1637, 1923.00
1638, 1926.00
1639, 1928.00
1640, 1930.00
1641, 1930.00
1642, 1931.00
1643, 1932.00
1644, 1933.00
1645, 1934.00
1646, 1936.00
1647, 1937.00
1648, 1940.00
1649, 1941.00
1650, 1943.00

1750, 2355.00
1751, 2355.00
1752, 2356.00
1753, 2356.00
1754, 2355.00
1755, 2354.00
1756, 2355.00
1757, 2354.00
1758, 2355.00
1759, 2353.00
1760, 2354.00
1761, 2354.00
1762, 2353.00
1763, 2352.00
1764, 2353.00
1765, 2354.00
1766, 2354.00
1767, 2353.00
1768, 2353.00
1769, 2352.00
1770, 2353.00
1771, 2352.00
1772, 2352.00
1773, 2350.00
1774, 2353.00
1775, 2350.00
1776, 2350.00
1777, 2351.00
1778, 2347.00
1779, 2349.00
1780, 2349.00
1781, 2349.00
1782, 2348.00
1783, 2349.00
1784, 2347.00
1785, 2347.00
1786, 2344.00
1787, 2344.00
1788, 2345.00
1789, 2344.00
1790, 2345.00
1791, 2344.00
1792, 2344.00
1793, 2343.00
1794, 2340.00
1795, 2341.00
1796, 2340.00
1797, 2340.00
1798, 2339.00
1799, 2338.00
1800, 2338.00
1801, 2337.00
1802, 2336.00
1803, 2336.00
1804, 2337.00
1805, 2337.00
1806, 2337.00
1807, 2335.00
1808, 2334.00
1809, 2333.00
1810, 2333.00
1811, 2331.00
1812, 2333.00
1813, 2330.00
1814, 2331.00
1815, 2331.00
1816, 2329.00
1817, 2329.00
1818, 2327.00
1819, 2328.00
1820, 2329.00
1821, 2326.00
1822, 2324.00
1823, 2323.00
1824, 2323.00
1825, 2321.00
1826, 2319.00
1827, 2318.00
1828, 2319.00
1829, 2316.00
1830, 2313.00
1831, 2311.00
1832, 2311.00
1833, 2311.00
1834, 2308.00
1835, 2306.00
1836, 2304.00
1837, 2302.00
1838, 2302.00
1839, 2299.00
1840, 2297.00
1841, 2295.00
1842, 2292.00
1843, 2290.00
1844, 2289.00
1845, 2287.00
1846, 2284.00
1847, 2280.00
1848, 2278.00
1849, 2276.00
1850, 2276.00
1851, 2273.00
1852, 2270.00
1853, 2269.00
1854, 2266.00
1855, 2265.00
1856, 2261.00
1857, 2259.00
1858, 2258.00
1859, 2257.00
1860, 2255.00
1861, 2252.00
1862, 2248.00
1863, 2250.00
1864, 2247.00
1865, 2244.00
1866, 2244.00
1867, 2242.00
1868, 2241.00
1869, 2240.00
1870, 2238.00
1871, 2239.00
1872, 2236.00
1873, 2237.00
1874, 2235.00
1875, 2234.00
1876, 2232.00
1877, 2231.00
1878, 2231.00
1879, 2229.00
1880, 2229.00
1881, 2227.00
1882, 2227.00
1883, 2226.00
1884, 2226.00
1885, 2227.00
1886, 2226.00
1887, 2225.00
1888, 2222.00
1889, 2222.00
1890, 2221.00
1891, 2219.00
1892, 2219.00
1893, 2220.00
1894, 2221.00
1895, 2221.00
1896, 2220.00
1897, 2219.00
1898, 2219.00
1899, 2219.00
1900, 2217.00
1901, 2218.00
1902, 2216.00
1903, 2217.00
1904, 2216.00
1905, 2216.00
1906, 2218.00
1907, 2216.00
1908, 2215.00
1909, 2216.00
1910, 2216.00
1911, 2215.00
1912, 2214.00
1913, 2215.00
1914, 2215.00
1915, 2215.00
1916, 2215.00
1917, 2215.00
1918, 2214.00
1919, 2213.00
1920, 2213.00
1921, 2214.00
1922, 2213.00
1923, 2213.00
1924, 2215.00
1925, 2212.00
1926, 2214.00
1927, 2211.00
1928, 2213.00
1929, 2212.00
1930, 2212.00
1931, 2214.00
1932, 2215.00
1933, 2215.00
1934, 2215.00
1935, 2215.00
1936, 2213.00
1937, 2214.00
1938, 2213.00
1939, 2213.00
1940, 2213.00
1941, 2214.00
1942, 2214.00
1943, 2214.00
1944, 2215.00
1945, 2215.00
1946, 2216.00
1947, 2216.00
1948, 2215.00
1949, 2215.00
1950, 2215.00
1951, 2216.00
1952, 2214.00
1953, 2217.00
1954, 2216.00
1955, 2217.00
1956, 2218.00
1957, 2217.00
1958, 2218.00
1959, 2219.00
1960, 2217.00
1961, 2219.00
1962, 2219.00
1963, 2219.00
1964, 2219.00
1965, 2219.00
1966, 2221.00
1967, 2222.00
1968, 2222.00
1969, 2222.00
1970, 2221.00
1971, 2222.00
1972, 2222.00
1973, 2222.00
1974, 2224.00
1975, 2224.00
1976, 2224.00
1977, 2225.00
1978, 2226.00
1979, 2225.00
1980, 2227.00
1981, 2227.00
1982, 2227.00
1983, 2228.00
1984, 2226.00
1985, 2228.00
1986, 2228.00
1987, 2229.00
1988, 2229.00
1989, 2231.00
1990, 2232.00
1991, 2232.00
1992, 2231.00
1993, 2230.00
1994, 2232.00
1995, 2234.00
1996, 2233.00
1997, 2234.00
1998, 2235.00
1999, 2235.00
2000, 2235.00
2001, 2233.00
2002, 2235.00
2003, 2235.00
2004, 2237.00
2005, 2238.00
2006, 2237.00
2007, 2237.00
2008, 2239.00
2009, 2238.00
2010, 2240.00
2011, 2240.00
2012, 2241.00
2013, 2242.00
2014, 2239.00
2015, 2242.00
2016, 2242.00
2017, 2241.00
2018, 2243.00
2019, 2243.00
2020, 2245.00
2021, 2246.00
2022, 2245.00
2023, 2245.00
2024, 2246.00
2025, 2247.00
2026, 2246.00
2027, 2249.00
2028, 2249.00
2029, 2248.00
2030, 2249.00
2031, 2249.00
2032, 2250.00
2033, 2252.00
2034, 2250.00
2035, 2253.00
2036, 2253.00
2037, 2255.00
2038, 2254.00
2039, 2254.00
2040, 2255.00
2041, 2256.00
2042, 2256.00
2043, 2257.00
2044, 2257.00
2045, 2258.00
2046, 2260.00
2047, 2260.00
2048, 2261.00
2049, 2260.00
2050, 2261.00
2051, 2262.00
2052, 2261.00
2053, 2263.00
2054, 2265.00
2055, 2265.00
2056, 2265.00
2057, 2267.00
2058, 2267.00
2059, 2268.00
2060, 2269.00
2061, 2270.00
2062, 2271.00
2063, 2271.00
2064, 2272.00
2065, 2273.00
2066, 2275.00
2067, 2274.00
2068, 2274.00
2069, 2275.00
2070, 2277.00
2071, 2277.00
2072, 2277.00
2073, 2278.00
2074, 2280.00
2075, 2281.00
2076, 2282.00
2077, 2282.00
2078, 2283.00
2079, 2284.00
2080, 2284.00
2081, 2284.00
2082, 2285.00
2083, 2286.00
2084, 2287.00
2085, 2289.00
2086, 2290.00
2087, 2289.00
2088, 2289.00
2089, 2289.00
2090, 2288.00
2091, 2291.00
2092, 2290.00
2093, 2291.00
2094, 2291.00
2095, 2294.00
2096, 2295.00
2097, 2295.00
2098, 2294.00
2099, 2295.00
2100, 2295.00
2101, 2294.00
2102, 2296.00
2103, 2297.00
2104, 2298.00
2105, 2298.00
2106, 2299.00
2107, 2300.00
2108, 2299.00
2109, 2299.00
2110, 2299.00
2111, 2300.00
2112, 2301.00
2113, 2301.00
2114, 2302.00
2115, 2303.00
2116, 2302.00
2117, 2303.00
2118, 2303.00
2119, 2303.00
2120, 2301.00
2121, 2303.00
2122, 2302.00
2123, 2304.00
2124, 2306.00
2125, 2305.00
2126, 2305.00
2127, 2306.00
2128, 2305.00
2129, 2306.00
2130, 2306.00
2131, 2306.00
2132, 2308.00
2133, 2308.00
2134, 2308.00
2135, 2309.00
2136, 2309.00
2137, 2308.00
2138, 2309.00
2139, 2308.00
2140, 2310.00
2141, 2311.00
2142, 2311.00
2143, 2310.00
2144, 2311.00
2145, 2311.00
2146, 2311.00
2147, 2310.00
2148, 2312.00
2149, 2312.00
2150, 2313.00
