FW version: 24
Log Version: 3.0.3

General Info:
       Command/Macro Performed,            Timestamp,             Device ID, COM Port, UART/I2C, Test Name, Host Major, Host Minor, Host Revision, Host Git Commit
            Single_measurement,  2023_06_29_11_25_11,       Insight2_F4_xxx,    USB-C,      USB,          ,          0,          1,             1,      4031237645

Show Spectrometer Status:
l0_version, f4_version, battery_perc, battery_mVolt, accelerometer_temp, accelerometer_x, accelerometer_y, accelerometer_z, compass_temp, compass_x, compass_y, compass_z, lamp_0, lamp_1, gain_0, gain_1
        17,         24,           94,          2077,               5616,           65412,              80,           18428,            0,     65476,     65392,     65535,   2866,   2866,      1,      1

Temperature Statistic Info:
NTC AVG [°C], NTC2 AVG [°C]
      36.750,        36.351

Statistic Info:
M1:  num,      min,      max,   median,      AVG,      STD,M2:  num,      min,      max,   median,      AVG,      STD
     301,  1320.00,  1519.00,  1360.00,  1384.93,  61.4161,     401,  1783.00,  1899.00,  1827.00,  1832.36,  37.7620,

Measurements:
Wavelength, Data Amplitude
1350, 1358.00
1351, 1357.00
1352, 1356.00
1353, 1356.00
1354, 1355.00
1355, 1355.00
1356, 1354.00
1357, 1352.00
1358, 1352.00
1359, 1351.00
1360, 1351.00
1361, 1349.00
1362, 1349.00
1363, 1349.00
1364, 1347.00
1365, 1345.00
1366, 1344.00
1367, 1344.00
1368, 1343.00
1369, 1341.00
1370, 1341.00
1371, 1340.00
1372, 1339.00
1373, 1338.00
1374, 1337.00
1375, 1336.00
1376, 1334.00
1377, 1334.00
1378, 1333.00
1379, 1333.00
1380, 1332.00
1381, 1331.00
1382, 1331.00
1383, 1329.00
1384, 1329.00
1385, 1329.00
1386, 1328.00
1387, 1327.00
1388, 1327.00
1389, 1327.00
1390, 1325.00
1391, 1326.00
1392, 1325.00
1393, 1326.00
1394, 1326.00
1395, 1325.00
1396, 1324.00
1397, 1324.00
1398, 1324.00
1399, 1323.00
1400, 1324.00
1401, 1323.00
1402, 1323.00
1403, 1322.00
1404, 1323.00
1405, 1322.00
1406, 1322.00
1407, 1322.00
1408, 1321.00
1409, 1322.00
1410, 1322.00
1411, 1321.00
1412, 1322.00
1413, 1322.00
1414, 1321.00
1415, 1321.00
1416, 1321.00
1417, 1321.00
1418, 1320.00
1419, 1321.00
1420, 1320.00
1421, 1321.00
1422, 1320.00
1423, 1322.00
1424, 1321.00
1425, 1322.00
1426, 1321.00
1427, 1321.00
1428, 1321.00
1429, 1320.00
1430, 1320.00
1431, 1321.00
1432, 1322.00
1433, 1322.00
1434, 1322.00
1435, 1323.00
1436, 1323.00
1437, 1323.00
1438, 1323.00
1439, 1323.00
1440, 1324.00
1441, 1324.00
1442, 1323.00
1443, 1325.00
1444, 1325.00
1445, 1325.00
1446, 1326.00
1447, 1325.00
1448, 1327.00
1449, 1326.00
1450, 1327.00
1451, 1327.00
1452, 1328.00
1453, 1328.00
1454, 1329.00
1455, 1329.00
1456, 1329.00
1457, 1329.00
1458, 1331.00
1459, 1330.00
1460, 1332.00
1461, 1332.00
1462, 1333.00
1463, 1333.00
1464, 1334.00
1465, 1334.00
1466, 1334.00
1467, 1335.00
1468, 1335.00
1469, 1336.00
1470, 1337.00
1471, 1338.00
1472, 1338.00
1473, 1339.00
1474, 1340.00
1475, 1340.00
1476, 1341.00
1477, 1342.00
1478, 1342.00
1479, 1342.00
1480, 1343.00
1481, 1344.00
1482, 1345.00
1483, 1346.00
1484, 1347.00
1485, 1348.00
1486, 1349.00
1487, 1350.00
1488, 1351.00
1489, 1351.00
1490, 1351.00
1491, 1352.00
1492, 1352.00
1493, 1353.00
1494, 1355.00
1495, 1356.00
1496, 1356.00
1497, 1358.00
1498, 1358.00
1499, 1360.00
1500, 1359.00
1501, 1361.00
1502, 1362.00
1503, 1361.00
1504, 1363.00
1505, 1363.00
1506, 1365.00
1507, 1366.00
1508, 1366.00
1509, 1368.00
1510, 1370.00
1511, 1370.00
1512, 1370.00
1513, 1370.00
1514, 1372.00
1515, 1373.00
1516, 1373.00
1517, 1375.00
1518, 1376.00
1519, 1377.00
1520, 1378.00
1521, 1380.00
1522, 1380.00
1523, 1381.00
1524, 1382.00
1525, 1383.00
1526, 1384.00
1527, 1385.00
1528, 1386.00
1529, 1385.00
1530, 1387.00
1531, 1389.00
1532, 1389.00
1533, 1391.00
1534, 1392.00
1535, 1393.00
1536, 1394.00
1537, 1394.00
1538, 1395.00
1539, 1396.00
1540, 1397.00
1541, 1398.00
1542, 1399.00
1543, 1401.00
1544, 1401.00
1545, 1403.00
1546, 1404.00
1547, 1405.00
1548, 1405.00
1549, 1406.00
1550, 1407.00
1551, 1407.00
1552, 1409.00
1553, 1410.00
1554, 1410.00
1555, 1412.00
1556, 1413.00
1557, 1415.00
1558, 1415.00
1559, 1418.00
1560, 1418.00
1561, 1419.00
1562, 1420.00
1563, 1420.00
1564, 1422.00
1565, 1424.00
1566, 1424.00
1567, 1426.00
1568, 1428.00
1569, 1428.00
1570, 1430.00
1571, 1430.00
1572, 1431.00
1573, 1432.00
1574, 1433.00
1575, 1434.00
1576, 1435.00
1577, 1437.00
1578, 1438.00
1579, 1440.00
1580, 1441.00
1581, 1441.00
1582, 1442.00
1583, 1443.00
1584, 1444.00
1585, 1445.00
1586, 1445.00
1587, 1447.00
1588, 1448.00
1589, 1449.00
1590, 1448.00
1591, 1450.00
1592, 1452.00
1593, 1453.00
1594, 1453.00
1595, 1455.00
1596, 1456.00
1597, 1457.00
1598, 1458.00
1599, 1460.00
1600, 1460.00
1601, 1461.00
1602, 1463.00
1603, 1463.00
1604, 1465.00
1605, 1466.00
1606, 1467.00
1607, 1467.00
1608, 1469.00
1609, 1470.00
1610, 1471.00
1611, 1474.00
1612, 1475.00
1613, 1476.00
1614, 1476.00
1615, 1478.00
1616, 1478.00
1617, 1480.00
1618, 1481.00
1619, 1484.00
1620, 1484.00
1621, 1486.00
1622, 1487.00
1623, 1488.00
1624, 1490.00
1625, 1490.00
1626, 1491.00
1627, 1493.00
1628, 1494.00
1629, 1495.00
1630, 1497.00
1631, 1499.00
1632, 1500.00
1633, 1500.00
1634, 1501.00
1635, 1503.00
1636, 1503.00
1637, 1505.00
1638, 1506.00
1639, 1507.00
1640, 1508.00
1641, 1510.00
1642, 1511.00
1643, 1511.00
1644, 1513.00
1645, 1513.00
1646, 1514.00
1647, 1515.00
1648, 1516.00
1649, 1519.00
1650, 1519.00

1750, 1897.00
1751, 1899.00
1752, 1899.00
1753, 1899.00
1754, 1898.00
1755, 1899.00
1756, 1899.00
1757, 1898.00
1758, 1897.00
1759, 1899.00
1760, 1897.00
1761, 1899.00
1762, 1897.00
1763, 1898.00
1764, 1899.00
1765, 1898.00
1766, 1898.00
1767, 1898.00
1768, 1897.00
1769, 1897.00
1770, 1896.00
1771, 1897.00
1772, 1896.00
1773, 1896.00
1774, 1897.00
1775, 1894.00
1776, 1894.00
1777, 1894.00
1778, 1895.00
1779, 1894.00
1780, 1895.00
1781, 1895.00
1782, 1892.00
1783, 1892.00
1784, 1893.00
1785, 1891.00
1786, 1893.00
1787, 1890.00
1788, 1888.00
1789, 1890.00
1790, 1891.00
1791, 1890.00
1792, 1890.00
1793, 1889.00
1794, 1889.00
1795, 1889.00
1796, 1888.00
1797, 1888.00
1798, 1886.00
1799, 1886.00
1800, 1885.00
1801, 1885.00
1802, 1885.00
1803, 1885.00
1804, 1885.00
1805, 1883.00
1806, 1884.00
1807, 1884.00
1808, 1884.00
1809, 1885.00
1810, 1881.00
1811, 1880.00
1812, 1882.00
1813, 1880.00
1814, 1881.00
1815, 1879.00
1816, 1881.00
1817, 1877.00
1818, 1878.00
1819, 1878.00
1820, 1877.00
1821, 1875.00
1822, 1875.00
1823, 1873.00
1824, 1872.00
1825, 1872.00
1826, 1869.00
1827, 1870.00
1828, 1869.00
1829, 1869.00
1830, 1866.00
1831, 1865.00
1832, 1863.00
1833, 1862.00
1834, 1862.00
1835, 1861.00
1836, 1858.00
1837, 1858.00
1838, 1857.00
1839, 1853.00
1840, 1852.00
1841, 1851.00
1842, 1849.00
1843, 1847.00
1844, 1847.00
1845, 1843.00
1846, 1843.00
1847, 1841.00
1848, 1837.00
1849, 1835.00
1850, 1834.00
1851, 1833.00
1852, 1831.00
1853, 1830.00
1854, 1827.00
1855, 1824.00
1856, 1825.00
1857, 1823.00
1858, 1821.00
1859, 1818.00
1860, 1817.00
1861, 1816.00
1862, 1814.00
1863, 1813.00
1864, 1813.00
1865, 1810.00
1866, 1810.00
1867, 1808.00
1868, 1806.00
1869, 1806.00
1870, 1804.00
1871, 1805.00
1872, 1802.00
1873, 1804.00
1874, 1802.00
1875, 1802.00
1876, 1799.00
1877, 1799.00
1878, 1799.00
1879, 1797.00
1880, 1797.00
1881, 1795.00
1882, 1795.00
1883, 1795.00
1884, 1793.00
1885, 1795.00
1886, 1794.00
1887, 1793.00
1888, 1791.00
1889, 1791.00
1890, 1791.00
1891, 1791.00
1892, 1791.00
1893, 1791.00
1894, 1791.00
1895, 1791.00
1896, 1789.00
1897, 1790.00
1898, 1788.00
1899, 1788.00
1900, 1789.00
1901, 1789.00
1902, 1787.00
1903, 1786.00
1904, 1789.00
1905, 1786.00
1906, 1787.00
1907, 1787.00
1908, 1789.00
1909, 1787.00
1910, 1787.00
1911, 1788.00
1912, 1787.00
1913, 1786.00
1914, 1786.00
1915, 1786.00
1916, 1785.00
1917, 1785.00
1918, 1787.00
1919, 1785.00
1920, 1786.00
1921, 1787.00
1922, 1785.00
1923, 1784.00
1924, 1786.00
1925, 1785.00
1926, 1785.00
1927, 1783.00
1928, 1783.00
1929, 1784.00
1930, 1786.00
1931, 1785.00
1932, 1784.00
1933, 1785.00
1934, 1785.00
1935, 1786.00
1936, 1785.00
1937, 1785.00
1938, 1785.00
1939, 1783.00
1940, 1784.00
1941, 1785.00
1942, 1786.00
1943, 1787.00
1944, 1787.00
1945, 1785.00
1946, 1786.00
1947, 1786.00
1948, 1786.00
1949, 1786.00
1950, 1786.00
1951, 1787.00
1952, 1787.00
1953, 1787.00
1954, 1789.00
1955, 1789.00
1956, 1787.00
1957, 1789.00
1958, 1787.00
1959, 1789.00
1960, 1789.00
1961, 1789.00
1962, 1787.00
1963, 1790.00
1964, 1789.00
1965, 1792.00
1966, 1792.00
1967, 1792.00
1968, 1791.00
1969, 1791.00
1970, 1791.00
1971, 1792.00
1972, 1793.00
1973, 1792.00
1974, 1793.00
1975, 1794.00
1976, 1793.00
1977, 1793.00
1978, 1794.00
1979, 1795.00
1980, 1795.00
1981, 1796.00
1982, 1796.00
1983, 1794.00
1984, 1796.00
1985, 1796.00
1986, 1797.00
1987, 1797.00
1988, 1798.00
1989, 1800.00
1990, 1799.00
1991, 1799.00
1992, 1801.00
1993, 1799.00
1994, 1800.00
1995, 1799.00
1996, 1802.00
1997, 1800.00
1998, 1801.00
1999, 1802.00
2000, 1804.00
2001, 1802.00
2002, 1802.00
2003, 1803.00
2004, 1802.00
2005, 1803.00
2006, 1806.00
2007, 1803.00
2008, 1803.00
2009, 1805.00
2010, 1806.00
2011, 1807.00
2012, 1810.00
2013, 1806.00
2014, 1808.00
2015, 1809.00
2016, 1807.00
2017, 1810.00
2018, 1807.00
2019, 1810.00
2020, 1810.00
2021, 1810.00
2022, 1811.00
2023, 1811.00
2024, 1812.00
2025, 1811.00
2026, 1812.00
2027, 1813.00
2028, 1812.00
2029, 1815.00
2030, 1813.00
2031, 1814.00
2032, 1815.00
2033, 1815.00
2034, 1816.00
2035, 1816.00
2036, 1817.00
2037, 1817.00
2038, 1819.00
2039, 1818.00
2040, 1819.00
2041, 1820.00
2042, 1818.00
2043, 1821.00
2044, 1820.00
2045, 1820.00
2046, 1824.00
2047, 1823.00
2048, 1825.00
2049, 1824.00
2050, 1824.00
2051, 1826.00
2052, 1826.00
2053, 1825.00
2054, 1827.00
2055, 1828.00
2056, 1829.00
2057, 1828.00
2058, 1829.00
2059, 1831.00
2060, 1831.00
2061, 1831.00
2062, 1832.00
2063, 1832.00
2064, 1833.00
2065, 1835.00
2066, 1836.00
2067, 1834.00
2068, 1836.00
2069, 1837.00
2070, 1836.00
2071, 1836.00
2072, 1838.00
2073, 1839.00
2074, 1838.00
2075, 1840.00
2076, 1841.00
2077, 1842.00
2078, 1842.00
2079, 1841.00
2080, 1843.00
2081, 1844.00
2082, 1844.00
2083, 1843.00
2084, 1844.00
2085, 1846.00
2086, 1846.00
2087, 1847.00
2088, 1847.00
2089, 1847.00
2090, 1848.00
2091, 1848.00
2092, 1849.00
2093, 1849.00
2094, 1852.00
2095, 1849.00
2096, 1850.00
2097, 1851.00
2098, 1852.00
2099, 1852.00
2100, 1853.00
2101, 1851.00
2102, 1854.00
2103, 1854.00
2104, 1854.00
2105, 1855.00
2106, 1854.00
2107, 1853.00
2108, 1857.00
2109, 1855.00
2110, 1856.00
2111, 1856.00
2112, 1857.00
2113, 1858.00
2114, 1856.00
2115, 1858.00
2116, 1859.00
2117, 1858.00
2118, 1859.00
2119, 1860.00
2120, 1859.00
2121, 1859.00
2122, 1861.00
2123, 1860.00
2124, 1861.00
2125, 1860.00
2126, 1862.00
2127, 1863.00
2128, 1861.00
2129, 1863.00
2130, 1861.00
2131, 1863.00
2132, 1864.00
2133, 1865.00
2134, 1862.00
2135, 1863.00
2136, 1866.00
2137, 1863.00
2138, 1865.00
2139, 1864.00
2140, 1866.00
2141, 1864.00
2142, 1865.00
2143, 1867.00
2144, 1865.00
2145, 1866.00
2146, 1866.00
2147, 1865.00
2148, 1865.00
2149, 1867.00
2150, 1865.00
