FW version: 24
Log Version: 3.0.3

General Info:
       Command/Macro Performed,            Timestamp,             Device ID, COM Port, UART/I2C, Test Name, Host Major, Host Minor, Host Revision, Host Git Commit
            Single_measurement,  2023_06_29_11_24_13,       Insight2_F4_xxx,    USB-C,      USB,          ,          0,          1,             1,      4031237645

Show Spectrometer Status:
l0_version, f4_version, battery_perc, battery_mVolt, accelerometer_temp, accelerometer_x, accelerometer_y, accelerometer_z, compass_temp, compass_x, compass_y, compass_z, lamp_0, lamp_1, gain_0, gain_1
        17,         24,           94,          2078,               5536,           65428,              96,           18352,            0,     65492,     65384,     65535,   3276,   3276,      0,      0

Temperature Statistic Info:
NTC AVG [°C], NTC2 AVG [°C]
      36.322,        35.976

Statistic Info:
M1:  num,      min,      max,   median,      AVG,      STD,M2:  num,      min,      max,   median,      AVG,      STD
     301,   591.00,   676.00,   608.00,   618.89,  26.5139,     401,   770.00,   821.00,   790.00,   791.72,  16.3402,

Measurements:
Wavelength, Data Amplitude
1350, 608.00
1351, 608.00
1352, 608.00
1353, 608.00
1354, 607.00
1355, 607.00
1356, 606.00
1357, 606.00
1358, 606.00
1359, 605.00
1360, 605.00
1361, 605.00
1362, 604.00
1363, 604.00
1364, 603.00
1365, 604.00
1366, 602.00
1367, 602.00
1368, 602.00
1369, 601.00
1370, 601.00
1371, 600.00
1372, 599.00
1373, 599.00
1374, 599.00
1375, 599.00
1376, 598.00
1377, 598.00
1378, 597.00
1379, 597.00
1380, 597.00
1381, 596.00
1382, 596.00
1383, 596.00
1384, 595.00
1385, 594.00
1386, 595.00
1387, 595.00
1388, 594.00
1389, 594.00
1390, 594.00
1391, 594.00
1392, 594.00
1393, 594.00
1394, 593.00
1395, 593.00
1396, 593.00
1397, 593.00
1398, 592.00
1399, 592.00
1400, 592.00
1401, 592.00
1402, 592.00
1403, 592.00
1404, 592.00
1405, 592.00
1406, 592.00
1407, 592.00
1408, 592.00
1409, 592.00
1410, 592.00
1411, 592.00
1412, 591.00
1413, 591.00
1414, 591.00
1415, 591.00
1416, 591.00
1417, 592.00
1418, 591.00
1419, 591.00
1420, 591.00
1421, 591.00
1422, 591.00
1423, 591.00
1424, 591.00
1425, 591.00
1426, 591.00
1427, 591.00
1428, 591.00
1429, 591.00
1430, 592.00
1431, 591.00
1432, 592.00
1433, 591.00
1434, 592.00
1435, 592.00
1436, 592.00
1437, 592.00
1438, 592.00
1439, 592.00
1440, 592.00
1441, 592.00
1442, 592.00
1443, 593.00
1444, 592.00
1445, 593.00
1446, 593.00
1447, 593.00
1448, 594.00
1449, 594.00
1450, 593.00
1451, 594.00
1452, 594.00
1453, 594.00
1454, 594.00
1455, 594.00
1456, 595.00
1457, 594.00
1458, 595.00
1459, 595.00
1460, 595.00
1461, 596.00
1462, 595.00
1463, 596.00
1464, 596.00
1465, 597.00
1466, 597.00
1467, 598.00
1468, 597.00
1469, 598.00
1470, 598.00
1471, 598.00
1472, 598.00
1473, 599.00
1474, 599.00
1475, 599.00
1476, 599.00
1477, 600.00
1478, 600.00
1479, 601.00
1480, 600.00
1481, 601.00
1482, 601.00
1483, 602.00
1484, 602.00
1485, 602.00
1486, 603.00
1487, 603.00
1488, 604.00
1489, 604.00
1490, 604.00
1491, 605.00
1492, 605.00
1493, 605.00
1494, 605.00
1495, 606.00
1496, 606.00
1497, 606.00
1498, 607.00
1499, 608.00
1500, 608.00
1501, 608.00
1502, 608.00
1503, 608.00
1504, 609.00
1505, 610.00
1506, 609.00
1507, 610.00
1508, 611.00
1509, 611.00
1510, 611.00
1511, 612.00
1512, 612.00
1513, 612.00
1514, 613.00
1515, 614.00
1516, 614.00
1517, 614.00
1518, 614.00
1519, 616.00
1520, 616.00
1521, 616.00
1522, 616.00
1523, 617.00
1524, 617.00
1525, 617.00
1526, 618.00
1527, 619.00
1528, 619.00
1529, 619.00
1530, 620.00
1531, 620.00
1532, 621.00
1533, 621.00
1534, 621.00
1535, 621.00
1536, 622.00
1537, 623.00
1538, 624.00
1539, 624.00
1540, 624.00
1541, 625.00
1542, 625.00
1543, 625.00
1544, 626.00
1545, 626.00
1546, 627.00
1547, 627.00
1548, 628.00
1549, 628.00
1550, 628.00
1551, 629.00
1552, 630.00
1553, 629.00
1554, 631.00
1555, 631.00
1556, 631.00
1557, 632.00
1558, 632.00
1559, 633.00
1560, 633.00
1561, 634.00
1562, 634.00
1563, 634.00
1564, 635.00
1565, 636.00
1566, 636.00
1567, 637.00
1568, 637.00
1569, 637.00
1570, 638.00
1571, 639.00
1572, 639.00
1573, 640.00
1574, 640.00
1575, 640.00
1576, 641.00
1577, 641.00
1578, 641.00
1579, 642.00
1580, 642.00
1581, 643.00
1582, 644.00
1583, 644.00
1584, 644.00
1585, 645.00
1586, 646.00
1587, 646.00
1588, 646.00
1589, 647.00
1590, 647.00
1591, 647.00
1592, 648.00
1593, 648.00
1594, 648.00
1595, 649.00
1596, 649.00
1597, 650.00
1598, 650.00
1599, 651.00
1600, 651.00
1601, 652.00
1602, 652.00
1603, 653.00
1604, 653.00
1605, 654.00
1606, 654.00
1607, 655.00
1608, 656.00
1609, 656.00
1610, 656.00
1611, 657.00
1612, 657.00
1613, 658.00
1614, 658.00
1615, 659.00
1616, 660.00
1617, 660.00
1618, 661.00
1619, 662.00
1620, 661.00
1621, 662.00
1622, 663.00
1623, 663.00
1624, 664.00
1625, 665.00
1626, 665.00
1627, 666.00
1628, 666.00
1629, 666.00
1630, 667.00
1631, 668.00
1632, 669.00
1633, 669.00
1634, 670.00
1635, 670.00
1636, 670.00
1637, 671.00
1638, 671.00
1639, 672.00
1640, 672.00
1641, 672.00
1642, 673.00
1643, 674.00
1644, 674.00
1645, 675.00
1646, 675.00
1647, 675.00
1648, 675.00
1649, 676.00
1650, 676.00

1750, 820.00
1751, 820.00
1752, 821.00
1753, 820.00
1754, 820.00
1755, 821.00
1756, 821.00
1757, 821.00
1758, 821.00
1759, 821.00
1760, 821.00
1761, 821.00
1762, 821.00
1763, 821.00
1764, 821.00
1765, 820.00
1766, 820.00
1767, 820.00
1768, 820.00
1769, 820.00
1770, 820.00
1771, 820.00
1772, 821.00
1773, 820.00
1774, 820.00
1775, 820.00
1776, 819.00
1777, 819.00
1778, 819.00
1779, 818.00
1780, 818.00
1781, 819.00
1782, 819.00
1783, 818.00
1784, 817.00
1785, 818.00
1786, 817.00
1787, 817.00
1788, 817.00
1789, 817.00
1790, 817.00
1791, 817.00
1792, 816.00
1793, 816.00
1794, 817.00
1795, 816.00
1796, 816.00
1797, 816.00
1798, 815.00
1799, 815.00
1800, 815.00
1801, 814.00
1802, 815.00
1803, 815.00
1804, 815.00
1805, 814.00
1806, 814.00
1807, 814.00
1808, 814.00
1809, 813.00
1810, 814.00
1811, 813.00
1812, 814.00
1813, 813.00
1814, 813.00
1815, 813.00
1816, 813.00
1817, 812.00
1818, 811.00
1819, 811.00
1820, 810.00
1821, 811.00
1822, 810.00
1823, 810.00
1824, 809.00
1825, 809.00
1826, 809.00
1827, 808.00
1828, 807.00
1829, 807.00
1830, 807.00
1831, 806.00
1832, 806.00
1833, 805.00
1834, 805.00
1835, 805.00
1836, 803.00
1837, 803.00
1838, 802.00
1839, 802.00
1840, 801.00
1841, 801.00
1842, 800.00
1843, 798.00
1844, 799.00
1845, 797.00
1846, 797.00
1847, 795.00
1848, 795.00
1849, 793.00
1850, 793.00
1851, 792.00
1852, 793.00
1853, 791.00
1854, 790.00
1855, 789.00
1856, 788.00
1857, 789.00
1858, 787.00
1859, 786.00
1860, 785.00
1861, 785.00
1862, 785.00
1863, 784.00
1864, 783.00
1865, 783.00
1866, 782.00
1867, 782.00
1868, 781.00
1869, 780.00
1870, 780.00
1871, 779.00
1872, 779.00
1873, 778.00
1874, 778.00
1875, 778.00
1876, 778.00
1877, 778.00
1878, 778.00
1879, 778.00
1880, 777.00
1881, 777.00
1882, 776.00
1883, 776.00
1884, 776.00
1885, 775.00
1886, 775.00
1887, 775.00
1888, 775.00
1889, 775.00
1890, 775.00
1891, 774.00
1892, 774.00
1893, 774.00
1894, 774.00
1895, 773.00
1896, 773.00
1897, 774.00
1898, 773.00
1899, 773.00
1900, 772.00
1901, 773.00
1902, 773.00
1903, 773.00
1904, 773.00
1905, 772.00
1906, 772.00
1907, 772.00
1908, 772.00
1909, 771.00
1910, 772.00
1911, 771.00
1912, 772.00
1913, 772.00
1914, 772.00
1915, 772.00
1916, 772.00
1917, 771.00
1918, 772.00
1919, 771.00
1920, 771.00
1921, 771.00
1922, 771.00
1923, 772.00
1924, 771.00
1925, 772.00
1926, 771.00
1927, 771.00
1928, 771.00
1929, 772.00
1930, 771.00
1931, 771.00
1932, 772.00
1933, 771.00
1934, 770.00
1935, 772.00
1936, 771.00
1937, 772.00
1938, 772.00
1939, 771.00
1940, 772.00
1941, 771.00
1942, 772.00
1943, 772.00
1944, 772.00
1945, 772.00
1946, 772.00
1947, 771.00
1948, 772.00
1949, 772.00
1950, 772.00
1951, 773.00
1952, 772.00
1953, 772.00
1954, 772.00
1955, 772.00
1956, 772.00
1957, 772.00
1958, 772.00
1959, 773.00
1960, 773.00
1961, 774.00
1962, 773.00
1963, 773.00
1964, 773.00
1965, 773.00
1966, 774.00
1967, 773.00
1968, 773.00
1969, 774.00
1970, 774.00
1971, 774.00
1972, 774.00
1973, 775.00
1974, 775.00
1975, 774.00
1976, 776.00
1977, 775.00
1978, 776.00
1979, 776.00
1980, 776.00
1981, 776.00
1982, 776.00
1983, 776.00
1984, 777.00
1985, 776.00
1986, 777.00
1987, 777.00
1988, 777.00
1989, 776.00
1990, 777.00
1991, 777.00
1992, 778.00
1993, 778.00
1994, 778.00
1995, 778.00
1996, 778.00
1997, 779.00
1998, 778.00
1999, 778.00
2000, 778.00
2001, 779.00
2002, 779.00
2003, 779.00
2004, 779.00
2005, 780.00
2006, 780.00
2007, 780.00
2008, 780.00
2009, 780.00
2010, 780.00
2011, 780.00
2012, 780.00
2013, 780.00
2014, 781.00
2015, 780.00
2016, 781.00
2017, 781.00
2018, 781.00
2019, 782.00
2020, 781.00
2021, 782.00
2022, 783.00
2023, 782.00
2024, 783.00
2025, 783.00
2026, 783.00
2027, 783.00
2028, 783.00
2029, 784.00
2030, 784.00
2031, 784.00
2032, 784.00
2033, 785.00
2034, 784.00
2035, 785.00
2036, 785.00
2037, 785.00
2038, 785.00
2039, 786.00
2040, 786.00
2041, 786.00
2042, 786.00
2043, 786.00
2044, 787.00
2045, 786.00
2046, 786.00
2047, 787.00
2048, 788.00
2049, 788.00
2050, 788.00
2051, 788.00
2052, 789.00
2053, 789.00
2054, 788.00
2055, 790.00
2056, 790.00
2057, 790.00
2058, 790.00
2059, 790.00
2060, 790.00
2061, 791.00
2062, 792.00
2063, 791.00
2064, 792.00
2065, 792.00
2066, 792.00
2067, 793.00
2068, 793.00
2069, 793.00
2070, 793.00
2071, 793.00
2072, 794.00
2073, 795.00
2074, 795.00
2075, 794.00
2076, 796.00
2077, 795.00
2078, 795.00
2079, 796.00
2080, 795.00
2081, 795.00
2082, 795.00
2083, 796.00
2084, 797.00
2085, 797.00
2086, 798.00
2087, 798.00
2088, 798.00
2089, 798.00
2090, 798.00
2091, 798.00
2092, 798.00
2093, 798.00
2094, 799.00
2095, 799.00
2096, 799.00
2097, 800.00
2098, 800.00
2099, 800.00
2100, 800.00
2101, 800.00
2102, 800.00
2103, 801.00
2104, 801.00
2105, 801.00
2106, 801.00
2107, 801.00
2108, 801.00
2109, 802.00
2110, 801.00
2111, 802.00
2112, 802.00
2113, 802.00
2114, 802.00
2115, 802.00
2116, 803.00
2117, 803.00
2118, 803.00
2119, 803.00
2120, 803.00
2121, 803.00
2122, 803.00
2123, 803.00
2124, 803.00
2125, 803.00
2126, 804.00
2127, 804.00
2128, 804.00
2129, 804.00
2130, 804.00
2131, 804.00
2132, 804.00
2133, 804.00
2134, 804.00
2135, 805.00
2136, 804.00
2137, 805.00
2138, 804.00
2139, 805.00
2140, 804.00
2141, 805.00
2142, 805.00
2143, 805.00
2144, 806.00
2145, 806.00
2146, 805.00
2147, 806.00
2148, 806.00
2149, 805.00
2150, 805.00
