FW version: 24
Log Version: 3.0.3

General Info:
       Command/Macro Performed,            Timestamp,             Device ID, COM Port, UART/I2C, Test Name, Host Major, Host Minor, Host Revision, Host Git Commit
            Single_measurement,  2023_06_29_11_25_03,       Insight2_F4_xxx,    USB-C,      USB,          ,          0,          1,             1,      4031237645

Show Spectrometer Status:
l0_version, f4_version, battery_perc, battery_mVolt, accelerometer_temp, accelerometer_x, accelerometer_y, accelerometer_z, compass_temp, compass_x, compass_y, compass_z, lamp_0, lamp_1, gain_0, gain_1
        17,         24,           94,          2075,               5600,           65452,             112,           18404,            0,     65519,     65395,     65517,   2866,   2866,      1,      1

Temperature Statistic Info:
NTC AVG [°C], NTC2 AVG [°C]
      36.665,        36.293

Statistic Info:
M1:  num,      min,      max,   median,      AVG,      STD,M2:  num,      min,      max,   median,      AVG,      STD
     301,  1321.00,  1521.00,  1361.00,  1386.51,  61.5357,     401,  1785.00,  1902.00,  1830.00,  1834.29,  37.9414,

Measurements:
Wavelength, Data Amplitude
1350, 1358.00
1351, 1358.00
1352, 1358.00
1353, 1357.00
1354, 1356.00
1355, 1356.00
1356, 1355.00
1357, 1354.00
1358, 1355.00
1359, 1354.00
1360, 1353.00
1361, 1352.00
1362, 1351.00
1363, 1349.00
1364, 1347.00
1365, 1347.00
1366, 1346.00
1367, 1346.00
1368, 1345.00
1369, 1343.00
1370, 1344.00
1371, 1342.00
1372, 1341.00
1373, 1339.00
1374, 1339.00
1375, 1338.00
1376, 1336.00
1377, 1335.00
1378, 1334.00
1379, 1335.00
1380, 1333.00
1381, 1333.00
1382, 1333.00
1383, 1331.00
1384, 1332.00
1385, 1332.00
1386, 1330.00
1387, 1329.00
1388, 1328.00
1389, 1329.00
1390, 1327.00
1391, 1327.00
1392, 1327.00
1393, 1326.00
1394, 1326.00
1395, 1325.00
1396, 1326.00
1397, 1325.00
1398, 1326.00
1399, 1325.00
1400, 1325.00
1401, 1325.00
1402, 1324.00
1403, 1323.00
1404, 1324.00
1405, 1324.00
1406, 1323.00
1407, 1323.00
1408, 1323.00
1409, 1323.00
1410, 1324.00
1411, 1322.00
1412, 1323.00
1413, 1322.00
1414, 1322.00
1415, 1322.00
1416, 1321.00
1417, 1321.00
1418, 1322.00
1419, 1321.00
1420, 1322.00
1421, 1322.00
1422, 1322.00
1423, 1322.00
1424, 1323.00
1425, 1322.00
1426, 1323.00
1427, 1323.00
1428, 1322.00
1429, 1323.00
1430, 1322.00
1431, 1323.00
1432, 1323.00
1433, 1322.00
1434, 1324.00
1435, 1324.00
1436, 1325.00
1437, 1325.00
1438, 1326.00
1439, 1326.00
1440, 1325.00
1441, 1326.00
1442, 1325.00
1443, 1326.00
1444, 1325.00
1445, 1326.00
1446, 1326.00
1447, 1326.00
1448, 1327.00
1449, 1329.00
1450, 1329.00
1451, 1329.00
1452, 1329.00
1453, 1329.00
1454, 1329.00
1455, 1330.00
1456, 1330.00
1457, 1331.00
1458, 1332.00
1459, 1332.00
1460, 1333.00
1461, 1335.00
1462, 1334.00
1463, 1335.00
1464, 1335.00
1465, 1335.00
1466, 1335.00
1467, 1337.00
1468, 1336.00
1469, 1338.00
1470, 1338.00
1471, 1340.00
1472, 1340.00
1473, 1340.00
1474, 1342.00
1475, 1342.00
1476, 1344.00
1477, 1343.00
1478, 1344.00
1479, 1344.00
1480, 1344.00
1481, 1345.00
1482, 1347.00
1483, 1347.00
1484, 1349.00
1485, 1349.00
1486, 1350.00
1487, 1351.00
1488, 1352.00
1489, 1352.00
1490, 1353.00
1491, 1354.00
1492, 1355.00
1493, 1355.00
1494, 1356.00
1495, 1357.00
1496, 1359.00
1497, 1360.00
1498, 1360.00
1499, 1360.00
1500, 1361.00
1501, 1362.00
1502, 1362.00
1503, 1364.00
1504, 1363.00
1505, 1366.00
1506, 1366.00
1507, 1368.00
1508, 1369.00
1509, 1369.00
1510, 1370.00
1511, 1370.00
1512, 1372.00
1513, 1373.00
1514, 1374.00
1515, 1374.00
1516, 1374.00
1517, 1375.00
1518, 1377.00
1519, 1378.00
1520, 1380.00
1521, 1381.00
1522, 1381.00
1523, 1383.00
1524, 1384.00
1525, 1385.00
1526, 1385.00
1527, 1387.00
1528, 1387.00
1529, 1388.00
1530, 1389.00
1531, 1390.00
1532, 1392.00
1533, 1392.00
1534, 1394.00
1535, 1394.00
1536, 1396.00
1537, 1396.00
1538, 1398.00
1539, 1398.00
1540, 1399.00
1541, 1400.00
1542, 1401.00
1543, 1402.00
1544, 1402.00
1545, 1404.00
1546, 1405.00
1547, 1406.00
1548, 1407.00
1549, 1408.00
1550, 1410.00
1551, 1410.00
1552, 1411.00
1553, 1411.00
1554, 1412.00
1555, 1413.00
1556, 1415.00
1557, 1417.00
1558, 1418.00
1559, 1419.00
1560, 1419.00
1561, 1421.00
1562, 1422.00
1563, 1423.00
1564, 1424.00
1565, 1424.00
1566, 1426.00
1567, 1427.00
1568, 1428.00
1569, 1429.00
1570, 1431.00
1571, 1433.00
1572, 1433.00
1573, 1433.00
1574, 1435.00
1575, 1436.00
1576, 1438.00
1577, 1438.00
1578, 1440.00
1579, 1441.00
1580, 1442.00
1581, 1442.00
1582, 1444.00
1583, 1445.00
1584, 1445.00
1585, 1447.00
1586, 1447.00
1587, 1448.00
1588, 1449.00
1589, 1450.00
1590, 1452.00
1591, 1453.00
1592, 1454.00
1593, 1454.00
1594, 1455.00
1595, 1457.00
1596, 1457.00
1597, 1458.00
1598, 1460.00
1599, 1460.00
1600, 1462.00
1601, 1463.00
1602, 1463.00
1603, 1465.00
1604, 1466.00
1605, 1467.00
1606, 1469.00
1607, 1469.00
1608, 1471.00
1609, 1471.00
1610, 1473.00
1611, 1476.00
1612, 1476.00
1613, 1478.00
1614, 1478.00
1615, 1479.00
1616, 1481.00
1617, 1483.00
1618, 1483.00
1619, 1484.00
1620, 1486.00
1621, 1487.00
1622, 1488.00
1623, 1489.00
1624, 1492.00
1625, 1493.00
1626, 1494.00
1627, 1495.00
1628, 1497.00
1629, 1497.00
1630, 1499.00
1631, 1501.00
1632, 1502.00
1633, 1503.00
1634, 1503.00
1635, 1504.00
1636, 1505.00
1637, 1506.00
1638, 1507.00
1639, 1509.00
1640, 1509.00
1641, 1511.00
1642, 1512.00
1643, 1513.00
1644, 1514.00
1645, 1515.00
1646, 1516.00
1647, 1518.00
1648, 1519.00
1649, 1520.00
1650, 1521.00

1750, 1900.00
1751, 1900.00
1752, 1900.00
1753, 1902.00
1754, 1900.00
1755, 1902.00
1756, 1902.00
1757, 1900.00
1758, 1900.00
1759, 1900.00
1760, 1901.00
1761, 1900.00
1762, 1901.00
1763, 1900.00
1764, 1901.00
1765, 1899.00
1766, 1901.00
1767, 1900.00
1768, 1899.00
1769, 1900.00
1770, 1900.00
1771, 1899.00
1772, 1899.00
1773, 1898.00
1774, 1896.00
1775, 1897.00
1776, 1898.00
1777, 1895.00
1778, 1897.00
1779, 1895.00
1780, 1896.00
1781, 1895.00
1782, 1897.00
1783, 1896.00
1784, 1895.00
1785, 1896.00
1786, 1895.00
1787, 1892.00
1788, 1893.00
1789, 1892.00
1790, 1891.00
1791, 1891.00
1792, 1892.00
1793, 1891.00
1794, 1890.00
1795, 1891.00
1796, 1889.00
1797, 1888.00
1798, 1889.00
1799, 1888.00
1800, 1888.00
1801, 1887.00
1802, 1886.00
1803, 1886.00
1804, 1887.00
1805, 1887.00
1806, 1886.00
1807, 1886.00
1808, 1886.00
1809, 1885.00
1810, 1884.00
1811, 1884.00
1812, 1884.00
1813, 1882.00
1814, 1883.00
1815, 1883.00
1816, 1881.00
1817, 1880.00
1818, 1881.00
1819, 1878.00
1820, 1879.00
1821, 1878.00
1822, 1875.00
1823, 1876.00
1824, 1873.00
1825, 1874.00
1826, 1871.00
1827, 1871.00
1828, 1871.00
1829, 1868.00
1830, 1868.00
1831, 1868.00
1832, 1866.00
1833, 1863.00
1834, 1864.00
1835, 1862.00
1836, 1861.00
1837, 1858.00
1838, 1857.00
1839, 1856.00
1840, 1854.00
1841, 1853.00
1842, 1853.00
1843, 1850.00
1844, 1847.00
1845, 1847.00
1846, 1845.00
1847, 1842.00
1848, 1841.00
1849, 1838.00
1850, 1837.00
1851, 1834.00
1852, 1833.00
1853, 1830.00
1854, 1830.00
1855, 1828.00
1856, 1827.00
1857, 1825.00
1858, 1823.00
1859, 1821.00
1860, 1820.00
1861, 1817.00
1862, 1816.00
1863, 1816.00
1864, 1813.00
1865, 1815.00
1866, 1810.00
1867, 1811.00
1868, 1811.00
1869, 1808.00
1870, 1807.00
1871, 1808.00
1872, 1804.00
1873, 1803.00
1874, 1803.00
1875, 1801.00
1876, 1800.00
1877, 1800.00
1878, 1799.00
1879, 1799.00
1880, 1800.00
1881, 1797.00
1882, 1797.00
1883, 1796.00
1884, 1797.00
1885, 1798.00
1886, 1794.00
1887, 1795.00
1888, 1794.00
1889, 1791.00
1890, 1791.00
1891, 1794.00
1892, 1794.00
1893, 1791.00
1894, 1793.00
1895, 1792.00
1896, 1791.00
1897, 1792.00
1898, 1790.00
1899, 1791.00
1900, 1791.00
1901, 1790.00
1902, 1789.00
1903, 1789.00
1904, 1789.00
1905, 1789.00
1906, 1789.00
1907, 1790.00
1908, 1789.00
1909, 1789.00
1910, 1789.00
1911, 1788.00
1912, 1787.00
1913, 1787.00
1914, 1788.00
1915, 1787.00
1916, 1787.00
1917, 1787.00
1918, 1788.00
1919, 1789.00
1920, 1787.00
1921, 1785.00
1922, 1787.00
1923, 1786.00
1924, 1786.00
1925, 1786.00
1926, 1785.00
1927, 1786.00
1928, 1785.00
1929, 1787.00
1930, 1787.00
1931, 1785.00
1932, 1786.00
1933, 1786.00
1934, 1787.00
1935, 1786.00
1936, 1785.00
1937, 1787.00
1938, 1787.00
1939, 1787.00
1940, 1787.00
1941, 1787.00
1942, 1787.00
1943, 1788.00
1944, 1787.00
1945, 1788.00
1946, 1787.00
1947, 1786.00
1948, 1788.00
1949, 1787.00
1950, 1788.00
1951, 1789.00
1952, 1788.00
1953, 1789.00
1954, 1788.00
1955, 1790.00
1956, 1790.00
1957, 1790.00
1958, 1790.00
1959, 1791.00
1960, 1789.00
1961, 1790.00
1962, 1791.00
1963, 1791.00
1964, 1793.00
1965, 1791.00
1966, 1791.00
1967, 1791.00
1968, 1794.00
1969, 1792.00
1970, 1795.00
1971, 1792.00
1972, 1795.00
1973, 1794.00
1974, 1796.00
1975, 1796.00
1976, 1796.00
1977, 1796.00
1978, 1794.00
1979, 1796.00
1980, 1798.00
1981, 1795.00
1982, 1800.00
1983, 1797.00
1984, 1799.00
1985, 1800.00
1986, 1800.00
1987, 1800.00
1988, 1801.00
1989, 1802.00
1990, 1800.00
1991, 1802.00
1992, 1802.00
1993, 1800.00
1994, 1801.00
1995, 1801.00
1996, 1802.00
1997, 1802.00
1998, 1803.00
1999, 1804.00
2000, 1807.00
2001, 1805.00
2002, 1804.00
2003, 1805.00
2004, 1806.00
2005, 1806.00
2006, 1807.00
2007, 1805.00
2008, 1807.00
2009, 1807.00
2010, 1809.00
2011, 1809.00
2012, 1810.00
2013, 1811.00
2014, 1810.00
2015, 1810.00
2016, 1810.00
2017, 1809.00
2018, 1810.00
2019, 1811.00
2020, 1811.00
2021, 1811.00
2022, 1812.00
2023, 1812.00
2024, 1813.00
2025, 1815.00
2026, 1815.00
2027, 1812.00
2028, 1815.00
2029, 1816.00
2030, 1816.00
2031, 1816.00
2032, 1817.00
2033, 1817.00
2034, 1818.00
2035, 1819.00
2036, 1819.00
2037, 1819.00
2038, 1820.00
2039, 1820.00
2040, 1821.00
2041, 1822.00
2042, 1822.00
2043, 1823.00
2044, 1822.00
2045, 1823.00
2046, 1823.00
2047, 1824.00
2048, 1824.00
2049, 1826.00
2050, 1826.00
2051, 1827.00
2052, 1827.00
2053, 1829.00
2054, 1829.00
2055, 1830.00
2056, 1832.00
2057, 1831.00
2058, 1830.00
2059, 1833.00
2060, 1832.00
2061, 1832.00
2062, 1833.00
2063, 1833.00
2064, 1835.00
2065, 1838.00
2066, 1837.00
2067, 1839.00
2068, 1837.00
2069, 1839.00
2070, 1839.00
2071, 1840.00
2072, 1840.00
2073, 1840.00
2074, 1841.00
2075, 1843.00
2076, 1842.00
2077, 1843.00
2078, 1842.00
2079, 1845.00
2080, 1844.00
2081, 1844.00
2082, 1846.00
2083, 1846.00
2084, 1848.00
2085, 1849.00
2086, 1847.00
2087, 1849.00
2088, 1848.00
2089, 1852.00
2090, 1849.00
2091, 1849.00
2092, 1851.00
2093, 1851.00
2094, 1853.00
2095, 1855.00
2096, 1854.00
2097, 1854.00
2098, 1854.00
2099, 1855.00
2100, 1854.00
2101, 1855.00
2102, 1855.00
2103, 1856.00
2104, 1857.00
2105, 1858.00
2106, 1857.00
2107, 1856.00
2108, 1857.00
2109, 1857.00
2110, 1858.00
2111, 1859.00
2112, 1859.00
2113, 1860.00
2114, 1860.00
2115, 1860.00
2116, 1861.00
2117, 1860.00
2118, 1860.00
2119, 1861.00
2120, 1861.00
2121, 1861.00
2122, 1863.00
2123, 1862.00
2124, 1864.00
2125, 1863.00
2126, 1863.00
2127, 1863.00
2128, 1863.00
2129, 1864.00
2130, 1866.00
2131, 1864.00
2132, 1865.00
2133, 1866.00
2134, 1867.00
2135, 1866.00
2136, 1865.00
2137, 1865.00
2138, 1865.00
2139, 1866.00
2140, 1867.00
2141, 1868.00
2142, 1867.00
2143, 1867.00
2144, 1867.00
2145, 1868.00
2146, 1869.00
2147, 1869.00
2148, 1868.00
2149, 1867.00
2150, 1869.00
