FW version: 24
Log Version: 3.0.3

General Info:
       Command/Macro Performed,            Timestamp,             Device ID, COM Port, UART/I2C, Test Name, Host Major, Host Minor, Host Revision, Host Git Commit
            Single_measurement,  2023_06_30_11_49_56,       Insight2_F4_xxx,    USB-C,      USB,          ,          0,          1,             1,      4031237645

Show Spectrometer Status:
l0_version, f4_version, battery_perc, battery_mVolt, accelerometer_temp, accelerometer_x, accelerometer_y, accelerometer_z, compass_temp, compass_x, compass_y, compass_z, lamp_0, lamp_1, gain_0, gain_1
        17,         24,           95,          2080,               5952,           65484,             156,           18596,            0,     65532,     65501,     65524,   3276,   3276,      1,      1

Temperature Statistic Info:
NTC AVG [°C], NTC2 AVG [°C]
      38.479,        38.187

Statistic Info:
M1:  num,      min,      max,   median,      AVG,      STD,M2:  num,      min,      max,   median,      AVG,      STD
     301,  1831.00,  2095.00,  1887.00,  1918.50,  82.3738,     401,  2415.00,  2576.00,  2481.00,  2485.51,  52.6427,

Measurements:
Wavelength, Data Amplitude
1350, 1879.00
1351, 1879.00
1352, 1877.00
1353, 1877.00
1354, 1875.00
1355, 1875.00
1356, 1873.00
1357, 1872.00
1358, 1871.00
1359, 1871.00
1360, 1871.00
1361, 1868.00
1362, 1868.00
1363, 1866.00
1364, 1865.00
1365, 1864.00
1366, 1863.00
1367, 1862.00
1368, 1861.00
1369, 1859.00
1370, 1859.00
1371, 1856.00
1372, 1856.00
1373, 1854.00
1374, 1853.00
1375, 1851.00
1376, 1849.00
1377, 1850.00
1378, 1847.00
1379, 1847.00
1380, 1847.00
1381, 1846.00
1382, 1845.00
1383, 1843.00
1384, 1843.00
1385, 1843.00
1386, 1842.00
1387, 1840.00
1388, 1840.00
1389, 1840.00
1390, 1838.00
1391, 1839.00
1392, 1838.00
1393, 1838.00
1394, 1838.00
1395, 1837.00
1396, 1835.00
1397, 1835.00
1398, 1836.00
1399, 1835.00
1400, 1835.00
1401, 1835.00
1402, 1836.00
1403, 1833.00
1404, 1834.00
1405, 1834.00
1406, 1832.00
1407, 1833.00
1408, 1833.00
1409, 1832.00
1410, 1834.00
1411, 1832.00
1412, 1833.00
1413, 1832.00
1414, 1831.00
1415, 1832.00
1416, 1831.00
1417, 1831.00
1418, 1832.00
1419, 1831.00
1420, 1831.00
1421, 1831.00
1422, 1832.00
1423, 1831.00
1424, 1833.00
1425, 1833.00
1426, 1831.00
1427, 1831.00
1428, 1832.00
1429, 1831.00
1430, 1833.00
1431, 1834.00
1432, 1834.00
1433, 1833.00
1434, 1834.00
1435, 1834.00
1436, 1834.00
1437, 1836.00
1438, 1835.00
1439, 1836.00
1440, 1837.00
1441, 1837.00
1442, 1837.00
1443, 1838.00
1444, 1838.00
1445, 1839.00
1446, 1839.00
1447, 1839.00
1448, 1840.00
1449, 1841.00
1450, 1841.00
1451, 1842.00
1452, 1842.00
1453, 1843.00
1454, 1843.00
1455, 1843.00
1456, 1845.00
1457, 1845.00
1458, 1845.00
1459, 1847.00
1460, 1848.00
1461, 1848.00
1462, 1849.00
1463, 1848.00
1464, 1850.00
1465, 1852.00
1466, 1852.00
1467, 1853.00
1468, 1854.00
1469, 1855.00
1470, 1855.00
1471, 1856.00
1472, 1857.00
1473, 1859.00
1474, 1859.00
1475, 1860.00
1476, 1860.00
1477, 1862.00
1478, 1862.00
1479, 1863.00
1480, 1865.00
1481, 1865.00
1482, 1866.00
1483, 1867.00
1484, 1869.00
1485, 1869.00
1486, 1870.00
1487, 1872.00
1488, 1873.00
1489, 1874.00
1490, 1875.00
1491, 1877.00
1492, 1878.00
1493, 1879.00
1494, 1880.00
1495, 1880.00
1496, 1881.00
1497, 1883.00
1498, 1884.00
1499, 1885.00
1500, 1887.00
1501, 1887.00
1502, 1888.00
1503, 1890.00
1504, 1891.00
1505, 1892.00
1506, 1892.00
1507, 1893.00
1508, 1895.00
1509, 1896.00
1510, 1898.00
1511, 1899.00
1512, 1901.00
1513, 1902.00
1514, 1902.00
1515, 1903.00
1516, 1905.00
1517, 1906.00
1518, 1907.00
1519, 1908.00
1520, 1910.00
1521, 1911.00
1522, 1913.00
1523, 1914.00
1524, 1914.00
1525, 1917.00
1526, 1917.00
1527, 1918.00
1528, 1921.00
1529, 1921.00
1530, 1922.00
1531, 1924.00
1532, 1926.00
1533, 1926.00
1534, 1928.00
1535, 1929.00
1536, 1932.00
1537, 1932.00
1538, 1933.00
1539, 1935.00
1540, 1935.00
1541, 1938.00
1542, 1938.00
1543, 1940.00
1544, 1941.00
1545, 1943.00
1546, 1943.00
1547, 1946.00
1548, 1947.00
1549, 1948.00
1550, 1948.00
1551, 1950.00
1552, 1951.00
1553, 1953.00
1554, 1955.00
1555, 1956.00
1556, 1958.00
1557, 1960.00
1558, 1961.00
1559, 1963.00
1560, 1963.00
1561, 1964.00
1562, 1967.00
1563, 1968.00
1564, 1971.00
1565, 1971.00
1566, 1973.00
1567, 1974.00
1568, 1976.00
1569, 1977.00
1570, 1979.00
1571, 1980.00
1572, 1982.00
1573, 1983.00
1574, 1985.00
1575, 1985.00
1576, 1987.00
1577, 1991.00
1578, 1991.00
1579, 1991.00
1580, 1993.00
1581, 1995.00
1582, 1996.00
1583, 1997.00
1584, 1998.00
1585, 1999.00
1586, 2001.00
1587, 2002.00
1588, 2004.00
1589, 2006.00
1590, 2005.00
1591, 2007.00
1592, 2009.00
1593, 2010.00
1594, 2011.00
1595, 2012.00
1596, 2014.00
1597, 2015.00
1598, 2017.00
1599, 2018.00
1600, 2019.00
1601, 2021.00
1602, 2022.00
1603, 2023.00
1604, 2025.00
1605, 2027.00
1606, 2028.00
1607, 2031.00
1608, 2033.00
1609, 2034.00
1610, 2035.00
1611, 2037.00
1612, 2038.00
1613, 2039.00
1614, 2041.00
1615, 2043.00
1616, 2043.00
1617, 2047.00
1618, 2049.00
1619, 2051.00
1620, 2052.00
1621, 2053.00
1622, 2055.00
1623, 2057.00
1624, 2058.00
1625, 2060.00
1626, 2062.00
1627, 2064.00
1628, 2064.00
1629, 2067.00
1630, 2068.00
1631, 2069.00
1632, 2070.00
1633, 2073.00
1634, 2074.00
1635, 2075.00
1636, 2076.00
1637, 2079.00
1638, 2079.00
1639, 2082.00
1640, 2081.00
1641, 2083.00
1642, 2085.00
1643, 2086.00
1644, 2087.00
1645, 2088.00
1646, 2090.00
1647, 2092.00
1648, 2093.00
1649, 2095.00
1650, 2095.00

1750, 2574.00
1751, 2574.00
1752, 2573.00
1753, 2574.00
1754, 2574.00
1755, 2574.00
1756, 2574.00
1757, 2572.00
1758, 2574.00
1759, 2573.00
1760, 2574.00
1761, 2576.00
1762, 2573.00
1763, 2571.00
1764, 2574.00
1765, 2575.00
1766, 2571.00
1767, 2572.00
1768, 2573.00
1769, 2573.00
1770, 2571.00
1771, 2569.00
1772, 2570.00
1773, 2569.00
1774, 2569.00
1775, 2570.00
1776, 2567.00
1777, 2568.00
1778, 2568.00
1779, 2567.00
1780, 2567.00
1781, 2566.00
1782, 2565.00
1783, 2566.00
1784, 2564.00
1785, 2565.00
1786, 2563.00
1787, 2562.00
1788, 2561.00
1789, 2561.00
1790, 2561.00
1791, 2560.00
1792, 2560.00
1793, 2558.00
1794, 2559.00
1795, 2559.00
1796, 2559.00
1797, 2557.00
1798, 2557.00
1799, 2557.00
1800, 2556.00
1801, 2556.00
1802, 2555.00
1803, 2554.00
1804, 2554.00
1805, 2554.00
1806, 2552.00
1807, 2551.00
1808, 2554.00
1809, 2552.00
1810, 2551.00
1811, 2551.00
1812, 2550.00
1813, 2549.00
1814, 2548.00
1815, 2547.00
1816, 2547.00
1817, 2547.00
1818, 2546.00
1819, 2545.00
1820, 2547.00
1821, 2542.00
1822, 2540.00
1823, 2541.00
1824, 2538.00
1825, 2539.00
1826, 2538.00
1827, 2535.00
1828, 2532.00
1829, 2531.00
1830, 2533.00
1831, 2530.00
1832, 2529.00
1833, 2527.00
1834, 2526.00
1835, 2522.00
1836, 2521.00
1837, 2518.00
1838, 2516.00
1839, 2516.00
1840, 2512.00
1841, 2510.00
1842, 2509.00
1843, 2505.00
1844, 2506.00
1845, 2499.00
1846, 2499.00
1847, 2497.00
1848, 2494.00
1849, 2491.00
1850, 2489.00
1851, 2486.00
1852, 2483.00
1853, 2481.00
1854, 2478.00
1855, 2476.00
1856, 2474.00
1857, 2471.00
1858, 2470.00
1859, 2465.00
1860, 2463.00
1861, 2463.00
1862, 2460.00
1863, 2457.00
1864, 2453.00
1865, 2452.00
1866, 2450.00
1867, 2451.00
1868, 2448.00
1869, 2447.00
1870, 2445.00
1871, 2444.00
1872, 2444.00
1873, 2440.00
1874, 2439.00
1875, 2438.00
1876, 2437.00
1877, 2436.00
1878, 2435.00
1879, 2433.00
1880, 2433.00
1881, 2432.00
1882, 2431.00
1883, 2431.00
1884, 2429.00
1885, 2429.00
1886, 2427.00
1887, 2428.00
1888, 2428.00
1889, 2426.00
1890, 2424.00
1891, 2424.00
1892, 2425.00
1893, 2423.00
1894, 2424.00
1895, 2425.00
1896, 2425.00
1897, 2422.00
1898, 2421.00
1899, 2421.00
1900, 2419.00
1901, 2419.00
1902, 2420.00
1903, 2420.00
1904, 2421.00
1905, 2420.00
1906, 2418.00
1907, 2419.00
1908, 2419.00
1909, 2419.00
1910, 2417.00
1911, 2416.00
1912, 2415.00
1913, 2417.00
1914, 2417.00
1915, 2417.00
1916, 2416.00
1917, 2418.00
1918, 2417.00
1919, 2415.00
1920, 2416.00
1921, 2415.00
1922, 2415.00
1923, 2416.00
1924, 2415.00
1925, 2417.00
1926, 2415.00
1927, 2416.00
1928, 2415.00
1929, 2415.00
1930, 2417.00
1931, 2416.00
1932, 2416.00
1933, 2416.00
1934, 2418.00
1935, 2416.00
1936, 2415.00
1937, 2416.00
1938, 2417.00
1939, 2417.00
1940, 2416.00
1941, 2417.00
1942, 2418.00
1943, 2419.00
1944, 2417.00
1945, 2418.00
1946, 2419.00
1947, 2419.00
1948, 2419.00
1949, 2419.00
1950, 2418.00
1951, 2419.00
1952, 2419.00
1953, 2422.00
1954, 2421.00
1955, 2421.00
1956, 2423.00
1957, 2422.00
1958, 2423.00
1959, 2420.00
1960, 2424.00
1961, 2424.00
1962, 2423.00
1963, 2425.00
1964, 2425.00
1965, 2426.00
1966, 2425.00
1967, 2429.00
1968, 2427.00
1969, 2429.00
1970, 2427.00
1971, 2429.00
1972, 2428.00
1973, 2428.00
1974, 2430.00
1975, 2431.00
1976, 2431.00
1977, 2432.00
1978, 2433.00
1979, 2434.00
1980, 2433.00
1981, 2436.00
1982, 2435.00
1983, 2436.00
1984, 2436.00
1985, 2438.00
1986, 2438.00
1987, 2438.00
1988, 2441.00
1989, 2439.00
1990, 2442.00
1991, 2441.00
1992, 2441.00
1993, 2440.00
1994, 2443.00
1995, 2442.00
1996, 2442.00
1997, 2443.00
1998, 2444.00
1999, 2445.00
2000, 2445.00
2001, 2447.00
2002, 2446.00
2003, 2448.00
2004, 2449.00
2005, 2450.00
2006, 2449.00
2007, 2449.00
2008, 2449.00
2009, 2450.00
2010, 2450.00
2011, 2452.00
2012, 2454.00
2013, 2453.00
2014, 2451.00
2015, 2455.00
2016, 2453.00
2017, 2455.00
2018, 2456.00
2019, 2457.00
2020, 2458.00
2021, 2458.00
2022, 2458.00
2023, 2458.00
2024, 2460.00
2025, 2460.00
2026, 2461.00
2027, 2462.00
2028, 2461.00
2029, 2461.00
2030, 2463.00
2031, 2465.00
2032, 2464.00
2033, 2467.00
2034, 2465.00
2035, 2465.00
2036, 2466.00
2037, 2467.00
2038, 2468.00
2039, 2472.00
2040, 2470.00
2041, 2473.00
2042, 2473.00
2043, 2473.00
2044, 2475.00
2045, 2475.00
2046, 2476.00
2047, 2475.00
2048, 2477.00
2049, 2477.00
2050, 2480.00
2051, 2481.00
2052, 2481.00
2053, 2479.00
2054, 2482.00
2055, 2485.00
2056, 2483.00
2057, 2486.00
2058, 2484.00
2059, 2489.00
2060, 2489.00
2061, 2489.00
2062, 2490.00
2063, 2490.00
2064, 2492.00
2065, 2492.00
2066, 2495.00
2067, 2496.00
2068, 2494.00
2069, 2497.00
2070, 2497.00
2071, 2497.00
2072, 2500.00
2073, 2500.00
2074, 2500.00
2075, 2502.00
2076, 2503.00
2077, 2502.00
2078, 2505.00
2079, 2504.00
2080, 2505.00
2081, 2507.00
2082, 2508.00
2083, 2505.00
2084, 2509.00
2085, 2510.00
2086, 2509.00
2087, 2509.00
2088, 2514.00
2089, 2511.00
2090, 2513.00
2091, 2513.00
2092, 2513.00
2093, 2514.00
2094, 2516.00
2095, 2515.00
2096, 2517.00
2097, 2517.00
2098, 2517.00
2099, 2518.00
2100, 2519.00
2101, 2519.00
2102, 2521.00
2103, 2521.00
2104, 2519.00
2105, 2523.00
2106, 2522.00
2107, 2522.00
2108, 2523.00
2109, 2521.00
2110, 2523.00
2111, 2523.00
2112, 2524.00
2113, 2524.00
2114, 2525.00
2115, 2527.00
2116, 2525.00
2117, 2525.00
2118, 2526.00
2119, 2528.00
2120, 2526.00
2121, 2526.00
2122, 2529.00
2123, 2528.00
2124, 2529.00
2125, 2529.00
2126, 2531.00
2127, 2530.00
2128, 2531.00
2129, 2532.00
2130, 2530.00
2131, 2531.00
2132, 2533.00
2133, 2531.00
2134, 2533.00
2135, 2533.00
2136, 2534.00
2137, 2534.00
2138, 2533.00
2139, 2535.00
2140, 2532.00
2141, 2535.00
2142, 2533.00
2143, 2535.00
2144, 2536.00
2145, 2535.00
2146, 2536.00
2147, 2536.00
2148, 2536.00
2149, 2535.00
2150, 2537.00
