FW version: 24
Log Version: 3.0.3

General Info:
       Command/Macro Performed,            Timestamp,             Device ID, COM Port, UART/I2C, Test Name, Host Major, Host Minor, Host Revision, Host Git Commit
            Single_measurement,  2023_06_30_11_49_13,       Insight2_F4_xxx,    USB-C,      USB,          ,          0,          1,             1,      4031237645

Show Spectrometer Status:
l0_version, f4_version, battery_perc, battery_mVolt, accelerometer_temp, accelerometer_x, accelerometer_y, accelerometer_z, compass_temp, compass_x, compass_y, compass_z, lamp_0, lamp_1, gain_0, gain_1
        17,         24,           95,          2080,               5904,           65508,             236,           18592,            0,     65524,     65516,     65514,   2457,   2457,      1,      1

Temperature Statistic Info:
NTC AVG [°C], NTC2 AVG [°C]
      38.187,        37.925

Statistic Info:
M1:  num,      min,      max,   median,      AVG,      STD,M2:  num,      min,      max,   median,      AVG,      STD
     301,  1057.00,  1223.00,  1093.00,  1112.01,  51.2196,     401,  1505.00,  1606.00,  1549.00,  1551.08,  33.4460,

Measurements:
Wavelength, Data Amplitude
1350, 1082.00
1351, 1083.00
1352, 1083.00
1353, 1082.00
1354, 1082.00
1355, 1082.00
1356, 1080.00
1357, 1080.00
1358, 1080.00
1359, 1079.00
1360, 1078.00
1361, 1078.00
1362, 1078.00
1363, 1076.00
1364, 1076.00
1365, 1075.00
1366, 1074.00
1367, 1075.00
1368, 1073.00
1369, 1072.00
1370, 1072.00
1371, 1071.00
1372, 1070.00
1373, 1069.00
1374, 1070.00
1375, 1069.00
1376, 1069.00
1377, 1067.00
1378, 1067.00
1379, 1067.00
1380, 1065.00
1381, 1065.00
1382, 1065.00
1383, 1064.00
1384, 1064.00
1385, 1063.00
1386, 1063.00
1387, 1063.00
1388, 1062.00
1389, 1063.00
1390, 1062.00
1391, 1062.00
1392, 1062.00
1393, 1060.00
1394, 1060.00
1395, 1061.00
1396, 1060.00
1397, 1060.00
1398, 1061.00
1399, 1059.00
1400, 1060.00
1401, 1060.00
1402, 1060.00
1403, 1058.00
1404, 1060.00
1405, 1058.00
1406, 1058.00
1407, 1059.00
1408, 1058.00
1409, 1058.00
1410, 1059.00
1411, 1059.00
1412, 1058.00
1413, 1060.00
1414, 1059.00
1415, 1058.00
1416, 1058.00
1417, 1058.00
1418, 1059.00
1419, 1059.00
1420, 1058.00
1421, 1058.00
1422, 1059.00
1423, 1058.00
1424, 1057.00
1425, 1059.00
1426, 1059.00
1427, 1059.00
1428, 1059.00
1429, 1059.00
1430, 1060.00
1431, 1060.00
1432, 1060.00
1433, 1059.00
1434, 1059.00
1435, 1061.00
1436, 1061.00
1437, 1060.00
1438, 1061.00
1439, 1061.00
1440, 1062.00
1441, 1062.00
1442, 1061.00
1443, 1062.00
1444, 1063.00
1445, 1062.00
1446, 1063.00
1447, 1063.00
1448, 1063.00
1449, 1064.00
1450, 1064.00
1451, 1065.00
1452, 1065.00
1453, 1066.00
1454, 1066.00
1455, 1066.00
1456, 1066.00
1457, 1067.00
1458, 1068.00
1459, 1069.00
1460, 1067.00
1461, 1069.00
1462, 1069.00
1463, 1070.00
1464, 1070.00
1465, 1071.00
1466, 1072.00
1467, 1072.00
1468, 1072.00
1469, 1072.00
1470, 1074.00
1471, 1073.00
1472, 1074.00
1473, 1076.00
1474, 1076.00
1475, 1076.00
1476, 1077.00
1477, 1078.00
1478, 1078.00
1479, 1079.00
1480, 1080.00
1481, 1079.00
1482, 1080.00
1483, 1081.00
1484, 1083.00
1485, 1082.00
1486, 1083.00
1487, 1084.00
1488, 1084.00
1489, 1085.00
1490, 1086.00
1491, 1087.00
1492, 1088.00
1493, 1088.00
1494, 1090.00
1495, 1090.00
1496, 1090.00
1497, 1091.00
1498, 1092.00
1499, 1093.00
1500, 1093.00
1501, 1093.00
1502, 1095.00
1503, 1095.00
1504, 1097.00
1505, 1097.00
1506, 1097.00
1507, 1099.00
1508, 1099.00
1509, 1099.00
1510, 1100.00
1511, 1102.00
1512, 1102.00
1513, 1102.00
1514, 1103.00
1515, 1103.00
1516, 1105.00
1517, 1106.00
1518, 1107.00
1519, 1107.00
1520, 1107.00
1521, 1108.00
1522, 1110.00
1523, 1110.00
1524, 1111.00
1525, 1112.00
1526, 1113.00
1527, 1114.00
1528, 1115.00
1529, 1115.00
1530, 1115.00
1531, 1117.00
1532, 1117.00
1533, 1117.00
1534, 1119.00
1535, 1119.00
1536, 1121.00
1537, 1122.00
1538, 1122.00
1539, 1123.00
1540, 1124.00
1541, 1124.00
1542, 1126.00
1543, 1127.00
1544, 1127.00
1545, 1128.00
1546, 1129.00
1547, 1129.00
1548, 1130.00
1549, 1131.00
1550, 1132.00
1551, 1133.00
1552, 1134.00
1553, 1135.00
1554, 1135.00
1555, 1137.00
1556, 1137.00
1557, 1138.00
1558, 1139.00
1559, 1139.00
1560, 1141.00
1561, 1142.00
1562, 1142.00
1563, 1143.00
1564, 1144.00
1565, 1145.00
1566, 1146.00
1567, 1147.00
1568, 1147.00
1569, 1149.00
1570, 1150.00
1571, 1149.00
1572, 1152.00
1573, 1152.00
1574, 1154.00
1575, 1154.00
1576, 1154.00
1577, 1156.00
1578, 1156.00
1579, 1157.00
1580, 1158.00
1581, 1158.00
1582, 1160.00
1583, 1160.00
1584, 1161.00
1585, 1163.00
1586, 1163.00
1587, 1164.00
1588, 1164.00
1589, 1165.00
1590, 1166.00
1591, 1167.00
1592, 1168.00
1593, 1168.00
1594, 1170.00
1595, 1170.00
1596, 1170.00
1597, 1171.00
1598, 1173.00
1599, 1173.00
1600, 1175.00
1601, 1175.00
1602, 1176.00
1603, 1177.00
1604, 1178.00
1605, 1179.00
1606, 1180.00
1607, 1181.00
1608, 1182.00
1609, 1182.00
1610, 1184.00
1611, 1185.00
1612, 1187.00
1613, 1187.00
1614, 1188.00
1615, 1188.00
1616, 1189.00
1617, 1191.00
1618, 1192.00
1619, 1192.00
1620, 1195.00
1621, 1195.00
1622, 1197.00
1623, 1198.00
1624, 1198.00
1625, 1200.00
1626, 1201.00
1627, 1203.00
1628, 1203.00
1629, 1204.00
1630, 1206.00
1631, 1205.00
1632, 1206.00
1633, 1207.00
1634, 1208.00
1635, 1209.00
1636, 1210.00
1637, 1211.00
1638, 1212.00
1639, 1213.00
1640, 1214.00
1641, 1214.00
1642, 1215.00
1643, 1216.00
1644, 1217.00
1645, 1219.00
1646, 1219.00
1647, 1219.00
1648, 1221.00
1649, 1221.00
1650, 1223.00

1750, 1603.00
1751, 1604.00
1752, 1604.00
1753, 1605.00
1754, 1606.00
1755, 1606.00
1756, 1605.00
1757, 1605.00
1758, 1605.00
1759, 1605.00
1760, 1604.00
1761, 1604.00
1762, 1603.00
1763, 1602.00
1764, 1605.00
1765, 1606.00
1766, 1603.00
1767, 1604.00
1768, 1604.00
1769, 1604.00
1770, 1604.00
1771, 1604.00
1772, 1602.00
1773, 1602.00
1774, 1601.00
1775, 1601.00
1776, 1602.00
1777, 1602.00
1778, 1600.00
1779, 1601.00
1780, 1600.00
1781, 1601.00
1782, 1601.00
1783, 1600.00
1784, 1599.00
1785, 1598.00
1786, 1599.00
1787, 1600.00
1788, 1597.00
1789, 1599.00
1790, 1596.00
1791, 1599.00
1792, 1599.00
1793, 1596.00
1794, 1597.00
1795, 1596.00
1796, 1595.00
1797, 1596.00
1798, 1596.00
1799, 1594.00
1800, 1593.00
1801, 1594.00
1802, 1594.00
1803, 1592.00
1804, 1592.00
1805, 1594.00
1806, 1593.00
1807, 1591.00
1808, 1591.00
1809, 1592.00
1810, 1591.00
1811, 1591.00
1812, 1590.00
1813, 1590.00
1814, 1591.00
1815, 1588.00
1816, 1589.00
1817, 1589.00
1818, 1587.00
1819, 1589.00
1820, 1585.00
1821, 1586.00
1822, 1585.00
1823, 1586.00
1824, 1584.00
1825, 1583.00
1826, 1583.00
1827, 1581.00
1828, 1581.00
1829, 1581.00
1830, 1579.00
1831, 1580.00
1832, 1577.00
1833, 1576.00
1834, 1576.00
1835, 1574.00
1836, 1573.00
1837, 1572.00
1838, 1572.00
1839, 1571.00
1840, 1569.00
1841, 1566.00
1842, 1564.00
1843, 1563.00
1844, 1561.00
1845, 1559.00
1846, 1559.00
1847, 1557.00
1848, 1556.00
1849, 1552.00
1850, 1553.00
1851, 1552.00
1852, 1549.00
1853, 1549.00
1854, 1547.00
1855, 1544.00
1856, 1543.00
1857, 1541.00
1858, 1540.00
1859, 1539.00
1860, 1538.00
1861, 1536.00
1862, 1534.00
1863, 1532.00
1864, 1531.00
1865, 1530.00
1866, 1528.00
1867, 1527.00
1868, 1528.00
1869, 1526.00
1870, 1525.00
1871, 1523.00
1872, 1522.00
1873, 1522.00
1874, 1521.00
1875, 1521.00
1876, 1520.00
1877, 1518.00
1878, 1517.00
1879, 1518.00
1880, 1517.00
1881, 1516.00
1882, 1515.00
1883, 1516.00
1884, 1515.00
1885, 1515.00
1886, 1513.00
1887, 1513.00
1888, 1511.00
1889, 1512.00
1890, 1512.00
1891, 1511.00
1892, 1511.00
1893, 1509.00
1894, 1511.00
1895, 1512.00
1896, 1511.00
1897, 1510.00
1898, 1510.00
1899, 1509.00
1900, 1509.00
1901, 1509.00
1902, 1509.00
1903, 1508.00
1904, 1508.00
1905, 1509.00
1906, 1506.00
1907, 1508.00
1908, 1508.00
1909, 1507.00
1910, 1508.00
1911, 1506.00
1912, 1507.00
1913, 1508.00
1914, 1506.00
1915, 1507.00
1916, 1506.00
1917, 1505.00
1918, 1505.00
1919, 1505.00
1920, 1505.00
1921, 1506.00
1922, 1506.00
1923, 1507.00
1924, 1507.00
1925, 1506.00
1926, 1506.00
1927, 1506.00
1928, 1506.00
1929, 1507.00
1930, 1506.00
1931, 1506.00
1932, 1508.00
1933, 1508.00
1934, 1507.00
1935, 1508.00
1936, 1506.00
1937, 1505.00
1938, 1508.00
1939, 1507.00
1940, 1508.00
1941, 1508.00
1942, 1509.00
1943, 1507.00
1944, 1508.00
1945, 1508.00
1946, 1508.00
1947, 1509.00
1948, 1509.00
1949, 1508.00
1950, 1509.00
1951, 1510.00
1952, 1509.00
1953, 1509.00
1954, 1510.00
1955, 1509.00
1956, 1509.00
1957, 1511.00
1958, 1510.00
1959, 1512.00
1960, 1511.00
1961, 1512.00
1962, 1513.00
1963, 1511.00
1964, 1514.00
1965, 1513.00
1966, 1512.00
1967, 1514.00
1968, 1514.00
1969, 1514.00
1970, 1514.00
1971, 1515.00
1972, 1515.00
1973, 1515.00
1974, 1515.00
1975, 1516.00
1976, 1516.00
1977, 1516.00
1978, 1519.00
1979, 1518.00
1980, 1518.00
1981, 1517.00
1982, 1519.00
1983, 1520.00
1984, 1520.00
1985, 1520.00
1986, 1521.00
1987, 1521.00
1988, 1521.00
1989, 1522.00
1990, 1523.00
1991, 1523.00
1992, 1525.00
1993, 1524.00
1994, 1523.00
1995, 1523.00
1996, 1524.00
1997, 1523.00
1998, 1525.00
1999, 1525.00
2000, 1526.00
2001, 1525.00
2002, 1528.00
2003, 1525.00
2004, 1527.00
2005, 1527.00
2006, 1528.00
2007, 1530.00
2008, 1527.00
2009, 1529.00
2010, 1529.00
2011, 1529.00
2012, 1531.00
2013, 1529.00
2014, 1533.00
2015, 1530.00
2016, 1532.00
2017, 1531.00
2018, 1533.00
2019, 1533.00
2020, 1534.00
2021, 1533.00
2022, 1534.00
2023, 1533.00
2024, 1535.00
2025, 1535.00
2026, 1536.00
2027, 1538.00
2028, 1536.00
2029, 1540.00
2030, 1537.00
2031, 1538.00
2032, 1538.00
2033, 1539.00
2034, 1538.00
2035, 1540.00
2036, 1540.00
2037, 1543.00
2038, 1543.00
2039, 1541.00
2040, 1542.00
2041, 1542.00
2042, 1542.00
2043, 1546.00
2044, 1545.00
2045, 1546.00
2046, 1547.00
2047, 1545.00
2048, 1548.00
2049, 1546.00
2050, 1547.00
2051, 1547.00
2052, 1547.00
2053, 1548.00
2054, 1550.00
2055, 1552.00
2056, 1551.00
2057, 1550.00
2058, 1554.00
2059, 1553.00
2060, 1553.00
2061, 1553.00
2062, 1556.00
2063, 1555.00
2064, 1558.00
2065, 1557.00
2066, 1558.00
2067, 1558.00
2068, 1558.00
2069, 1560.00
2070, 1561.00
2071, 1561.00
2072, 1561.00
2073, 1562.00
2074, 1562.00
2075, 1563.00
2076, 1563.00
2077, 1564.00
2078, 1564.00
2079, 1565.00
2080, 1568.00
2081, 1566.00
2082, 1567.00
2083, 1569.00
2084, 1567.00
2085, 1568.00
2086, 1568.00
2087, 1571.00
2088, 1569.00
2089, 1570.00
2090, 1571.00
2091, 1570.00
2092, 1572.00
2093, 1572.00
2094, 1574.00
2095, 1572.00
2096, 1572.00
2097, 1572.00
2098, 1574.00
2099, 1573.00
2100, 1575.00
2101, 1574.00
2102, 1575.00
2103, 1573.00
2104, 1576.00
2105, 1578.00
2106, 1574.00
2107, 1575.00
2108, 1577.00
2109, 1576.00
2110, 1578.00
2111, 1577.00
2112, 1576.00
2113, 1579.00
2114, 1578.00
2115, 1578.00
2116, 1580.00
2117, 1581.00
2118, 1580.00
2119, 1579.00
2120, 1580.00
2121, 1578.00
2122, 1580.00
2123, 1583.00
2124, 1581.00
2125, 1581.00
2126, 1582.00
2127, 1581.00
2128, 1583.00
2129, 1582.00
2130, 1582.00
2131, 1582.00
2132, 1583.00
2133, 1583.00
2134, 1583.00
2135, 1583.00
2136, 1583.00
2137, 1584.00
2138, 1585.00
2139, 1585.00
2140, 1584.00
2141, 1586.00
2142, 1585.00
2143, 1587.00
2144, 1586.00
2145, 1587.00
2146, 1586.00
2147, 1586.00
2148, 1587.00
2149, 1585.00
2150, 1586.00
