FW version: 24
Log Version: 3.0.3

General Info:
       Command/Macro Performed,            Timestamp,             Device ID, COM Port, UART/I2C, Test Name, Host Major, Host Minor, Host Revision, Host Git Commit
            Single_measurement,  2023_06_30_11_48_58,       Insight2_F4_xxx,    USB-C,      USB,          ,          0,          1,             1,      4031237645

Show Spectrometer Status:
l0_version, f4_version, battery_perc, battery_mVolt, accelerometer_temp, accelerometer_x, accelerometer_y, accelerometer_z, compass_temp, compass_x, compass_y, compass_z, lamp_0, lamp_1, gain_0, gain_1
        17,         24,           95,          2079,               5904,           65520,             216,           18504,            0,     65525,     65530,     65528,   2047,   2047,      1,      1

Temperature Statistic Info:
NTC AVG [°C], NTC2 AVG [°C]
      38.099,        37.840

Statistic Info:
M1:  num,      min,      max,   median,      AVG,      STD,M2:  num,      min,      max,   median,      AVG,      STD
     301,   731.00,   847.00,   758.00,   770.42,  36.8718,     401,  1094.00,  1169.00,  1127.00,  1129.05,  24.5407,

Measurements:
Wavelength, Data Amplitude
1350, 747.00
1351, 748.00
1352, 748.00
1353, 746.00
1354, 746.00
1355, 746.00
1356, 746.00
1357, 745.00
1358, 746.00
1359, 745.00
1360, 744.00
1361, 743.00
1362, 745.00
1363, 743.00
1364, 743.00
1365, 743.00
1366, 742.00
1367, 742.00
1368, 742.00
1369, 740.00
1370, 740.00
1371, 740.00
1372, 740.00
1373, 738.00
1374, 738.00
1375, 738.00
1376, 738.00
1377, 737.00
1378, 736.00
1379, 737.00
1380, 737.00
1381, 735.00
1382, 736.00
1383, 735.00
1384, 735.00
1385, 735.00
1386, 735.00
1387, 734.00
1388, 733.00
1389, 734.00
1390, 733.00
1391, 733.00
1392, 733.00
1393, 733.00
1394, 733.00
1395, 733.00
1396, 733.00
1397, 732.00
1398, 733.00
1399, 731.00
1400, 731.00
1401, 731.00
1402, 731.00
1403, 732.00
1404, 732.00
1405, 731.00
1406, 731.00
1407, 732.00
1408, 731.00
1409, 732.00
1410, 732.00
1411, 731.00
1412, 732.00
1413, 731.00
1414, 731.00
1415, 731.00
1416, 731.00
1417, 732.00
1418, 731.00
1419, 731.00
1420, 732.00
1421, 731.00
1422, 732.00
1423, 732.00
1424, 732.00
1425, 732.00
1426, 733.00
1427, 732.00
1428, 732.00
1429, 732.00
1430, 733.00
1431, 733.00
1432, 733.00
1433, 733.00
1434, 734.00
1435, 733.00
1436, 734.00
1437, 734.00
1438, 734.00
1439, 733.00
1440, 734.00
1441, 735.00
1442, 734.00
1443, 734.00
1444, 734.00
1445, 734.00
1446, 735.00
1447, 736.00
1448, 736.00
1449, 736.00
1450, 737.00
1451, 737.00
1452, 737.00
1453, 738.00
1454, 738.00
1455, 738.00
1456, 738.00
1457, 738.00
1458, 739.00
1459, 739.00
1460, 739.00
1461, 740.00
1462, 739.00
1463, 740.00
1464, 740.00
1465, 741.00
1466, 741.00
1467, 741.00
1468, 742.00
1469, 742.00
1470, 743.00
1471, 744.00
1472, 744.00
1473, 744.00
1474, 745.00
1475, 745.00
1476, 745.00
1477, 745.00
1478, 747.00
1479, 747.00
1480, 747.00
1481, 747.00
1482, 748.00
1483, 749.00
1484, 749.00
1485, 750.00
1486, 751.00
1487, 751.00
1488, 751.00
1489, 753.00
1490, 753.00
1491, 753.00
1492, 752.00
1493, 753.00
1494, 754.00
1495, 755.00
1496, 756.00
1497, 756.00
1498, 756.00
1499, 758.00
1500, 758.00
1501, 758.00
1502, 759.00
1503, 758.00
1504, 760.00
1505, 760.00
1506, 761.00
1507, 762.00
1508, 763.00
1509, 763.00
1510, 763.00
1511, 763.00
1512, 764.00
1513, 765.00
1514, 766.00
1515, 766.00
1516, 766.00
1517, 767.00
1518, 767.00
1519, 769.00
1520, 768.00
1521, 769.00
1522, 770.00
1523, 770.00
1524, 771.00
1525, 772.00
1526, 772.00
1527, 773.00
1528, 774.00
1529, 774.00
1530, 775.00
1531, 776.00
1532, 776.00
1533, 776.00
1534, 776.00
1535, 777.00
1536, 778.00
1537, 778.00
1538, 780.00
1539, 779.00
1540, 780.00
1541, 781.00
1542, 781.00
1543, 783.00
1544, 782.00
1545, 783.00
1546, 783.00
1547, 785.00
1548, 785.00
1549, 786.00
1550, 786.00
1551, 788.00
1552, 788.00
1553, 787.00
1554, 788.00
1555, 789.00
1556, 790.00
1557, 790.00
1558, 792.00
1559, 791.00
1560, 791.00
1561, 792.00
1562, 793.00
1563, 794.00
1564, 794.00
1565, 795.00
1566, 796.00
1567, 795.00
1568, 796.00
1569, 797.00
1570, 798.00
1571, 799.00
1572, 800.00
1573, 800.00
1574, 800.00
1575, 801.00
1576, 802.00
1577, 803.00
1578, 803.00
1579, 803.00
1580, 804.00
1581, 804.00
1582, 805.00
1583, 806.00
1584, 806.00
1585, 807.00
1586, 807.00
1587, 808.00
1588, 809.00
1589, 809.00
1590, 809.00
1591, 810.00
1592, 811.00
1593, 811.00
1594, 811.00
1595, 813.00
1596, 813.00
1597, 813.00
1598, 814.00
1599, 814.00
1600, 815.00
1601, 816.00
1602, 817.00
1603, 817.00
1604, 818.00
1605, 819.00
1606, 820.00
1607, 819.00
1608, 821.00
1609, 821.00
1610, 822.00
1611, 822.00
1612, 823.00
1613, 824.00
1614, 825.00
1615, 825.00
1616, 826.00
1617, 827.00
1618, 828.00
1619, 828.00
1620, 830.00
1621, 829.00
1622, 831.00
1623, 832.00
1624, 833.00
1625, 833.00
1626, 833.00
1627, 834.00
1628, 835.00
1629, 836.00
1630, 837.00
1631, 838.00
1632, 838.00
1633, 838.00
1634, 839.00
1635, 840.00
1636, 841.00
1637, 841.00
1638, 841.00
1639, 842.00
1640, 842.00
1641, 843.00
1642, 843.00
1643, 844.00
1644, 845.00
1645, 845.00
1646, 845.00
1647, 846.00
1648, 846.00
1649, 847.00
1650, 847.00

1750, 1168.00
1751, 1167.00
1752, 1166.00
1753, 1167.00
1754, 1167.00
1755, 1169.00
1756, 1168.00
1757, 1168.00
1758, 1167.00
1759, 1167.00
1760, 1166.00
1761, 1168.00
1762, 1167.00
1763, 1168.00
1764, 1166.00
1765, 1168.00
1766, 1166.00
1767, 1166.00
1768, 1166.00
1769, 1166.00
1770, 1165.00
1771, 1165.00
1772, 1165.00
1773, 1165.00
1774, 1165.00
1775, 1166.00
1776, 1164.00
1777, 1164.00
1778, 1164.00
1779, 1166.00
1780, 1165.00
1781, 1165.00
1782, 1163.00
1783, 1164.00
1784, 1162.00
1785, 1164.00
1786, 1165.00
1787, 1161.00
1788, 1162.00
1789, 1162.00
1790, 1162.00
1791, 1161.00
1792, 1162.00
1793, 1162.00
1794, 1162.00
1795, 1160.00
1796, 1159.00
1797, 1160.00
1798, 1161.00
1799, 1161.00
1800, 1160.00
1801, 1159.00
1802, 1159.00
1803, 1159.00
1804, 1159.00
1805, 1159.00
1806, 1158.00
1807, 1159.00
1808, 1157.00
1809, 1158.00
1810, 1158.00
1811, 1160.00
1812, 1156.00
1813, 1157.00
1814, 1157.00
1815, 1154.00
1816, 1155.00
1817, 1155.00
1818, 1155.00
1819, 1155.00
1820, 1155.00
1821, 1154.00
1822, 1153.00
1823, 1155.00
1824, 1153.00
1825, 1154.00
1826, 1149.00
1827, 1152.00
1828, 1151.00
1829, 1149.00
1830, 1149.00
1831, 1149.00
1832, 1149.00
1833, 1149.00
1834, 1146.00
1835, 1145.00
1836, 1145.00
1837, 1144.00
1838, 1143.00
1839, 1142.00
1840, 1140.00
1841, 1140.00
1842, 1138.00
1843, 1137.00
1844, 1136.00
1845, 1136.00
1846, 1135.00
1847, 1134.00
1848, 1132.00
1849, 1131.00
1850, 1130.00
1851, 1129.00
1852, 1127.00
1853, 1127.00
1854, 1125.00
1855, 1125.00
1856, 1122.00
1857, 1122.00
1858, 1119.00
1859, 1120.00
1860, 1117.00
1861, 1115.00
1862, 1116.00
1863, 1115.00
1864, 1114.00
1865, 1115.00
1866, 1113.00
1867, 1112.00
1868, 1111.00
1869, 1111.00
1870, 1110.00
1871, 1108.00
1872, 1109.00
1873, 1107.00
1874, 1105.00
1875, 1106.00
1876, 1105.00
1877, 1105.00
1878, 1105.00
1879, 1105.00
1880, 1105.00
1881, 1103.00
1882, 1105.00
1883, 1103.00
1884, 1102.00
1885, 1102.00
1886, 1101.00
1887, 1100.00
1888, 1101.00
1889, 1101.00
1890, 1100.00
1891, 1101.00
1892, 1099.00
1893, 1099.00
1894, 1100.00
1895, 1099.00
1896, 1097.00
1897, 1099.00
1898, 1098.00
1899, 1099.00
1900, 1098.00
1901, 1097.00
1902, 1098.00
1903, 1099.00
1904, 1097.00
1905, 1096.00
1906, 1099.00
1907, 1097.00
1908, 1097.00
1909, 1096.00
1910, 1097.00
1911, 1096.00
1912, 1096.00
1913, 1097.00
1914, 1096.00
1915, 1095.00
1916, 1095.00
1917, 1097.00
1918, 1096.00
1919, 1095.00
1920, 1097.00
1921, 1095.00
1922, 1097.00
1923, 1096.00
1924, 1096.00
1925, 1095.00
1926, 1095.00
1927, 1096.00
1928, 1095.00
1929, 1097.00
1930, 1097.00
1931, 1097.00
1932, 1095.00
1933, 1095.00
1934, 1097.00
1935, 1097.00
1936, 1094.00
1937, 1096.00
1938, 1095.00
1939, 1097.00
1940, 1096.00
1941, 1096.00
1942, 1097.00
1943, 1097.00
1944, 1097.00
1945, 1098.00
1946, 1096.00
1947, 1097.00
1948, 1099.00
1949, 1097.00
1950, 1098.00
1951, 1099.00
1952, 1099.00
1953, 1098.00
1954, 1098.00
1955, 1098.00
1956, 1100.00
1957, 1100.00
1958, 1099.00
1959, 1098.00
1960, 1100.00
1961, 1099.00
1962, 1101.00
1963, 1098.00
1964, 1101.00
1965, 1101.00
1966, 1101.00
1967, 1101.00
1968, 1102.00
1969, 1103.00
1970, 1104.00
1971, 1103.00
1972, 1102.00
1973, 1102.00
1974, 1102.00
1975, 1104.00
1976, 1104.00
1977, 1104.00
1978, 1103.00
1979, 1105.00
1980, 1103.00
1981, 1105.00
1982, 1105.00
1983, 1107.00
1984, 1107.00
1985, 1106.00
1986, 1108.00
1987, 1108.00
1988, 1109.00
1989, 1106.00
1990, 1107.00
1991, 1108.00
1992, 1109.00
1993, 1109.00
1994, 1109.00
1995, 1111.00
1996, 1109.00
1997, 1109.00
1998, 1109.00
1999, 1111.00
2000, 1111.00
2001, 1111.00
2002, 1110.00
2003, 1111.00
2004, 1112.00
2005, 1113.00
2006, 1112.00
2007, 1111.00
2008, 1112.00
2009, 1113.00
2010, 1113.00
2011, 1113.00
2012, 1114.00
2013, 1113.00
2014, 1114.00
2015, 1115.00
2016, 1115.00
2017, 1114.00
2018, 1114.00
2019, 1117.00
2020, 1115.00
2021, 1117.00
2022, 1116.00
2023, 1116.00
2024, 1117.00
2025, 1117.00
2026, 1119.00
2027, 1119.00
2028, 1118.00
2029, 1119.00
2030, 1119.00
2031, 1120.00
2032, 1120.00
2033, 1121.00
2034, 1121.00
2035, 1120.00
2036, 1121.00
2037, 1121.00
2038, 1122.00
2039, 1123.00
2040, 1122.00
2041, 1123.00
2042, 1123.00
2043, 1123.00
2044, 1125.00
2045, 1125.00
2046, 1125.00
2047, 1126.00
2048, 1125.00
2049, 1126.00
2050, 1127.00
2051, 1127.00
2052, 1127.00
2053, 1129.00
2054, 1128.00
2055, 1131.00
2056, 1130.00
2057, 1131.00
2058, 1131.00
2059, 1131.00
2060, 1132.00
2061, 1133.00
2062, 1133.00
2063, 1132.00
2064, 1133.00
2065, 1134.00
2066, 1134.00
2067, 1135.00
2068, 1136.00
2069, 1136.00
2070, 1137.00
2071, 1137.00
2072, 1138.00
2073, 1138.00
2074, 1139.00
2075, 1139.00
2076, 1139.00
2077, 1140.00
2078, 1139.00
2079, 1141.00
2080, 1140.00
2081, 1142.00
2082, 1141.00
2083, 1141.00
2084, 1142.00
2085, 1141.00
2086, 1143.00
2087, 1144.00
2088, 1142.00
2089, 1143.00
2090, 1145.00
2091, 1143.00
2092, 1144.00
2093, 1146.00
2094, 1145.00
2095, 1146.00
2096, 1146.00
2097, 1146.00
2098, 1147.00
2099, 1148.00
2100, 1149.00
2101, 1149.00
2102, 1148.00
2103, 1149.00
2104, 1149.00
2105, 1148.00
2106, 1151.00
2107, 1148.00
2108, 1150.00
2109, 1149.00
2110, 1149.00
2111, 1150.00
2112, 1149.00
2113, 1149.00
2114, 1149.00
2115, 1151.00
2116, 1152.00
2117, 1152.00
2118, 1153.00
2119, 1152.00
2120, 1152.00
2121, 1151.00
2122, 1151.00
2123, 1152.00
2124, 1154.00
2125, 1153.00
2126, 1153.00
2127, 1153.00
2128, 1154.00
2129, 1154.00
2130, 1155.00
2131, 1153.00
2132, 1153.00
2133, 1155.00
2134, 1155.00
2135, 1155.00
2136, 1153.00
2137, 1153.00
2138, 1154.00
2139, 1155.00
2140, 1154.00
2141, 1156.00
2142, 1156.00
2143, 1157.00
2144, 1156.00
2145, 1155.00
2146, 1157.00
2147, 1156.00
2148, 1156.00
2149, 1157.00
2150, 1155.00
