FW version: 24
Log Version: 3.0.3

General Info:
       Command/Macro Performed,            Timestamp,             Device ID, COM Port, UART/I2C, Test Name, Host Major, Host Minor, Host Revision, Host Git Commit
            Single_measurement,  2023_06_28_12_50_34,       Insight2_F4_xxx,    USB-C,      USB,          ,          0,          1,             1,      4031237645

Show Spectrometer Status:
l0_version, f4_version, battery_perc, battery_mVolt, accelerometer_temp, accelerometer_x, accelerometer_y, accelerometer_z, compass_temp, compass_x, compass_y, compass_z, lamp_0, lamp_1, gain_0, gain_1
        17,         24,           50,          1921,               6432,             120,             384,           18732,            0,     65403,     65419,     65518,   2457,   2457,      1,      1

Temperature Statistic Info:
NTC AVG [°C], NTC2 AVG [°C]
      39.821,        39.529

Statistic Info:
M1:  num,      min,      max,   median,      AVG,      STD,M2:  num,      min,      max,   median,      AVG,      STD
     301,  1045.00,  1186.00,  1079.00,  1092.07,  43.8046,     401,  1529.00,  1615.00,  1577.00,  1575.11,  29.1514,

Measurements:
Wavelength, Data Amplitude
1350, 1058.00
1351, 1059.00
1352, 1059.00
1353, 1057.00
1354, 1057.00
1355, 1057.00
1356, 1057.00
1357, 1058.00
1358, 1057.00
1359, 1056.00
1360, 1057.00
1361, 1056.00
1362, 1056.00
1363, 1055.00
1364, 1055.00
1365, 1055.00
1366, 1055.00
1367, 1054.00
1368, 1054.00
1369, 1054.00
1370, 1053.00
1371, 1053.00
1372, 1051.00
1373, 1052.00
1374, 1053.00
1375, 1052.00
1376, 1051.00
1377, 1050.00
1378, 1050.00
1379, 1050.00
1380, 1049.00
1381, 1049.00
1382, 1049.00
1383, 1048.00
1384, 1049.00
1385, 1048.00
1386, 1048.00
1387, 1048.00
1388, 1048.00
1389, 1048.00
1390, 1047.00
1391, 1047.00
1392, 1047.00
1393, 1047.00
1394, 1046.00
1395, 1046.00
1396, 1046.00
1397, 1046.00
1398, 1046.00
1399, 1046.00
1400, 1046.00
1401, 1047.00
1402, 1046.00
1403, 1045.00
1404, 1045.00
1405, 1046.00
1406, 1045.00
1407, 1046.00
1408, 1045.00
1409, 1047.00
1410, 1046.00
1411, 1046.00
1412, 1046.00
1413, 1045.00
1414, 1046.00
1415, 1046.00
1416, 1046.00
1417, 1046.00
1418, 1046.00
1419, 1046.00
1420, 1047.00
1421, 1046.00
1422, 1046.00
1423, 1046.00
1424, 1047.00
1425, 1047.00
1426, 1047.00
1427, 1048.00
1428, 1046.00
1429, 1047.00
1430, 1047.00
1431, 1047.00
1432, 1048.00
1433, 1047.00
1434, 1049.00
1435, 1048.00
1436, 1049.00
1437, 1050.00
1438, 1049.00
1439, 1050.00
1440, 1050.00
1441, 1050.00
1442, 1050.00
1443, 1051.00
1444, 1051.00
1445, 1051.00
1446, 1052.00
1447, 1052.00
1448, 1053.00
1449, 1053.00
1450, 1053.00
1451, 1053.00
1452, 1053.00
1453, 1054.00
1454, 1055.00
1455, 1056.00
1456, 1056.00
1457, 1057.00
1458, 1057.00
1459, 1057.00
1460, 1058.00
1461, 1058.00
1462, 1058.00
1463, 1058.00
1464, 1059.00
1465, 1059.00
1466, 1059.00
1467, 1059.00
1468, 1060.00
1469, 1060.00
1470, 1062.00
1471, 1062.00
1472, 1063.00
1473, 1063.00
1474, 1064.00
1475, 1065.00
1476, 1065.00
1477, 1066.00
1478, 1066.00
1479, 1066.00
1480, 1068.00
1481, 1068.00
1482, 1069.00
1483, 1068.00
1484, 1069.00
1485, 1071.00
1486, 1069.00
1487, 1071.00
1488, 1071.00
1489, 1072.00
1490, 1073.00
1491, 1074.00
1492, 1073.00
1493, 1075.00
1494, 1075.00
1495, 1076.00
1496, 1076.00
1497, 1076.00
1498, 1078.00
1499, 1078.00
1500, 1079.00
1501, 1079.00
1502, 1079.00
1503, 1080.00
1504, 1081.00
1505, 1081.00
1506, 1082.00
1507, 1082.00
1508, 1083.00
1509, 1083.00
1510, 1085.00
1511, 1085.00
1512, 1086.00
1513, 1086.00
1514, 1088.00
1515, 1087.00
1516, 1089.00
1517, 1090.00
1518, 1090.00
1519, 1090.00
1520, 1090.00
1521, 1092.00
1522, 1093.00
1523, 1092.00
1524, 1093.00
1525, 1095.00
1526, 1094.00
1527, 1096.00
1528, 1096.00
1529, 1097.00
1530, 1098.00
1531, 1097.00
1532, 1098.00
1533, 1100.00
1534, 1101.00
1535, 1101.00
1536, 1102.00
1537, 1103.00
1538, 1103.00
1539, 1104.00
1540, 1103.00
1541, 1105.00
1542, 1105.00
1543, 1106.00
1544, 1107.00
1545, 1107.00
1546, 1107.00
1547, 1109.00
1548, 1109.00
1549, 1110.00
1550, 1111.00
1551, 1111.00
1552, 1112.00
1553, 1113.00
1554, 1113.00
1555, 1114.00
1556, 1113.00
1557, 1115.00
1558, 1116.00
1559, 1117.00
1560, 1117.00
1561, 1119.00
1562, 1121.00
1563, 1119.00
1564, 1121.00
1565, 1120.00
1566, 1122.00
1567, 1123.00
1568, 1123.00
1569, 1125.00
1570, 1125.00
1571, 1124.00
1572, 1125.00
1573, 1127.00
1574, 1128.00
1575, 1128.00
1576, 1129.00
1577, 1130.00
1578, 1130.00
1579, 1131.00
1580, 1132.00
1581, 1133.00
1582, 1133.00
1583, 1134.00
1584, 1134.00
1585, 1135.00
1586, 1136.00
1587, 1136.00
1588, 1137.00
1589, 1137.00
1590, 1138.00
1591, 1139.00
1592, 1140.00
1593, 1141.00
1594, 1141.00
1595, 1141.00
1596, 1141.00
1597, 1143.00
1598, 1143.00
1599, 1145.00
1600, 1144.00
1601, 1145.00
1602, 1146.00
1603, 1146.00
1604, 1147.00
1605, 1149.00
1606, 1149.00
1607, 1151.00
1608, 1151.00
1609, 1153.00
1610, 1153.00
1611, 1154.00
1612, 1154.00
1613, 1155.00
1614, 1156.00
1615, 1157.00
1616, 1158.00
1617, 1158.00
1618, 1160.00
1619, 1160.00
1620, 1161.00
1621, 1163.00
1622, 1163.00
1623, 1164.00
1624, 1165.00
1625, 1165.00
1626, 1167.00
1627, 1168.00
1628, 1169.00
1629, 1169.00
1630, 1170.00
1631, 1172.00
1632, 1172.00
1633, 1172.00
1634, 1172.00
1635, 1174.00
1636, 1175.00
1637, 1177.00
1638, 1176.00
1639, 1177.00
1640, 1177.00
1641, 1178.00
1642, 1178.00
1643, 1180.00
1644, 1181.00
1645, 1181.00
1646, 1181.00
1647, 1183.00
1648, 1185.00
1649, 1185.00
1650, 1186.00

1750, 1615.00
1751, 1614.00
1752, 1613.00
1753, 1614.00
1754, 1612.00
1755, 1614.00
1756, 1613.00
1757, 1613.00
1758, 1615.00
1759, 1613.00
1760, 1613.00
1761, 1613.00
1762, 1613.00
1763, 1612.00
1764, 1612.00
1765, 1614.00
1766, 1613.00
1767, 1612.00
1768, 1612.00
1769, 1614.00
1770, 1613.00
1771, 1611.00
1772, 1612.00
1773, 1613.00
1774, 1613.00
1775, 1611.00
1776, 1613.00
1777, 1611.00
1778, 1611.00
1779, 1609.00
1780, 1611.00
1781, 1609.00
1782, 1609.00
1783, 1609.00
1784, 1608.00
1785, 1609.00
1786, 1607.00
1787, 1609.00
1788, 1608.00
1789, 1606.00
1790, 1607.00
1791, 1607.00
1792, 1605.00
1793, 1605.00
1794, 1604.00
1795, 1608.00
1796, 1605.00
1797, 1605.00
1798, 1604.00
1799, 1603.00
1800, 1606.00
1801, 1604.00
1802, 1604.00
1803, 1605.00
1804, 1604.00
1805, 1605.00
1806, 1603.00
1807, 1603.00
1808, 1603.00
1809, 1605.00
1810, 1602.00
1811, 1602.00
1812, 1603.00
1813, 1602.00
1814, 1600.00
1815, 1603.00
1816, 1603.00
1817, 1601.00
1818, 1601.00
1819, 1600.00
1820, 1602.00
1821, 1599.00
1822, 1601.00
1823, 1599.00
1824, 1597.00
1825, 1598.00
1826, 1599.00
1827, 1597.00
1828, 1596.00
1829, 1596.00
1830, 1595.00
1831, 1595.00
1832, 1593.00
1833, 1593.00
1834, 1593.00
1835, 1592.00
1836, 1592.00
1837, 1590.00
1838, 1590.00
1839, 1590.00
1840, 1585.00
1841, 1586.00
1842, 1583.00
1843, 1584.00
1844, 1583.00
1845, 1581.00
1846, 1580.00
1847, 1579.00
1848, 1577.00
1849, 1579.00
1850, 1574.00
1851, 1575.00
1852, 1571.00
1853, 1571.00
1854, 1569.00
1855, 1568.00
1856, 1567.00
1857, 1564.00
1858, 1562.00
1859, 1563.00
1860, 1561.00
1861, 1560.00
1862, 1559.00
1863, 1559.00
1864, 1556.00
1865, 1556.00
1866, 1554.00
1867, 1553.00
1868, 1551.00
1869, 1549.00
1870, 1550.00
1871, 1550.00
1872, 1549.00
1873, 1545.00
1874, 1547.00
1875, 1545.00
1876, 1545.00
1877, 1544.00
1878, 1543.00
1879, 1543.00
1880, 1541.00
1881, 1543.00
1882, 1543.00
1883, 1541.00
1884, 1539.00
1885, 1539.00
1886, 1537.00
1887, 1541.00
1888, 1538.00
1889, 1539.00
1890, 1538.00
1891, 1536.00
1892, 1536.00
1893, 1535.00
1894, 1537.00
1895, 1536.00
1896, 1535.00
1897, 1535.00
1898, 1534.00
1899, 1535.00
1900, 1534.00
1901, 1535.00
1902, 1536.00
1903, 1533.00
1904, 1533.00
1905, 1533.00
1906, 1534.00
1907, 1533.00
1908, 1533.00
1909, 1535.00
1910, 1533.00
1911, 1532.00
1912, 1533.00
1913, 1533.00
1914, 1532.00
1915, 1535.00
1916, 1531.00
1917, 1529.00
1918, 1532.00
1919, 1532.00
1920, 1534.00
1921, 1533.00
1922, 1530.00
1923, 1533.00
1924, 1532.00
1925, 1533.00
1926, 1533.00
1927, 1533.00
1928, 1534.00
1929, 1533.00
1930, 1532.00
1931, 1533.00
1932, 1531.00
1933, 1532.00
1934, 1534.00
1935, 1533.00
1936, 1535.00
1937, 1535.00
1938, 1534.00
1939, 1535.00
1940, 1534.00
1941, 1535.00
1942, 1534.00
1943, 1535.00
1944, 1535.00
1945, 1537.00
1946, 1538.00
1947, 1535.00
1948, 1536.00
1949, 1537.00
1950, 1536.00
1951, 1537.00
1952, 1536.00
1953, 1538.00
1954, 1538.00
1955, 1537.00
1956, 1539.00
1957, 1538.00
1958, 1538.00
1959, 1539.00
1960, 1540.00
1961, 1541.00
1962, 1540.00
1963, 1543.00
1964, 1541.00
1965, 1543.00
1966, 1542.00
1967, 1542.00
1968, 1543.00
1969, 1542.00
1970, 1542.00
1971, 1544.00
1972, 1545.00
1973, 1544.00
1974, 1545.00
1975, 1545.00
1976, 1545.00
1977, 1546.00
1978, 1547.00
1979, 1547.00
1980, 1546.00
1981, 1546.00
1982, 1550.00
1983, 1550.00
1984, 1548.00
1985, 1549.00
1986, 1552.00
1987, 1551.00
1988, 1552.00
1989, 1550.00
1990, 1553.00
1991, 1553.00
1992, 1551.00
1993, 1552.00
1994, 1554.00
1995, 1553.00
1996, 1554.00
1997, 1554.00
1998, 1555.00
1999, 1556.00
2000, 1554.00
2001, 1557.00
2002, 1556.00
2003, 1559.00
2004, 1559.00
2005, 1557.00
2006, 1559.00
2007, 1558.00
2008, 1558.00
2009, 1559.00
2010, 1561.00
2011, 1560.00
2012, 1559.00
2013, 1561.00
2014, 1560.00
2015, 1563.00
2016, 1562.00
2017, 1564.00
2018, 1562.00
2019, 1564.00
2020, 1565.00
2021, 1565.00
2022, 1564.00
2023, 1565.00
2024, 1565.00
2025, 1566.00
2026, 1565.00
2027, 1565.00
2028, 1567.00
2029, 1566.00
2030, 1566.00
2031, 1567.00
2032, 1568.00
2033, 1570.00
2034, 1570.00
2035, 1570.00
2036, 1572.00
2037, 1573.00
2038, 1574.00
2039, 1573.00
2040, 1572.00
2041, 1573.00
2042, 1573.00
2043, 1575.00
2044, 1577.00
2045, 1575.00
2046, 1575.00
2047, 1576.00
2048, 1576.00
2049, 1577.00
2050, 1579.00
2051, 1578.00
2052, 1578.00
2053, 1579.00
2054, 1581.00
2055, 1581.00
2056, 1582.00
2057, 1582.00
2058, 1580.00
2059, 1583.00
2060, 1583.00
2061, 1584.00
2062, 1585.00
2063, 1587.00
2064, 1586.00
2065, 1586.00
2066, 1587.00
2067, 1587.00
2068, 1588.00
2069, 1589.00
2070, 1588.00
2071, 1590.00
2072, 1590.00
2073, 1592.00
2074, 1593.00
2075, 1594.00
2076, 1594.00
2077, 1595.00
2078, 1595.00
2079, 1596.00
2080, 1594.00
2081, 1594.00
2082, 1596.00
2083, 1597.00
2084, 1598.00
2085, 1598.00
2086, 1598.00
2087, 1598.00
2088, 1600.00
2089, 1599.00
2090, 1601.00
2091, 1601.00
2092, 1601.00
2093, 1601.00
2094, 1600.00
2095, 1602.00
2096, 1601.00
2097, 1603.00
2098, 1602.00
2099, 1604.00
2100, 1604.00
2101, 1604.00
2102, 1603.00
2103, 1606.00
2104, 1605.00
2105, 1605.00
2106, 1605.00
2107, 1606.00
2108, 1605.00
2109, 1607.00
2110, 1606.00
2111, 1606.00
2112, 1605.00
2113, 1606.00
2114, 1605.00
2115, 1606.00
2116, 1606.00
2117, 1607.00
2118, 1607.00
2119, 1606.00
2120, 1608.00
2121, 1608.00
2122, 1607.00
2123, 1607.00
2124, 1610.00
2125, 1608.00
2126, 1609.00
2127, 1608.00
2128, 1609.00
2129, 1610.00
2130, 1609.00
2131, 1610.00
2132, 1609.00
2133, 1611.00
2134, 1611.00
2135, 1610.00
2136, 1611.00
2137, 1611.00
2138, 1611.00
2139, 1610.00
2140, 1611.00
2141, 1613.00
2142, 1612.00
2143, 1610.00
2144, 1610.00
2145, 1612.00
2146, 1613.00
2147, 1613.00
2148, 1612.00
2149, 1612.00
2150, 1613.00
