FW version: 24
Log Version: 3.0.3

General Info:
       Command/Macro Performed,            Timestamp,             Device ID, COM Port, UART/I2C, Test Name, Host Major, Host Minor, Host Revision, Host Git Commit
            Single_measurement,  2023_06_28_12_51_08,       Insight2_F4_xxx,    USB-C,      USB,          ,          0,          1,             1,      4031237645

Show Spectrometer Status:
l0_version, f4_version, battery_perc, battery_mVolt, accelerometer_temp, accelerometer_x, accelerometer_y, accelerometer_z, compass_temp, compass_x, compass_y, compass_z, lamp_0, lamp_1, gain_0, gain_1
        17,         24,           50,          1922,               6464,             108,             440,           18788,            0,     65389,     65467,     65509,   3276,   3276,      1,      1

Temperature Statistic Info:
NTC AVG [°C], NTC2 AVG [°C]
      40.024,        39.704

Statistic Info:
M1:  num,      min,      max,   median,      AVG,      STD,M2:  num,      min,      max,   median,      AVG,      STD
     301,  1809.00,  2034.00,  1860.00,  1883.17,  69.9748,     401,  2455.00,  2588.00,  2525.00,  2522.47,  45.5739,

Measurements:
Wavelength, Data Amplitude
1350, 1834.00
1351, 1833.00
1352, 1835.00
1353, 1833.00
1354, 1833.00
1355, 1833.00
1356, 1832.00
1357, 1831.00
1358, 1831.00
1359, 1831.00
1360, 1830.00
1361, 1829.00
1362, 1829.00
1363, 1829.00
1364, 1828.00
1365, 1827.00
1366, 1827.00
1367, 1826.00
1368, 1825.00
1369, 1824.00
1370, 1824.00
1371, 1823.00
1372, 1822.00
1373, 1820.00
1374, 1820.00
1375, 1821.00
1376, 1820.00
1377, 1819.00
1378, 1818.00
1379, 1817.00
1380, 1816.00
1381, 1817.00
1382, 1815.00
1383, 1816.00
1384, 1814.00
1385, 1815.00
1386, 1814.00
1387, 1814.00
1388, 1813.00
1389, 1813.00
1390, 1812.00
1391, 1813.00
1392, 1814.00
1393, 1812.00
1394, 1812.00
1395, 1811.00
1396, 1811.00
1397, 1811.00
1398, 1810.00
1399, 1809.00
1400, 1810.00
1401, 1811.00
1402, 1810.00
1403, 1810.00
1404, 1811.00
1405, 1810.00
1406, 1810.00
1407, 1809.00
1408, 1809.00
1409, 1809.00
1410, 1810.00
1411, 1810.00
1412, 1809.00
1413, 1809.00
1414, 1809.00
1415, 1809.00
1416, 1809.00
1417, 1810.00
1418, 1811.00
1419, 1809.00
1420, 1809.00
1421, 1809.00
1422, 1810.00
1423, 1810.00
1424, 1811.00
1425, 1810.00
1426, 1810.00
1427, 1811.00
1428, 1811.00
1429, 1812.00
1430, 1812.00
1431, 1812.00
1432, 1812.00
1433, 1813.00
1434, 1813.00
1435, 1814.00
1436, 1815.00
1437, 1814.00
1438, 1815.00
1439, 1815.00
1440, 1815.00
1441, 1817.00
1442, 1817.00
1443, 1817.00
1444, 1818.00
1445, 1819.00
1446, 1819.00
1447, 1819.00
1448, 1820.00
1449, 1819.00
1450, 1821.00
1451, 1821.00
1452, 1821.00
1453, 1823.00
1454, 1823.00
1455, 1823.00
1456, 1824.00
1457, 1824.00
1458, 1824.00
1459, 1825.00
1460, 1825.00
1461, 1826.00
1462, 1826.00
1463, 1828.00
1464, 1829.00
1465, 1830.00
1466, 1830.00
1467, 1831.00
1468, 1832.00
1469, 1831.00
1470, 1833.00
1471, 1834.00
1472, 1834.00
1473, 1837.00
1474, 1837.00
1475, 1838.00
1476, 1838.00
1477, 1839.00
1478, 1841.00
1479, 1841.00
1480, 1841.00
1481, 1843.00
1482, 1842.00
1483, 1845.00
1484, 1846.00
1485, 1847.00
1486, 1848.00
1487, 1848.00
1488, 1850.00
1489, 1851.00
1490, 1851.00
1491, 1851.00
1492, 1852.00
1493, 1854.00
1494, 1855.00
1495, 1856.00
1496, 1857.00
1497, 1857.00
1498, 1858.00
1499, 1860.00
1500, 1860.00
1501, 1862.00
1502, 1861.00
1503, 1863.00
1504, 1863.00
1505, 1865.00
1506, 1865.00
1507, 1866.00
1508, 1867.00
1509, 1867.00
1510, 1868.00
1511, 1871.00
1512, 1870.00
1513, 1871.00
1514, 1873.00
1515, 1873.00
1516, 1876.00
1517, 1877.00
1518, 1878.00
1519, 1879.00
1520, 1880.00
1521, 1880.00
1522, 1881.00
1523, 1883.00
1524, 1884.00
1525, 1885.00
1526, 1886.00
1527, 1887.00
1528, 1887.00
1529, 1889.00
1530, 1890.00
1531, 1891.00
1532, 1891.00
1533, 1893.00
1534, 1893.00
1535, 1895.00
1536, 1897.00
1537, 1897.00
1538, 1897.00
1539, 1898.00
1540, 1901.00
1541, 1902.00
1542, 1903.00
1543, 1903.00
1544, 1905.00
1545, 1905.00
1546, 1908.00
1547, 1907.00
1548, 1909.00
1549, 1911.00
1550, 1911.00
1551, 1912.00
1552, 1913.00
1553, 1914.00
1554, 1916.00
1555, 1917.00
1556, 1918.00
1557, 1919.00
1558, 1920.00
1559, 1921.00
1560, 1923.00
1561, 1925.00
1562, 1925.00
1563, 1926.00
1564, 1927.00
1565, 1929.00
1566, 1930.00
1567, 1932.00
1568, 1933.00
1569, 1934.00
1570, 1935.00
1571, 1936.00
1572, 1937.00
1573, 1939.00
1574, 1940.00
1575, 1942.00
1576, 1943.00
1577, 1943.00
1578, 1944.00
1579, 1945.00
1580, 1947.00
1581, 1948.00
1582, 1950.00
1583, 1950.00
1584, 1951.00
1585, 1952.00
1586, 1953.00
1587, 1954.00
1588, 1954.00
1589, 1956.00
1590, 1957.00
1591, 1959.00
1592, 1960.00
1593, 1961.00
1594, 1961.00
1595, 1963.00
1596, 1965.00
1597, 1965.00
1598, 1965.00
1599, 1966.00
1600, 1969.00
1601, 1969.00
1602, 1970.00
1603, 1972.00
1604, 1972.00
1605, 1974.00
1606, 1975.00
1607, 1976.00
1608, 1977.00
1609, 1979.00
1610, 1981.00
1611, 1983.00
1612, 1983.00
1613, 1985.00
1614, 1986.00
1615, 1988.00
1616, 1989.00
1617, 1990.00
1618, 1992.00
1619, 1994.00
1620, 1995.00
1621, 1997.00
1622, 1998.00
1623, 1999.00
1624, 2001.00
1625, 2002.00
1626, 2003.00
1627, 2005.00
1628, 2006.00
1629, 2007.00
1630, 2009.00
1631, 2009.00
1632, 2011.00
1633, 2013.00
1634, 2013.00
1635, 2015.00
1636, 2017.00
1637, 2018.00
1638, 2019.00
1639, 2020.00
1640, 2021.00
1641, 2021.00
1642, 2023.00
1643, 2024.00
1644, 2026.00
1645, 2027.00
1646, 2027.00
1647, 2029.00
1648, 2030.00
1649, 2032.00
1650, 2034.00

1750, 2586.00
1751, 2586.00
1752, 2586.00
1753, 2586.00
1754, 2587.00
1755, 2587.00
1756, 2586.00
1757, 2585.00
1758, 2585.00
1759, 2588.00
1760, 2588.00
1761, 2587.00
1762, 2587.00
1763, 2586.00
1764, 2585.00
1765, 2586.00
1766, 2586.00
1767, 2588.00
1768, 2583.00
1769, 2585.00
1770, 2585.00
1771, 2586.00
1772, 2583.00
1773, 2582.00
1774, 2584.00
1775, 2583.00
1776, 2582.00
1777, 2584.00
1778, 2581.00
1779, 2582.00
1780, 2582.00
1781, 2581.00
1782, 2580.00
1783, 2580.00
1784, 2579.00
1785, 2578.00
1786, 2578.00
1787, 2578.00
1788, 2578.00
1789, 2577.00
1790, 2576.00
1791, 2576.00
1792, 2573.00
1793, 2575.00
1794, 2575.00
1795, 2575.00
1796, 2572.00
1797, 2573.00
1798, 2572.00
1799, 2573.00
1800, 2572.00
1801, 2573.00
1802, 2571.00
1803, 2572.00
1804, 2570.00
1805, 2570.00
1806, 2570.00
1807, 2569.00
1808, 2570.00
1809, 2568.00
1810, 2568.00
1811, 2568.00
1812, 2569.00
1813, 2567.00
1814, 2568.00
1815, 2568.00
1816, 2566.00
1817, 2565.00
1818, 2566.00
1819, 2567.00
1820, 2564.00
1821, 2564.00
1822, 2564.00
1823, 2561.00
1824, 2562.00
1825, 2561.00
1826, 2559.00
1827, 2560.00
1828, 2557.00
1829, 2557.00
1830, 2558.00
1831, 2557.00
1832, 2555.00
1833, 2553.00
1834, 2553.00
1835, 2552.00
1836, 2550.00
1837, 2548.00
1838, 2546.00
1839, 2545.00
1840, 2542.00
1841, 2544.00
1842, 2540.00
1843, 2539.00
1844, 2534.00
1845, 2533.00
1846, 2531.00
1847, 2531.00
1848, 2529.00
1849, 2525.00
1850, 2523.00
1851, 2523.00
1852, 2519.00
1853, 2517.00
1854, 2515.00
1855, 2512.00
1856, 2511.00
1857, 2511.00
1858, 2506.00
1859, 2504.00
1860, 2502.00
1861, 2499.00
1862, 2497.00
1863, 2495.00
1864, 2496.00
1865, 2493.00
1866, 2490.00
1867, 2489.00
1868, 2486.00
1869, 2487.00
1870, 2485.00
1871, 2482.00
1872, 2480.00
1873, 2481.00
1874, 2478.00
1875, 2477.00
1876, 2475.00
1877, 2474.00
1878, 2474.00
1879, 2472.00
1880, 2473.00
1881, 2472.00
1882, 2469.00
1883, 2469.00
1884, 2468.00
1885, 2467.00
1886, 2468.00
1887, 2466.00
1888, 2465.00
1889, 2465.00
1890, 2464.00
1891, 2466.00
1892, 2461.00
1893, 2462.00
1894, 2463.00
1895, 2462.00
1896, 2460.00
1897, 2461.00
1898, 2461.00
1899, 2460.00
1900, 2459.00
1901, 2461.00
1902, 2458.00
1903, 2457.00
1904, 2460.00
1905, 2456.00
1906, 2458.00
1907, 2459.00
1908, 2457.00
1909, 2456.00
1910, 2460.00
1911, 2458.00
1912, 2457.00
1913, 2455.00
1914, 2456.00
1915, 2457.00
1916, 2458.00
1917, 2457.00
1918, 2457.00
1919, 2458.00
1920, 2456.00
1921, 2456.00
1922, 2455.00
1923, 2457.00
1924, 2456.00
1925, 2458.00
1926, 2455.00
1927, 2457.00
1928, 2456.00
1929, 2455.00
1930, 2455.00
1931, 2457.00
1932, 2458.00
1933, 2457.00
1934, 2457.00
1935, 2456.00
1936, 2459.00
1937, 2458.00
1938, 2458.00
1939, 2459.00
1940, 2459.00
1941, 2459.00
1942, 2459.00
1943, 2461.00
1944, 2459.00
1945, 2459.00
1946, 2461.00
1947, 2461.00
1948, 2462.00
1949, 2461.00
1950, 2461.00
1951, 2462.00
1952, 2463.00
1953, 2462.00
1954, 2463.00
1955, 2463.00
1956, 2465.00
1957, 2463.00
1958, 2467.00
1959, 2466.00
1960, 2467.00
1961, 2466.00
1962, 2469.00
1963, 2469.00
1964, 2470.00
1965, 2471.00
1966, 2471.00
1967, 2471.00
1968, 2472.00
1969, 2471.00
1970, 2473.00
1971, 2472.00
1972, 2473.00
1973, 2474.00
1974, 2476.00
1975, 2476.00
1976, 2478.00
1977, 2476.00
1978, 2479.00
1979, 2480.00
1980, 2481.00
1981, 2479.00
1982, 2479.00
1983, 2481.00
1984, 2482.00
1985, 2483.00
1986, 2483.00
1987, 2483.00
1988, 2485.00
1989, 2486.00
1990, 2485.00
1991, 2486.00
1992, 2486.00
1993, 2488.00
1994, 2489.00
1995, 2488.00
1996, 2489.00
1997, 2489.00
1998, 2492.00
1999, 2491.00
2000, 2492.00
2001, 2493.00
2002, 2494.00
2003, 2495.00
2004, 2494.00
2005, 2495.00
2006, 2495.00
2007, 2497.00
2008, 2496.00
2009, 2497.00
2010, 2497.00
2011, 2497.00
2012, 2499.00
2013, 2499.00
2014, 2502.00
2015, 2503.00
2016, 2500.00
2017, 2502.00
2018, 2502.00
2019, 2502.00
2020, 2505.00
2021, 2504.00
2022, 2505.00
2023, 2507.00
2024, 2506.00
2025, 2505.00
2026, 2509.00
2027, 2507.00
2028, 2509.00
2029, 2509.00
2030, 2510.00
2031, 2512.00
2032, 2511.00
2033, 2512.00
2034, 2511.00
2035, 2512.00
2036, 2513.00
2037, 2516.00
2038, 2518.00
2039, 2517.00
2040, 2516.00
2041, 2520.00
2042, 2518.00
2043, 2519.00
2044, 2521.00
2045, 2523.00
2046, 2522.00
2047, 2523.00
2048, 2524.00
2049, 2525.00
2050, 2524.00
2051, 2528.00
2052, 2529.00
2053, 2528.00
2054, 2529.00
2055, 2530.00
2056, 2532.00
2057, 2531.00
2058, 2531.00
2059, 2533.00
2060, 2534.00
2061, 2535.00
2062, 2535.00
2063, 2538.00
2064, 2538.00
2065, 2539.00
2066, 2539.00
2067, 2539.00
2068, 2542.00
2069, 2540.00
2070, 2544.00
2071, 2544.00
2072, 2545.00
2073, 2548.00
2074, 2545.00
2075, 2543.00
2076, 2547.00
2077, 2549.00
2078, 2551.00
2079, 2549.00
2080, 2552.00
2081, 2552.00
2082, 2553.00
2083, 2551.00
2084, 2555.00
2085, 2556.00
2086, 2555.00
2087, 2556.00
2088, 2557.00
2089, 2556.00
2090, 2555.00
2091, 2559.00
2092, 2559.00
2093, 2560.00
2094, 2561.00
2095, 2560.00
2096, 2559.00
2097, 2560.00
2098, 2561.00
2099, 2561.00
2100, 2562.00
2101, 2561.00
2102, 2565.00
2103, 2565.00
2104, 2564.00
2105, 2566.00
2106, 2566.00
2107, 2566.00
2108, 2564.00
2109, 2567.00
2110, 2566.00
2111, 2568.00
2112, 2567.00
2113, 2567.00
2114, 2569.00
2115, 2568.00
2116, 2569.00
2117, 2567.00
2118, 2568.00
2119, 2569.00
2120, 2568.00
2121, 2570.00
2122, 2570.00
2123, 2569.00
2124, 2570.00
2125, 2572.00
2126, 2570.00
2127, 2572.00
2128, 2571.00
2129, 2573.00
2130, 2572.00
2131, 2572.00
2132, 2572.00
2133, 2573.00
2134, 2573.00
2135, 2573.00
2136, 2575.00
2137, 2575.00
2138, 2573.00
2139, 2574.00
2140, 2575.00
2141, 2576.00
2142, 2576.00
2143, 2575.00
2144, 2576.00
2145, 2576.00
2146, 2576.00
2147, 2576.00
2148, 2575.00
2149, 2579.00
2150, 2576.00
