FW version: 24
Log Version: 3.0.3

General Info:
       Command/Macro Performed,            Timestamp,             Device ID, COM Port, UART/I2C, Test Name, Host Major, Host Minor, Host Revision, Host Git Commit
            Single_measurement,  2023_06_28_12_49_55,       Insight2_F4_xxx,    USB-C,      USB,          ,          0,          1,             1,      4031237645

Show Spectrometer Status:
l0_version, f4_version, battery_perc, battery_mVolt, accelerometer_temp, accelerometer_x, accelerometer_y, accelerometer_z, compass_temp, compass_x, compass_y, compass_z, lamp_0, lamp_1, gain_0, gain_1
        17,         24,           50,          1922,               6432,             124,             408,           18672,            0,     65407,     65432,     65526,   3276,   3276,      0,      0

Temperature Statistic Info:
NTC AVG [°C], NTC2 AVG [°C]
      39.646,        39.352

Statistic Info:
M1:  num,      min,      max,   median,      AVG,      STD,M2:  num,      min,      max,   median,      AVG,      STD
     301,   625.00,   701.00,   642.00,   650.36,  24.0754,     401,   849.00,   895.00,   873.00,   872.33,  15.7633,

Measurements:
Wavelength, Data Amplitude
1350, 634.00
1351, 633.00
1352, 633.00
1353, 633.00
1354, 634.00
1355, 633.00
1356, 633.00
1357, 633.00
1358, 633.00
1359, 632.00
1360, 632.00
1361, 632.00
1362, 631.00
1363, 632.00
1364, 631.00
1365, 631.00
1366, 631.00
1367, 631.00
1368, 630.00
1369, 630.00
1370, 630.00
1371, 630.00
1372, 630.00
1373, 629.00
1374, 629.00
1375, 629.00
1376, 628.00
1377, 628.00
1378, 628.00
1379, 628.00
1380, 628.00
1381, 628.00
1382, 627.00
1383, 627.00
1384, 627.00
1385, 627.00
1386, 627.00
1387, 627.00
1388, 626.00
1389, 626.00
1390, 626.00
1391, 626.00
1392, 626.00
1393, 626.00
1394, 626.00
1395, 626.00
1396, 626.00
1397, 626.00
1398, 625.00
1399, 625.00
1400, 625.00
1401, 626.00
1402, 626.00
1403, 625.00
1404, 625.00
1405, 625.00
1406, 625.00
1407, 625.00
1408, 625.00
1409, 625.00
1410, 625.00
1411, 625.00
1412, 625.00
1413, 625.00
1414, 625.00
1415, 625.00
1416, 625.00
1417, 625.00
1418, 625.00
1419, 625.00
1420, 625.00
1421, 625.00
1422, 625.00
1423, 626.00
1424, 625.00
1425, 626.00
1426, 625.00
1427, 625.00
1428, 625.00
1429, 626.00
1430, 626.00
1431, 626.00
1432, 626.00
1433, 626.00
1434, 626.00
1435, 626.00
1436, 627.00
1437, 626.00
1438, 627.00
1439, 627.00
1440, 627.00
1441, 627.00
1442, 627.00
1443, 628.00
1444, 628.00
1445, 628.00
1446, 628.00
1447, 628.00
1448, 628.00
1449, 628.00
1450, 629.00
1451, 629.00
1452, 629.00
1453, 629.00
1454, 630.00
1455, 630.00
1456, 630.00
1457, 630.00
1458, 630.00
1459, 631.00
1460, 631.00
1461, 631.00
1462, 631.00
1463, 632.00
1464, 632.00
1465, 632.00
1466, 632.00
1467, 632.00
1468, 633.00
1469, 633.00
1470, 633.00
1471, 634.00
1472, 634.00
1473, 634.00
1474, 634.00
1475, 634.00
1476, 635.00
1477, 635.00
1478, 635.00
1479, 636.00
1480, 636.00
1481, 636.00
1482, 637.00
1483, 637.00
1484, 638.00
1485, 638.00
1486, 638.00
1487, 639.00
1488, 638.00
1489, 639.00
1490, 640.00
1491, 640.00
1492, 640.00
1493, 641.00
1494, 640.00
1495, 641.00
1496, 641.00
1497, 641.00
1498, 642.00
1499, 642.00
1500, 642.00
1501, 643.00
1502, 642.00
1503, 644.00
1504, 643.00
1505, 644.00
1506, 644.00
1507, 644.00
1508, 645.00
1509, 645.00
1510, 645.00
1511, 645.00
1512, 646.00
1513, 646.00
1514, 647.00
1515, 647.00
1516, 648.00
1517, 648.00
1518, 648.00
1519, 648.00
1520, 649.00
1521, 649.00
1522, 649.00
1523, 650.00
1524, 650.00
1525, 651.00
1526, 651.00
1527, 651.00
1528, 652.00
1529, 652.00
1530, 653.00
1531, 653.00
1532, 654.00
1533, 653.00
1534, 654.00
1535, 654.00
1536, 654.00
1537, 655.00
1538, 656.00
1539, 656.00
1540, 656.00
1541, 657.00
1542, 657.00
1543, 657.00
1544, 658.00
1545, 658.00
1546, 659.00
1547, 659.00
1548, 659.00
1549, 660.00
1550, 660.00
1551, 661.00
1552, 660.00
1553, 661.00
1554, 661.00
1555, 662.00
1556, 662.00
1557, 663.00
1558, 663.00
1559, 663.00
1560, 664.00
1561, 664.00
1562, 665.00
1563, 665.00
1564, 666.00
1565, 666.00
1566, 666.00
1567, 667.00
1568, 667.00
1569, 668.00
1570, 668.00
1571, 669.00
1572, 669.00
1573, 669.00
1574, 670.00
1575, 670.00
1576, 671.00
1577, 672.00
1578, 672.00
1579, 672.00
1580, 672.00
1581, 673.00
1582, 673.00
1583, 673.00
1584, 674.00
1585, 674.00
1586, 675.00
1587, 675.00
1588, 675.00
1589, 676.00
1590, 676.00
1591, 676.00
1592, 676.00
1593, 677.00
1594, 678.00
1595, 678.00
1596, 678.00
1597, 679.00
1598, 679.00
1599, 680.00
1600, 679.00
1601, 680.00
1602, 680.00
1603, 681.00
1604, 682.00
1605, 682.00
1606, 682.00
1607, 682.00
1608, 683.00
1609, 684.00
1610, 684.00
1611, 684.00
1612, 685.00
1613, 684.00
1614, 686.00
1615, 686.00
1616, 687.00
1617, 688.00
1618, 688.00
1619, 688.00
1620, 688.00
1621, 690.00
1622, 690.00
1623, 690.00
1624, 690.00
1625, 691.00
1626, 691.00
1627, 693.00
1628, 693.00
1629, 693.00
1630, 694.00
1631, 694.00
1632, 695.00
1633, 695.00
1634, 695.00
1635, 696.00
1636, 696.00
1637, 696.00
1638, 697.00
1639, 698.00
1640, 698.00
1641, 698.00
1642, 698.00
1643, 699.00
1644, 700.00
1645, 700.00
1646, 700.00
1647, 701.00
1648, 701.00
1649, 701.00
1650, 701.00

1750, 895.00
1751, 895.00
1752, 894.00
1753, 894.00
1754, 895.00
1755, 895.00
1756, 895.00
1757, 895.00
1758, 894.00
1759, 895.00
1760, 894.00
1761, 895.00
1762, 894.00
1763, 894.00
1764, 895.00
1765, 894.00
1766, 895.00
1767, 894.00
1768, 894.00
1769, 894.00
1770, 894.00
1771, 894.00
1772, 894.00
1773, 893.00
1774, 893.00
1775, 893.00
1776, 893.00
1777, 893.00
1778, 893.00
1779, 892.00
1780, 892.00
1781, 892.00
1782, 893.00
1783, 892.00
1784, 892.00
1785, 892.00
1786, 891.00
1787, 892.00
1788, 891.00
1789, 891.00
1790, 891.00
1791, 891.00
1792, 891.00
1793, 890.00
1794, 891.00
1795, 890.00
1796, 891.00
1797, 890.00
1798, 890.00
1799, 890.00
1800, 890.00
1801, 889.00
1802, 890.00
1803, 889.00
1804, 889.00
1805, 889.00
1806, 889.00
1807, 888.00
1808, 889.00
1809, 888.00
1810, 889.00
1811, 888.00
1812, 889.00
1813, 887.00
1814, 888.00
1815, 888.00
1816, 887.00
1817, 887.00
1818, 887.00
1819, 887.00
1820, 887.00
1821, 886.00
1822, 886.00
1823, 886.00
1824, 886.00
1825, 886.00
1826, 885.00
1827, 885.00
1828, 885.00
1829, 886.00
1830, 884.00
1831, 884.00
1832, 884.00
1833, 883.00
1834, 883.00
1835, 882.00
1836, 882.00
1837, 881.00
1838, 881.00
1839, 880.00
1840, 880.00
1841, 879.00
1842, 878.00
1843, 877.00
1844, 876.00
1845, 876.00
1846, 876.00
1847, 875.00
1848, 875.00
1849, 874.00
1850, 873.00
1851, 873.00
1852, 871.00
1853, 871.00
1854, 870.00
1855, 869.00
1856, 869.00
1857, 868.00
1858, 867.00
1859, 866.00
1860, 865.00
1861, 865.00
1862, 864.00
1863, 863.00
1864, 862.00
1865, 862.00
1866, 862.00
1867, 861.00
1868, 859.00
1869, 860.00
1870, 859.00
1871, 858.00
1872, 857.00
1873, 857.00
1874, 857.00
1875, 856.00
1876, 857.00
1877, 856.00
1878, 856.00
1879, 855.00
1880, 855.00
1881, 854.00
1882, 854.00
1883, 854.00
1884, 854.00
1885, 853.00
1886, 853.00
1887, 853.00
1888, 852.00
1889, 853.00
1890, 852.00
1891, 852.00
1892, 852.00
1893, 852.00
1894, 852.00
1895, 852.00
1896, 851.00
1897, 851.00
1898, 851.00
1899, 850.00
1900, 851.00
1901, 851.00
1902, 850.00
1903, 850.00
1904, 851.00
1905, 850.00
1906, 850.00
1907, 850.00
1908, 850.00
1909, 850.00
1910, 850.00
1911, 850.00
1912, 850.00
1913, 849.00
1914, 849.00
1915, 850.00
1916, 849.00
1917, 850.00
1918, 849.00
1919, 850.00
1920, 849.00
1921, 849.00
1922, 849.00
1923, 850.00
1924, 849.00
1925, 849.00
1926, 850.00
1927, 849.00
1928, 850.00
1929, 849.00
1930, 850.00
1931, 850.00
1932, 849.00
1933, 849.00
1934, 849.00
1935, 850.00
1936, 850.00
1937, 850.00
1938, 850.00
1939, 850.00
1940, 851.00
1941, 850.00
1942, 850.00
1943, 850.00
1944, 852.00
1945, 851.00
1946, 851.00
1947, 851.00
1948, 851.00
1949, 851.00
1950, 851.00
1951, 852.00
1952, 852.00
1953, 853.00
1954, 852.00
1955, 853.00
1956, 853.00
1957, 853.00
1958, 853.00
1959, 853.00
1960, 853.00
1961, 853.00
1962, 854.00
1963, 853.00
1964, 854.00
1965, 854.00
1966, 854.00
1967, 855.00
1968, 854.00
1969, 855.00
1970, 855.00
1971, 856.00
1972, 856.00
1973, 855.00
1974, 856.00
1975, 856.00
1976, 857.00
1977, 857.00
1978, 857.00
1979, 857.00
1980, 858.00
1981, 858.00
1982, 857.00
1983, 857.00
1984, 857.00
1985, 858.00
1986, 859.00
1987, 859.00
1988, 859.00
1989, 860.00
1990, 860.00
1991, 860.00
1992, 861.00
1993, 861.00
1994, 861.00
1995, 861.00
1996, 860.00
1997, 861.00
1998, 861.00
1999, 861.00
2000, 862.00
2001, 861.00
2002, 863.00
2003, 862.00
2004, 863.00
2005, 863.00
2006, 862.00
2007, 863.00
2008, 864.00
2009, 863.00
2010, 863.00
2011, 863.00
2012, 865.00
2013, 865.00
2014, 864.00
2015, 864.00
2016, 865.00
2017, 865.00
2018, 865.00
2019, 866.00
2020, 866.00
2021, 866.00
2022, 866.00
2023, 866.00
2024, 867.00
2025, 867.00
2026, 867.00
2027, 867.00
2028, 867.00
2029, 868.00
2030, 868.00
2031, 868.00
2032, 868.00
2033, 869.00
2034, 869.00
2035, 869.00
2036, 871.00
2037, 869.00
2038, 871.00
2039, 871.00
2040, 870.00
2041, 871.00
2042, 871.00
2043, 871.00
2044, 871.00
2045, 872.00
2046, 872.00
2047, 872.00
2048, 872.00
2049, 873.00
2050, 873.00
2051, 874.00
2052, 874.00
2053, 874.00
2054, 875.00
2055, 875.00
2056, 875.00
2057, 875.00
2058, 875.00
2059, 876.00
2060, 876.00
2061, 877.00
2062, 877.00
2063, 877.00
2064, 878.00
2065, 878.00
2066, 878.00
2067, 879.00
2068, 880.00
2069, 879.00
2070, 880.00
2071, 880.00
2072, 879.00
2073, 880.00
2074, 881.00
2075, 881.00
2076, 882.00
2077, 881.00
2078, 882.00
2079, 881.00
2080, 882.00
2081, 883.00
2082, 882.00
2083, 883.00
2084, 883.00
2085, 883.00
2086, 883.00
2087, 884.00
2088, 884.00
2089, 884.00
2090, 885.00
2091, 885.00
2092, 884.00
2093, 884.00
2094, 886.00
2095, 885.00
2096, 885.00
2097, 886.00
2098, 886.00
2099, 886.00
2100, 887.00
2101, 886.00
2102, 887.00
2103, 887.00
2104, 887.00
2105, 887.00
2106, 887.00
2107, 888.00
2108, 887.00
2109, 888.00
2110, 887.00
2111, 887.00
2112, 888.00
2113, 887.00
2114, 888.00
2115, 888.00
2116, 888.00
2117, 888.00
2118, 888.00
2119, 889.00
2120, 888.00
2121, 889.00
2122, 889.00
2123, 889.00
2124, 889.00
2125, 889.00
2126, 889.00
2127, 889.00
2128, 890.00
2129, 889.00
2130, 889.00
2131, 889.00
2132, 889.00
2133, 890.00
2134, 890.00
2135, 889.00
2136, 890.00
2137, 890.00
2138, 890.00
2139, 890.00
2140, 891.00
2141, 891.00
2142, 890.00
2143, 890.00
2144, 890.00
2145, 891.00
2146, 891.00
2147, 891.00
2148, 891.00
2149, 891.00
2150, 891.00
