FW version: 24
Log Version: 3.0.3

General Info:
       Command/Macro Performed,            Timestamp,             Device ID, COM Port, UART/I2C, Test Name, Host Major, Host Minor, Host Revision, Host Git Commit
            Single_measurement,  2023_06_28_11_38_05,       Insight2_F4_xxx,    USB-C,      USB,          ,          0,          1,             1,      4031237645

Show Spectrometer Status:
l0_version, f4_version, battery_perc, battery_mVolt, accelerometer_temp, accelerometer_x, accelerometer_y, accelerometer_z, compass_temp, compass_x, compass_y, compass_z, lamp_0, lamp_1, gain_0, gain_1
        17,         24,           45,          1894,               6496,           65192,             788,           18680,            0,     65454,     65436,     18682,   3276,   3276,      0,      0

Temperature Statistic Info:
NTC AVG [°C], NTC2 AVG [°C]
      39.763,        39.470

Statistic Info:
M1:  num,      min,      max,   median,      AVG,      STD,M2:  num,      min,      max,   median,      AVG,      STD
     301,   670.00,   769.00,   691.00,   702.80,  30.5192,     401,   870.00,   930.00,   895.00,   896.60,  19.5771,

Measurements:
Wavelength, Data Amplitude
1350, 688.00
1351, 688.00
1352, 688.00
1353, 688.00
1354, 687.00
1355, 687.00
1356, 686.00
1357, 686.00
1358, 686.00
1359, 685.00
1360, 685.00
1361, 685.00
1362, 684.00
1363, 684.00
1364, 683.00
1365, 683.00
1366, 683.00
1367, 682.00
1368, 682.00
1369, 681.00
1370, 680.00
1371, 680.00
1372, 679.00
1373, 679.00
1374, 679.00
1375, 678.00
1376, 677.00
1377, 676.00
1378, 676.00
1379, 677.00
1380, 676.00
1381, 676.00
1382, 675.00
1383, 675.00
1384, 675.00
1385, 675.00
1386, 675.00
1387, 674.00
1388, 674.00
1389, 674.00
1390, 673.00
1391, 674.00
1392, 673.00
1393, 673.00
1394, 673.00
1395, 672.00
1396, 673.00
1397, 672.00
1398, 672.00
1399, 672.00
1400, 672.00
1401, 672.00
1402, 672.00
1403, 671.00
1404, 672.00
1405, 672.00
1406, 671.00
1407, 672.00
1408, 671.00
1409, 671.00
1410, 671.00
1411, 671.00
1412, 671.00
1413, 671.00
1414, 671.00
1415, 671.00
1416, 670.00
1417, 670.00
1418, 671.00
1419, 670.00
1420, 670.00
1421, 671.00
1422, 671.00
1423, 671.00
1424, 671.00
1425, 670.00
1426, 671.00
1427, 671.00
1428, 671.00
1429, 671.00
1430, 671.00
1431, 671.00
1432, 672.00
1433, 671.00
1434, 672.00
1435, 672.00
1436, 672.00
1437, 672.00
1438, 672.00
1439, 672.00
1440, 672.00
1441, 672.00
1442, 673.00
1443, 673.00
1444, 673.00
1445, 673.00
1446, 673.00
1447, 673.00
1448, 674.00
1449, 674.00
1450, 674.00
1451, 674.00
1452, 674.00
1453, 674.00
1454, 675.00
1455, 675.00
1456, 675.00
1457, 676.00
1458, 676.00
1459, 676.00
1460, 676.00
1461, 676.00
1462, 677.00
1463, 677.00
1464, 678.00
1465, 678.00
1466, 678.00
1467, 678.00
1468, 678.00
1469, 679.00
1470, 679.00
1471, 679.00
1472, 679.00
1473, 680.00
1474, 680.00
1475, 681.00
1476, 682.00
1477, 682.00
1478, 682.00
1479, 682.00
1480, 683.00
1481, 683.00
1482, 683.00
1483, 684.00
1484, 684.00
1485, 685.00
1486, 685.00
1487, 685.00
1488, 686.00
1489, 686.00
1490, 687.00
1491, 687.00
1492, 687.00
1493, 688.00
1494, 688.00
1495, 689.00
1496, 689.00
1497, 689.00
1498, 690.00
1499, 691.00
1500, 691.00
1501, 691.00
1502, 691.00
1503, 692.00
1504, 693.00
1505, 693.00
1506, 693.00
1507, 693.00
1508, 694.00
1509, 694.00
1510, 695.00
1511, 695.00
1512, 696.00
1513, 696.00
1514, 697.00
1515, 697.00
1516, 698.00
1517, 698.00
1518, 698.00
1519, 699.00
1520, 700.00
1521, 700.00
1522, 700.00
1523, 700.00
1524, 701.00
1525, 702.00
1526, 702.00
1527, 703.00
1528, 703.00
1529, 704.00
1530, 704.00
1531, 704.00
1532, 705.00
1533, 706.00
1534, 706.00
1535, 707.00
1536, 707.00
1537, 708.00
1538, 708.00
1539, 709.00
1540, 709.00
1541, 710.00
1542, 710.00
1543, 711.00
1544, 711.00
1545, 712.00
1546, 713.00
1547, 713.00
1548, 713.00
1549, 714.00
1550, 714.00
1551, 715.00
1552, 715.00
1553, 716.00
1554, 717.00
1555, 717.00
1556, 717.00
1557, 718.00
1558, 719.00
1559, 719.00
1560, 720.00
1561, 720.00
1562, 721.00
1563, 721.00
1564, 722.00
1565, 722.00
1566, 723.00
1567, 723.00
1568, 724.00
1569, 725.00
1570, 725.00
1571, 726.00
1572, 726.00
1573, 727.00
1574, 727.00
1575, 728.00
1576, 729.00
1577, 729.00
1578, 730.00
1579, 730.00
1580, 730.00
1581, 731.00
1582, 731.00
1583, 732.00
1584, 733.00
1585, 733.00
1586, 733.00
1587, 734.00
1588, 734.00
1589, 735.00
1590, 735.00
1591, 736.00
1592, 736.00
1593, 737.00
1594, 738.00
1595, 738.00
1596, 738.00
1597, 739.00
1598, 739.00
1599, 740.00
1600, 740.00
1601, 741.00
1602, 741.00
1603, 742.00
1604, 742.00
1605, 743.00
1606, 743.00
1607, 744.00
1608, 745.00
1609, 745.00
1610, 746.00
1611, 746.00
1612, 748.00
1613, 748.00
1614, 749.00
1615, 749.00
1616, 749.00
1617, 750.00
1618, 751.00
1619, 752.00
1620, 752.00
1621, 753.00
1622, 753.00
1623, 754.00
1624, 754.00
1625, 754.00
1626, 755.00
1627, 756.00
1628, 757.00
1629, 758.00
1630, 758.00
1631, 759.00
1632, 759.00
1633, 759.00
1634, 760.00
1635, 761.00
1636, 762.00
1637, 762.00
1638, 763.00
1639, 763.00
1640, 764.00
1641, 763.00
1642, 764.00
1643, 765.00
1644, 766.00
1645, 766.00
1646, 767.00
1647, 767.00
1648, 767.00
1649, 767.00
1650, 769.00

1750, 930.00
1751, 929.00
1752, 930.00
1753, 929.00
1754, 930.00
1755, 930.00
1756, 930.00
1757, 930.00
1758, 929.00
1759, 930.00
1760, 930.00
1761, 930.00
1762, 930.00
1763, 930.00
1764, 930.00
1765, 929.00
1766, 929.00
1767, 930.00
1768, 930.00
1769, 929.00
1770, 929.00
1771, 929.00
1772, 928.00
1773, 928.00
1774, 928.00
1775, 928.00
1776, 928.00
1777, 928.00
1778, 928.00
1779, 927.00
1780, 927.00
1781, 926.00
1782, 927.00
1783, 926.00
1784, 926.00
1785, 927.00
1786, 926.00
1787, 925.00
1788, 925.00
1789, 925.00
1790, 924.00
1791, 925.00
1792, 924.00
1793, 923.00
1794, 924.00
1795, 923.00
1796, 923.00
1797, 923.00
1798, 923.00
1799, 923.00
1800, 923.00
1801, 923.00
1802, 922.00
1803, 923.00
1804, 922.00
1805, 921.00
1806, 921.00
1807, 922.00
1808, 922.00
1809, 921.00
1810, 921.00
1811, 921.00
1812, 920.00
1813, 921.00
1814, 920.00
1815, 920.00
1816, 920.00
1817, 919.00
1818, 918.00
1819, 919.00
1820, 918.00
1821, 918.00
1822, 917.00
1823, 917.00
1824, 917.00
1825, 916.00
1826, 915.00
1827, 916.00
1828, 914.00
1829, 914.00
1830, 913.00
1831, 913.00
1832, 912.00
1833, 911.00
1834, 910.00
1835, 910.00
1836, 909.00
1837, 909.00
1838, 908.00
1839, 908.00
1840, 906.00
1841, 906.00
1842, 904.00
1843, 903.00
1844, 903.00
1845, 902.00
1846, 901.00
1847, 901.00
1848, 899.00
1849, 898.00
1850, 897.00
1851, 896.00
1852, 895.00
1853, 895.00
1854, 894.00
1855, 893.00
1856, 891.00
1857, 891.00
1858, 890.00
1859, 889.00
1860, 888.00
1861, 887.00
1862, 887.00
1863, 886.00
1864, 885.00
1865, 885.00
1866, 884.00
1867, 883.00
1868, 882.00
1869, 882.00
1870, 881.00
1871, 881.00
1872, 880.00
1873, 880.00
1874, 880.00
1875, 879.00
1876, 879.00
1877, 878.00
1878, 878.00
1879, 877.00
1880, 877.00
1881, 877.00
1882, 876.00
1883, 876.00
1884, 876.00
1885, 875.00
1886, 875.00
1887, 875.00
1888, 875.00
1889, 874.00
1890, 874.00
1891, 874.00
1892, 874.00
1893, 874.00
1894, 874.00
1895, 873.00
1896, 873.00
1897, 873.00
1898, 872.00
1899, 873.00
1900, 873.00
1901, 872.00
1902, 872.00
1903, 873.00
1904, 872.00
1905, 871.00
1906, 872.00
1907, 871.00
1908, 872.00
1909, 872.00
1910, 871.00
1911, 872.00
1912, 872.00
1913, 871.00
1914, 871.00
1915, 871.00
1916, 871.00
1917, 871.00
1918, 872.00
1919, 871.00
1920, 871.00
1921, 871.00
1922, 871.00
1923, 871.00
1924, 871.00
1925, 871.00
1926, 871.00
1927, 871.00
1928, 871.00
1929, 871.00
1930, 870.00
1931, 870.00
1932, 870.00
1933, 871.00
1934, 871.00
1935, 871.00
1936, 871.00
1937, 871.00
1938, 871.00
1939, 872.00
1940, 871.00
1941, 872.00
1942, 872.00
1943, 871.00
1944, 871.00
1945, 872.00
1946, 872.00
1947, 872.00
1948, 872.00
1949, 872.00
1950, 871.00
1951, 872.00
1952, 873.00
1953, 872.00
1954, 872.00
1955, 872.00
1956, 873.00
1957, 873.00
1958, 873.00
1959, 874.00
1960, 874.00
1961, 873.00
1962, 874.00
1963, 874.00
1964, 874.00
1965, 874.00
1966, 875.00
1967, 875.00
1968, 875.00
1969, 876.00
1970, 876.00
1971, 876.00
1972, 876.00
1973, 877.00
1974, 876.00
1975, 876.00
1976, 877.00
1977, 877.00
1978, 877.00
1979, 877.00
1980, 878.00
1981, 878.00
1982, 878.00
1983, 878.00
1984, 878.00
1985, 879.00
1986, 878.00
1987, 879.00
1988, 879.00
1989, 879.00
1990, 880.00
1991, 879.00
1992, 880.00
1993, 880.00
1994, 881.00
1995, 881.00
1996, 881.00
1997, 882.00
1998, 882.00
1999, 882.00
2000, 882.00
2001, 882.00
2002, 882.00
2003, 882.00
2004, 883.00
2005, 883.00
2006, 883.00
2007, 884.00
2008, 884.00
2009, 884.00
2010, 884.00
2011, 884.00
2012, 884.00
2013, 885.00
2014, 884.00
2015, 886.00
2016, 885.00
2017, 886.00
2018, 885.00
2019, 886.00
2020, 886.00
2021, 886.00
2022, 887.00
2023, 887.00
2024, 887.00
2025, 888.00
2026, 888.00
2027, 888.00
2028, 887.00
2029, 888.00
2030, 888.00
2031, 889.00
2032, 889.00
2033, 889.00
2034, 889.00
2035, 889.00
2036, 889.00
2037, 890.00
2038, 890.00
2039, 891.00
2040, 891.00
2041, 892.00
2042, 892.00
2043, 892.00
2044, 893.00
2045, 892.00
2046, 893.00
2047, 893.00
2048, 893.00
2049, 894.00
2050, 894.00
2051, 895.00
2052, 894.00
2053, 895.00
2054, 895.00
2055, 895.00
2056, 896.00
2057, 896.00
2058, 897.00
2059, 897.00
2060, 897.00
2061, 897.00
2062, 897.00
2063, 897.00
2064, 899.00
2065, 899.00
2066, 899.00
2067, 900.00
2068, 900.00
2069, 900.00
2070, 901.00
2071, 901.00
2072, 901.00
2073, 901.00
2074, 901.00
2075, 902.00
2076, 903.00
2077, 903.00
2078, 903.00
2079, 904.00
2080, 905.00
2081, 905.00
2082, 904.00
2083, 905.00
2084, 905.00
2085, 905.00
2086, 905.00
2087, 905.00
2088, 906.00
2089, 906.00
2090, 906.00
2091, 907.00
2092, 907.00
2093, 907.00
2094, 907.00
2095, 908.00
2096, 908.00
2097, 909.00
2098, 908.00
2099, 909.00
2100, 909.00
2101, 908.00
2102, 909.00
2103, 910.00
2104, 909.00
2105, 910.00
2106, 910.00
2107, 910.00
2108, 911.00
2109, 910.00
2110, 910.00
2111, 911.00
2112, 911.00
2113, 911.00
2114, 912.00
2115, 912.00
2116, 912.00
2117, 912.00
2118, 912.00
2119, 912.00
2120, 911.00
2121, 912.00
2122, 912.00
2123, 913.00
2124, 912.00
2125, 912.00
2126, 913.00
2127, 914.00
2128, 913.00
2129, 913.00
2130, 914.00
2131, 913.00
2132, 914.00
2133, 914.00
2134, 915.00
2135, 914.00
2136, 914.00
2137, 915.00
2138, 915.00
2139, 915.00
2140, 915.00
2141, 915.00
2142, 915.00
2143, 915.00
2144, 915.00
2145, 916.00
2146, 915.00
2147, 915.00
2148, 916.00
2149, 916.00
2150, 915.00
