FW version: 24
Log Version: 3.0.3

General Info:
       Command/Macro Performed,            Timestamp,             Device ID, COM Port, UART/I2C, Test Name, Host Major, Host Minor, Host Revision, Host Git Commit
            Single_measurement,  2023_06_28_11_38_16,       Insight2_F4_xxx,    USB-C,      USB,          ,          0,          1,             1,      4031237645

Show Spectrometer Status:
l0_version, f4_version, battery_perc, battery_mVolt, accelerometer_temp, accelerometer_x, accelerometer_y, accelerometer_z, compass_temp, compass_x, compass_y, compass_z, lamp_0, lamp_1, gain_0, gain_1
        17,         24,           45,          1898,               6528,           65168,            1148,           18708,            0,     65437,     65533,     18741,   2047,   2047,      1,      1

Temperature Statistic Info:
NTC AVG [°C], NTC2 AVG [°C]
      39.850,        39.529

Statistic Info:
M1:  num,      min,      max,   median,      AVG,      STD,M2:  num,      min,      max,   median,      AVG,      STD
     301,   773.00,   898.00,   802.00,   815.82,  39.5731,     401,  1139.00,  1220.00,  1175.00,  1176.53,  26.5440,

Measurements:
Wavelength, Data Amplitude
1350, 792.00
1351, 793.00
1352, 792.00
1353, 791.00
1354, 790.00
1355, 790.00
1356, 789.00
1357, 790.00
1358, 790.00
1359, 788.00
1360, 788.00
1361, 788.00
1362, 788.00
1363, 787.00
1364, 786.00
1365, 786.00
1366, 785.00
1367, 785.00
1368, 784.00
1369, 784.00
1370, 784.00
1371, 784.00
1372, 782.00
1373, 782.00
1374, 781.00
1375, 781.00
1376, 781.00
1377, 780.00
1378, 780.00
1379, 780.00
1380, 779.00
1381, 778.00
1382, 779.00
1383, 777.00
1384, 778.00
1385, 778.00
1386, 777.00
1387, 777.00
1388, 777.00
1389, 776.00
1390, 777.00
1391, 777.00
1392, 775.00
1393, 777.00
1394, 775.00
1395, 775.00
1396, 775.00
1397, 775.00
1398, 775.00
1399, 775.00
1400, 775.00
1401, 775.00
1402, 775.00
1403, 774.00
1404, 774.00
1405, 774.00
1406, 774.00
1407, 775.00
1408, 774.00
1409, 774.00
1410, 774.00
1411, 773.00
1412, 774.00
1413, 774.00
1414, 774.00
1415, 774.00
1416, 774.00
1417, 774.00
1418, 773.00
1419, 774.00
1420, 775.00
1421, 774.00
1422, 774.00
1423, 775.00
1424, 774.00
1425, 775.00
1426, 774.00
1427, 774.00
1428, 775.00
1429, 775.00
1430, 775.00
1431, 776.00
1432, 776.00
1433, 775.00
1434, 775.00
1435, 776.00
1436, 777.00
1437, 778.00
1438, 776.00
1439, 776.00
1440, 776.00
1441, 778.00
1442, 778.00
1443, 777.00
1444, 778.00
1445, 778.00
1446, 778.00
1447, 779.00
1448, 778.00
1449, 780.00
1450, 779.00
1451, 781.00
1452, 780.00
1453, 780.00
1454, 780.00
1455, 781.00
1456, 781.00
1457, 781.00
1458, 781.00
1459, 782.00
1460, 782.00
1461, 782.00
1462, 783.00
1463, 784.00
1464, 784.00
1465, 785.00
1466, 784.00
1467, 785.00
1468, 786.00
1469, 786.00
1470, 785.00
1471, 786.00
1472, 788.00
1473, 786.00
1474, 788.00
1475, 789.00
1476, 789.00
1477, 790.00
1478, 790.00
1479, 791.00
1480, 792.00
1481, 792.00
1482, 791.00
1483, 793.00
1484, 794.00
1485, 794.00
1486, 794.00
1487, 795.00
1488, 795.00
1489, 795.00
1490, 797.00
1491, 797.00
1492, 797.00
1493, 797.00
1494, 798.00
1495, 799.00
1496, 799.00
1497, 800.00
1498, 801.00
1499, 801.00
1500, 802.00
1501, 802.00
1502, 804.00
1503, 804.00
1504, 805.00
1505, 805.00
1506, 806.00
1507, 805.00
1508, 806.00
1509, 806.00
1510, 807.00
1511, 808.00
1512, 807.00
1513, 809.00
1514, 810.00
1515, 811.00
1516, 811.00
1517, 811.00
1518, 812.00
1519, 812.00
1520, 813.00
1521, 814.00
1522, 815.00
1523, 815.00
1524, 815.00
1525, 817.00
1526, 818.00
1527, 818.00
1528, 818.00
1529, 819.00
1530, 820.00
1531, 820.00
1532, 822.00
1533, 821.00
1534, 823.00
1535, 823.00
1536, 823.00
1537, 825.00
1538, 825.00
1539, 825.00
1540, 827.00
1541, 827.00
1542, 827.00
1543, 828.00
1544, 828.00
1545, 829.00
1546, 830.00
1547, 830.00
1548, 831.00
1549, 832.00
1550, 832.00
1551, 834.00
1552, 834.00
1553, 834.00
1554, 836.00
1555, 835.00
1556, 836.00
1557, 837.00
1558, 837.00
1559, 838.00
1560, 839.00
1561, 840.00
1562, 840.00
1563, 840.00
1564, 842.00
1565, 842.00
1566, 843.00
1567, 844.00
1568, 844.00
1569, 845.00
1570, 846.00
1571, 846.00
1572, 847.00
1573, 848.00
1574, 848.00
1575, 849.00
1576, 850.00
1577, 850.00
1578, 850.00
1579, 851.00
1580, 852.00
1581, 853.00
1582, 853.00
1583, 854.00
1584, 855.00
1585, 854.00
1586, 856.00
1587, 856.00
1588, 857.00
1589, 858.00
1590, 858.00
1591, 859.00
1592, 860.00
1593, 860.00
1594, 860.00
1595, 861.00
1596, 862.00
1597, 862.00
1598, 863.00
1599, 864.00
1600, 864.00
1601, 865.00
1602, 866.00
1603, 866.00
1604, 868.00
1605, 868.00
1606, 868.00
1607, 869.00
1608, 871.00
1609, 871.00
1610, 872.00
1611, 872.00
1612, 873.00
1613, 875.00
1614, 875.00
1615, 874.00
1616, 877.00
1617, 877.00
1618, 879.00
1619, 878.00
1620, 879.00
1621, 880.00
1622, 880.00
1623, 882.00
1624, 883.00
1625, 883.00
1626, 883.00
1627, 884.00
1628, 885.00
1629, 886.00
1630, 887.00
1631, 888.00
1632, 888.00
1633, 889.00
1634, 890.00
1635, 890.00
1636, 890.00
1637, 891.00
1638, 891.00
1639, 893.00
1640, 893.00
1641, 893.00
1642, 894.00
1643, 895.00
1644, 894.00
1645, 895.00
1646, 896.00
1647, 896.00
1648, 897.00
1649, 897.00
1650, 898.00

1750, 1218.00
1751, 1218.00
1752, 1218.00
1753, 1218.00
1754, 1218.00
1755, 1218.00
1756, 1218.00
1757, 1220.00
1758, 1217.00
1759, 1218.00
1760, 1219.00
1761, 1217.00
1762, 1218.00
1763, 1217.00
1764, 1217.00
1765, 1219.00
1766, 1217.00
1767, 1217.00
1768, 1218.00
1769, 1216.00
1770, 1216.00
1771, 1217.00
1772, 1217.00
1773, 1216.00
1774, 1218.00
1775, 1215.00
1776, 1216.00
1777, 1215.00
1778, 1214.00
1779, 1217.00
1780, 1215.00
1781, 1214.00
1782, 1214.00
1783, 1215.00
1784, 1214.00
1785, 1214.00
1786, 1213.00
1787, 1212.00
1788, 1213.00
1789, 1213.00
1790, 1211.00
1791, 1211.00
1792, 1210.00
1793, 1211.00
1794, 1213.00
1795, 1211.00
1796, 1211.00
1797, 1210.00
1798, 1211.00
1799, 1209.00
1800, 1209.00
1801, 1209.00
1802, 1208.00
1803, 1210.00
1804, 1208.00
1805, 1209.00
1806, 1210.00
1807, 1207.00
1808, 1209.00
1809, 1207.00
1810, 1205.00
1811, 1209.00
1812, 1207.00
1813, 1204.00
1814, 1208.00
1815, 1207.00
1816, 1205.00
1817, 1205.00
1818, 1205.00
1819, 1204.00
1820, 1204.00
1821, 1205.00
1822, 1203.00
1823, 1201.00
1824, 1202.00
1825, 1201.00
1826, 1201.00
1827, 1201.00
1828, 1200.00
1829, 1197.00
1830, 1198.00
1831, 1196.00
1832, 1195.00
1833, 1197.00
1834, 1196.00
1835, 1193.00
1836, 1193.00
1837, 1191.00
1838, 1190.00
1839, 1190.00
1840, 1189.00
1841, 1187.00
1842, 1185.00
1843, 1184.00
1844, 1184.00
1845, 1182.00
1846, 1181.00
1847, 1180.00
1848, 1176.00
1849, 1176.00
1850, 1175.00
1851, 1173.00
1852, 1175.00
1853, 1173.00
1854, 1171.00
1855, 1171.00
1856, 1169.00
1857, 1168.00
1858, 1167.00
1859, 1166.00
1860, 1165.00
1861, 1161.00
1862, 1162.00
1863, 1158.00
1864, 1159.00
1865, 1158.00
1866, 1157.00
1867, 1157.00
1868, 1156.00
1869, 1155.00
1870, 1152.00
1871, 1155.00
1872, 1152.00
1873, 1153.00
1874, 1153.00
1875, 1152.00
1876, 1152.00
1877, 1152.00
1878, 1150.00
1879, 1151.00
1880, 1147.00
1881, 1148.00
1882, 1146.00
1883, 1146.00
1884, 1147.00
1885, 1146.00
1886, 1148.00
1887, 1145.00
1888, 1146.00
1889, 1145.00
1890, 1146.00
1891, 1145.00
1892, 1144.00
1893, 1144.00
1894, 1143.00
1895, 1144.00
1896, 1144.00
1897, 1146.00
1898, 1144.00
1899, 1142.00
1900, 1144.00
1901, 1143.00
1902, 1145.00
1903, 1141.00
1904, 1143.00
1905, 1143.00
1906, 1141.00
1907, 1141.00
1908, 1140.00
1909, 1141.00
1910, 1141.00
1911, 1142.00
1912, 1141.00
1913, 1141.00
1914, 1141.00
1915, 1139.00
1916, 1142.00
1917, 1142.00
1918, 1140.00
1919, 1141.00
1920, 1140.00
1921, 1140.00
1922, 1140.00
1923, 1141.00
1924, 1142.00
1925, 1141.00
1926, 1143.00
1927, 1141.00
1928, 1139.00
1929, 1142.00
1930, 1140.00
1931, 1143.00
1932, 1141.00
1933, 1141.00
1934, 1141.00
1935, 1141.00
1936, 1140.00
1937, 1141.00
1938, 1141.00
1939, 1141.00
1940, 1141.00
1941, 1144.00
1942, 1141.00
1943, 1141.00
1944, 1141.00
1945, 1142.00
1946, 1144.00
1947, 1142.00
1948, 1143.00
1949, 1144.00
1950, 1144.00
1951, 1144.00
1952, 1143.00
1953, 1143.00
1954, 1144.00
1955, 1146.00
1956, 1145.00
1957, 1143.00
1958, 1143.00
1959, 1145.00
1960, 1145.00
1961, 1143.00
1962, 1144.00
1963, 1146.00
1964, 1147.00
1965, 1147.00
1966, 1145.00
1967, 1146.00
1968, 1148.00
1969, 1147.00
1970, 1148.00
1971, 1149.00
1972, 1149.00
1973, 1149.00
1974, 1149.00
1975, 1147.00
1976, 1152.00
1977, 1149.00
1978, 1152.00
1979, 1150.00
1980, 1151.00
1981, 1153.00
1982, 1151.00
1983, 1152.00
1984, 1151.00
1985, 1151.00
1986, 1153.00
1987, 1152.00
1988, 1153.00
1989, 1154.00
1990, 1155.00
1991, 1155.00
1992, 1153.00
1993, 1156.00
1994, 1157.00
1995, 1156.00
1996, 1156.00
1997, 1155.00
1998, 1157.00
1999, 1156.00
2000, 1156.00
2001, 1157.00
2002, 1158.00
2003, 1157.00
2004, 1156.00
2005, 1159.00
2006, 1159.00
2007, 1160.00
2008, 1159.00
2009, 1158.00
2010, 1160.00
2011, 1157.00
2012, 1160.00
2013, 1161.00
2014, 1159.00
2015, 1163.00
2016, 1162.00
2017, 1161.00
2018, 1162.00
2019, 1163.00
2020, 1161.00
2021, 1164.00
2022, 1162.00
2023, 1164.00
2024, 1163.00
2025, 1167.00
2026, 1165.00
2027, 1165.00
2028, 1164.00
2029, 1165.00
2030, 1166.00
2031, 1166.00
2032, 1167.00
2033, 1165.00
2034, 1169.00
2035, 1167.00
2036, 1169.00
2037, 1167.00
2038, 1170.00
2039, 1170.00
2040, 1170.00
2041, 1170.00
2042, 1169.00
2043, 1170.00
2044, 1173.00
2045, 1173.00
2046, 1172.00
2047, 1173.00
2048, 1174.00
2049, 1176.00
2050, 1174.00
2051, 1175.00
2052, 1176.00
2053, 1177.00
2054, 1176.00
2055, 1177.00
2056, 1179.00
2057, 1178.00
2058, 1180.00
2059, 1177.00
2060, 1178.00
2061, 1179.00
2062, 1182.00
2063, 1182.00
2064, 1182.00
2065, 1182.00
2066, 1181.00
2067, 1182.00
2068, 1185.00
2069, 1183.00
2070, 1185.00
2071, 1185.00
2072, 1186.00
2073, 1184.00
2074, 1186.00
2075, 1187.00
2076, 1187.00
2077, 1189.00
2078, 1190.00
2079, 1189.00
2080, 1189.00
2081, 1189.00
2082, 1189.00
2083, 1192.00
2084, 1189.00
2085, 1190.00
2086, 1191.00
2087, 1192.00
2088, 1193.00
2089, 1193.00
2090, 1195.00
2091, 1193.00
2092, 1193.00
2093, 1195.00
2094, 1196.00
2095, 1194.00
2096, 1195.00
2097, 1196.00
2098, 1196.00
2099, 1197.00
2100, 1197.00
2101, 1197.00
2102, 1199.00
2103, 1196.00
2104, 1197.00
2105, 1198.00
2106, 1198.00
2107, 1198.00
2108, 1198.00
2109, 1197.00
2110, 1198.00
2111, 1200.00
2112, 1199.00
2113, 1201.00
2114, 1200.00
2115, 1199.00
2116, 1200.00
2117, 1200.00
2118, 1199.00
2119, 1202.00
2120, 1201.00
2121, 1201.00
2122, 1203.00
2123, 1203.00
2124, 1202.00
2125, 1203.00
2126, 1201.00
2127, 1202.00
2128, 1203.00
2129, 1202.00
2130, 1204.00
2131, 1205.00
2132, 1204.00
2133, 1203.00
2134, 1202.00
2135, 1205.00
2136, 1206.00
2137, 1206.00
2138, 1205.00
2139, 1204.00
2140, 1204.00
2141, 1205.00
2142, 1204.00
2143, 1206.00
2144, 1205.00
2145, 1205.00
2146, 1208.00
2147, 1206.00
2148, 1207.00
2149, 1207.00
2150, 1208.00
