FW version: 24
Log Version: 3.0.3

General Info:
       Command/Macro Performed,            Timestamp,             Device ID, COM Port, UART/I2C, Test Name, Host Major, Host Minor, Host Revision, Host Git Commit
            Single_measurement,  2023_06_28_11_39_22,       Insight2_F4_xxx,    USB-C,      USB,          ,          0,          1,             1,      4031237645

Show Spectrometer Status:
l0_version, f4_version, battery_perc, battery_mVolt, accelerometer_temp, accelerometer_x, accelerometer_y, accelerometer_z, compass_temp, compass_x, compass_y, compass_z, lamp_0, lamp_1, gain_0, gain_1
        17,         24,           45,          1896,               6544,           65252,             776,           18696,            0,     65519,     65439,     18747,   3276,   3276,      1,      1

Temperature Statistic Info:
NTC AVG [°C], NTC2 AVG [°C]
      40.352,        39.966

Statistic Info:
M1:  num,      min,      max,   median,      AVG,      STD,M2:  num,      min,      max,   median,      AVG,      STD
     301,  1940.00,  2226.00,  1998.00,  2034.51,  88.8921,     401,  2515.00,  2690.00,  2589.00,  2592.37,  56.8830,

Measurements:
Wavelength, Data Amplitude
1350, 1991.00
1351, 1991.00
1352, 1991.00
1353, 1989.00
1354, 1988.00
1355, 1988.00
1356, 1986.00
1357, 1985.00
1358, 1984.00
1359, 1983.00
1360, 1982.00
1361, 1980.00
1362, 1980.00
1363, 1978.00
1364, 1977.00
1365, 1975.00
1366, 1974.00
1367, 1974.00
1368, 1971.00
1369, 1970.00
1370, 1968.00
1371, 1967.00
1372, 1966.00
1373, 1963.00
1374, 1963.00
1375, 1962.00
1376, 1961.00
1377, 1960.00
1378, 1959.00
1379, 1958.00
1380, 1957.00
1381, 1955.00
1382, 1955.00
1383, 1953.00
1384, 1952.00
1385, 1951.00
1386, 1951.00
1387, 1949.00
1388, 1949.00
1389, 1950.00
1390, 1948.00
1391, 1947.00
1392, 1948.00
1393, 1948.00
1394, 1947.00
1395, 1946.00
1396, 1946.00
1397, 1945.00
1398, 1945.00
1399, 1944.00
1400, 1944.00
1401, 1943.00
1402, 1944.00
1403, 1943.00
1404, 1943.00
1405, 1944.00
1406, 1942.00
1407, 1943.00
1408, 1943.00
1409, 1941.00
1410, 1942.00
1411, 1942.00
1412, 1941.00
1413, 1941.00
1414, 1941.00
1415, 1940.00
1416, 1941.00
1417, 1942.00
1418, 1941.00
1419, 1941.00
1420, 1941.00
1421, 1941.00
1422, 1941.00
1423, 1941.00
1424, 1941.00
1425, 1942.00
1426, 1942.00
1427, 1941.00
1428, 1942.00
1429, 1943.00
1430, 1943.00
1431, 1943.00
1432, 1943.00
1433, 1943.00
1434, 1944.00
1435, 1943.00
1436, 1944.00
1437, 1945.00
1438, 1945.00
1439, 1946.00
1440, 1946.00
1441, 1947.00
1442, 1947.00
1443, 1948.00
1444, 1947.00
1445, 1948.00
1446, 1950.00
1447, 1948.00
1448, 1949.00
1449, 1950.00
1450, 1951.00
1451, 1952.00
1452, 1952.00
1453, 1953.00
1454, 1953.00
1455, 1955.00
1456, 1955.00
1457, 1955.00
1458, 1957.00
1459, 1956.00
1460, 1958.00
1461, 1957.00
1462, 1959.00
1463, 1961.00
1464, 1961.00
1465, 1962.00
1466, 1962.00
1467, 1963.00
1468, 1964.00
1469, 1965.00
1470, 1967.00
1471, 1967.00
1472, 1968.00
1473, 1969.00
1474, 1971.00
1475, 1971.00
1476, 1972.00
1477, 1973.00
1478, 1975.00
1479, 1975.00
1480, 1977.00
1481, 1979.00
1482, 1979.00
1483, 1979.00
1484, 1980.00
1485, 1982.00
1486, 1983.00
1487, 1987.00
1488, 1985.00
1489, 1987.00
1490, 1988.00
1491, 1989.00
1492, 1990.00
1493, 1991.00
1494, 1993.00
1495, 1993.00
1496, 1994.00
1497, 1996.00
1498, 1997.00
1499, 1998.00
1500, 1998.00
1501, 2001.00
1502, 2002.00
1503, 2003.00
1504, 2003.00
1505, 2005.00
1506, 2006.00
1507, 2007.00
1508, 2009.00
1509, 2010.00
1510, 2012.00
1511, 2012.00
1512, 2015.00
1513, 2015.00
1514, 2017.00
1515, 2019.00
1516, 2020.00
1517, 2020.00
1518, 2022.00
1519, 2025.00
1520, 2023.00
1521, 2026.00
1522, 2027.00
1523, 2029.00
1524, 2031.00
1525, 2032.00
1526, 2034.00
1527, 2035.00
1528, 2036.00
1529, 2037.00
1530, 2039.00
1531, 2040.00
1532, 2041.00
1533, 2042.00
1534, 2044.00
1535, 2045.00
1536, 2047.00
1537, 2049.00
1538, 2050.00
1539, 2052.00
1540, 2053.00
1541, 2055.00
1542, 2055.00
1543, 2056.00
1544, 2058.00
1545, 2060.00
1546, 2063.00
1547, 2064.00
1548, 2066.00
1549, 2067.00
1550, 2068.00
1551, 2069.00
1552, 2071.00
1553, 2073.00
1554, 2074.00
1555, 2076.00
1556, 2077.00
1557, 2080.00
1558, 2081.00
1559, 2082.00
1560, 2085.00
1561, 2086.00
1562, 2088.00
1563, 2088.00
1564, 2090.00
1565, 2092.00
1566, 2092.00
1567, 2095.00
1568, 2096.00
1569, 2098.00
1570, 2100.00
1571, 2101.00
1572, 2104.00
1573, 2104.00
1574, 2106.00
1575, 2108.00
1576, 2109.00
1577, 2111.00
1578, 2112.00
1579, 2114.00
1580, 2115.00
1581, 2118.00
1582, 2118.00
1583, 2120.00
1584, 2121.00
1585, 2122.00
1586, 2125.00
1587, 2125.00
1588, 2126.00
1589, 2128.00
1590, 2130.00
1591, 2132.00
1592, 2131.00
1593, 2134.00
1594, 2136.00
1595, 2138.00
1596, 2137.00
1597, 2139.00
1598, 2140.00
1599, 2142.00
1600, 2144.00
1601, 2146.00
1602, 2146.00
1603, 2149.00
1604, 2151.00
1605, 2151.00
1606, 2154.00
1607, 2155.00
1608, 2156.00
1609, 2159.00
1610, 2161.00
1611, 2162.00
1612, 2164.00
1613, 2165.00
1614, 2167.00
1615, 2169.00
1616, 2171.00
1617, 2172.00
1618, 2176.00
1619, 2176.00
1620, 2177.00
1621, 2180.00
1622, 2183.00
1623, 2183.00
1624, 2185.00
1625, 2187.00
1626, 2188.00
1627, 2190.00
1628, 2192.00
1629, 2193.00
1630, 2195.00
1631, 2197.00
1632, 2199.00
1633, 2200.00
1634, 2201.00
1635, 2203.00
1636, 2205.00
1637, 2205.00
1638, 2208.00
1639, 2209.00
1640, 2211.00
1641, 2211.00
1642, 2214.00
1643, 2214.00
1644, 2217.00
1645, 2217.00
1646, 2220.00
1647, 2221.00
1648, 2223.00
1649, 2225.00
1650, 2226.00

1750, 2688.00
1751, 2687.00
1752, 2688.00
1753, 2686.00
1754, 2689.00
1755, 2689.00
1756, 2688.00
1757, 2690.00
1758, 2688.00
1759, 2688.00
1760, 2687.00
1761, 2688.00
1762, 2687.00
1763, 2684.00
1764, 2687.00
1765, 2687.00
1766, 2687.00
1767, 2688.00
1768, 2687.00
1769, 2687.00
1770, 2685.00
1771, 2685.00
1772, 2685.00
1773, 2683.00
1774, 2684.00
1775, 2683.00
1776, 2680.00
1777, 2682.00
1778, 2682.00
1779, 2679.00
1780, 2680.00
1781, 2679.00
1782, 2678.00
1783, 2678.00
1784, 2676.00
1785, 2677.00
1786, 2676.00
1787, 2677.00
1788, 2674.00
1789, 2676.00
1790, 2676.00
1791, 2674.00
1792, 2676.00
1793, 2672.00
1794, 2673.00
1795, 2670.00
1796, 2671.00
1797, 2671.00
1798, 2672.00
1799, 2668.00
1800, 2668.00
1801, 2668.00
1802, 2667.00
1803, 2668.00
1804, 2668.00
1805, 2664.00
1806, 2667.00
1807, 2665.00
1808, 2663.00
1809, 2664.00
1810, 2662.00
1811, 2664.00
1812, 2661.00
1813, 2660.00
1814, 2661.00
1815, 2661.00
1816, 2660.00
1817, 2659.00
1818, 2659.00
1819, 2656.00
1820, 2654.00
1821, 2653.00
1822, 2653.00
1823, 2651.00
1824, 2649.00
1825, 2649.00
1826, 2648.00
1827, 2647.00
1828, 2642.00
1829, 2643.00
1830, 2640.00
1831, 2640.00
1832, 2638.00
1833, 2637.00
1834, 2635.00
1835, 2632.00
1836, 2629.00
1837, 2628.00
1838, 2624.00
1839, 2621.00
1840, 2617.00
1841, 2617.00
1842, 2616.00
1843, 2613.00
1844, 2611.00
1845, 2605.00
1846, 2605.00
1847, 2604.00
1848, 2599.00
1849, 2596.00
1850, 2593.00
1851, 2593.00
1852, 2590.00
1853, 2586.00
1854, 2582.00
1855, 2580.00
1856, 2579.00
1857, 2576.00
1858, 2572.00
1859, 2570.00
1860, 2565.00
1861, 2566.00
1862, 2562.00
1863, 2561.00
1864, 2558.00
1865, 2556.00
1866, 2555.00
1867, 2552.00
1868, 2552.00
1869, 2549.00
1870, 2548.00
1871, 2545.00
1872, 2545.00
1873, 2543.00
1874, 2541.00
1875, 2539.00
1876, 2538.00
1877, 2537.00
1878, 2537.00
1879, 2534.00
1880, 2533.00
1881, 2535.00
1882, 2533.00
1883, 2535.00
1884, 2532.00
1885, 2531.00
1886, 2529.00
1887, 2530.00
1888, 2529.00
1889, 2529.00
1890, 2527.00
1891, 2527.00
1892, 2528.00
1893, 2525.00
1894, 2525.00
1895, 2525.00
1896, 2524.00
1897, 2523.00
1898, 2522.00
1899, 2522.00
1900, 2523.00
1901, 2522.00
1902, 2521.00
1903, 2521.00
1904, 2519.00
1905, 2521.00
1906, 2521.00
1907, 2520.00
1908, 2519.00
1909, 2519.00
1910, 2522.00
1911, 2518.00
1912, 2518.00
1913, 2518.00
1914, 2519.00
1915, 2519.00
1916, 2517.00
1917, 2517.00
1918, 2518.00
1919, 2519.00
1920, 2517.00
1921, 2515.00
1922, 2518.00
1923, 2516.00
1924, 2519.00
1925, 2518.00
1926, 2519.00
1927, 2519.00
1928, 2519.00
1929, 2517.00
1930, 2519.00
1931, 2517.00
1932, 2518.00
1933, 2517.00
1934, 2516.00
1935, 2517.00
1936, 2518.00
1937, 2516.00
1938, 2519.00
1939, 2518.00
1940, 2521.00
1941, 2520.00
1942, 2519.00
1943, 2521.00
1944, 2518.00
1945, 2518.00
1946, 2520.00
1947, 2521.00
1948, 2520.00
1949, 2519.00
1950, 2520.00
1951, 2522.00
1952, 2524.00
1953, 2524.00
1954, 2523.00
1955, 2522.00
1956, 2523.00
1957, 2524.00
1958, 2525.00
1959, 2526.00
1960, 2524.00
1961, 2527.00
1962, 2527.00
1963, 2527.00
1964, 2527.00
1965, 2529.00
1966, 2528.00
1967, 2529.00
1968, 2530.00
1969, 2530.00
1970, 2529.00
1971, 2531.00
1972, 2531.00
1973, 2534.00
1974, 2533.00
1975, 2535.00
1976, 2534.00
1977, 2536.00
1978, 2535.00
1979, 2536.00
1980, 2537.00
1981, 2538.00
1982, 2538.00
1983, 2537.00
1984, 2539.00
1985, 2541.00
1986, 2543.00
1987, 2542.00
1988, 2543.00
1989, 2542.00
1990, 2545.00
1991, 2543.00
1992, 2545.00
1993, 2545.00
1994, 2545.00
1995, 2547.00
1996, 2547.00
1997, 2549.00
1998, 2549.00
1999, 2550.00
2000, 2551.00
2001, 2550.00
2002, 2552.00
2003, 2551.00
2004, 2554.00
2005, 2551.00
2006, 2553.00
2007, 2555.00
2008, 2555.00
2009, 2555.00
2010, 2555.00
2011, 2556.00
2012, 2553.00
2013, 2557.00
2014, 2558.00
2015, 2560.00
2016, 2558.00
2017, 2560.00
2018, 2561.00
2019, 2561.00
2020, 2562.00
2021, 2562.00
2022, 2564.00
2023, 2563.00
2024, 2567.00
2025, 2565.00
2026, 2564.00
2027, 2566.00
2028, 2570.00
2029, 2572.00
2030, 2569.00
2031, 2569.00
2032, 2570.00
2033, 2572.00
2034, 2571.00
2035, 2571.00
2036, 2573.00
2037, 2574.00
2038, 2575.00
2039, 2577.00
2040, 2576.00
2041, 2577.00
2042, 2579.00
2043, 2579.00
2044, 2579.00
2045, 2579.00
2046, 2583.00
2047, 2581.00
2048, 2583.00
2049, 2585.00
2050, 2584.00
2051, 2585.00
2052, 2585.00
2053, 2589.00
2054, 2589.00
2055, 2589.00
2056, 2590.00
2057, 2592.00
2058, 2595.00
2059, 2594.00
2060, 2595.00
2061, 2596.00
2062, 2597.00
2063, 2599.00
2064, 2600.00
2065, 2600.00
2066, 2600.00
2067, 2601.00
2068, 2602.00
2069, 2603.00
2070, 2603.00
2071, 2604.00
2072, 2607.00
2073, 2607.00
2074, 2610.00
2075, 2611.00
2076, 2611.00
2077, 2612.00
2078, 2611.00
2079, 2612.00
2080, 2614.00
2081, 2615.00
2082, 2615.00
2083, 2616.00
2084, 2616.00
2085, 2619.00
2086, 2619.00
2087, 2619.00
2088, 2620.00
2089, 2621.00
2090, 2621.00
2091, 2624.00
2092, 2625.00
2093, 2624.00
2094, 2626.00
2095, 2625.00
2096, 2624.00
2097, 2627.00
2098, 2625.00
2099, 2628.00
2100, 2627.00
2101, 2630.00
2102, 2630.00
2103, 2631.00
2104, 2630.00
2105, 2631.00
2106, 2632.00
2107, 2632.00
2108, 2632.00
2109, 2634.00
2110, 2634.00
2111, 2635.00
2112, 2633.00
2113, 2635.00
2114, 2633.00
2115, 2636.00
2116, 2636.00
2117, 2638.00
2118, 2639.00
2119, 2637.00
2120, 2639.00
2121, 2640.00
2122, 2638.00
2123, 2640.00
2124, 2640.00
2125, 2640.00
2126, 2640.00
2127, 2639.00
2128, 2642.00
2129, 2642.00
2130, 2642.00
2131, 2640.00
2132, 2642.00
2133, 2642.00
2134, 2642.00
2135, 2642.00
2136, 2646.00
2137, 2644.00
2138, 2644.00
2139, 2646.00
2140, 2646.00
2141, 2645.00
2142, 2645.00
2143, 2646.00
2144, 2647.00
2145, 2647.00
2146, 2648.00
2147, 2649.00
2148, 2647.00
2149, 2648.00
2150, 2649.00
