FW version: 24
Log Version: 3.0.3

General Info:
       Command/Macro Performed,            Timestamp,             Device ID, COM Port, UART/I2C, Test Name, Host Major, Host Minor, Host Revision, Host Git Commit
            Single_measurement,  2023_06_28_11_39_03,       Insight2_F4_xxx,    USB-C,      USB,          ,          0,          1,             1,      4031237645

Show Spectrometer Status:
l0_version, f4_version, battery_perc, battery_mVolt, accelerometer_temp, accelerometer_x, accelerometer_y, accelerometer_z, compass_temp, compass_x, compass_y, compass_z, lamp_0, lamp_1, gain_0, gain_1
        17,         24,           45,          1897,               6528,           65248,             800,           18564,            0,     65519,     65464,     18612,   2866,   2866,      1,      1

Temperature Statistic Info:
NTC AVG [°C], NTC2 AVG [°C]
      40.173,        39.850

Statistic Info:
M1:  num,      min,      max,   median,      AVG,      STD,M2:  num,      min,      max,   median,      AVG,      STD
     301,  1510.00,  1740.00,  1558.00,  1585.58,  71.3425,     401,  2026.00,  2168.00,  2087.00,  2090.20,  46.3201,

Measurements:
Wavelength, Data Amplitude
1350, 1549.00
1351, 1549.00
1352, 1547.00
1353, 1547.00
1354, 1545.00
1355, 1545.00
1356, 1545.00
1357, 1543.00
1358, 1543.00
1359, 1543.00
1360, 1542.00
1361, 1541.00
1362, 1540.00
1363, 1539.00
1364, 1537.00
1365, 1538.00
1366, 1536.00
1367, 1534.00
1368, 1533.00
1369, 1532.00
1370, 1531.00
1371, 1530.00
1372, 1529.00
1373, 1528.00
1374, 1529.00
1375, 1527.00
1376, 1526.00
1377, 1525.00
1378, 1524.00
1379, 1523.00
1380, 1523.00
1381, 1521.00
1382, 1521.00
1383, 1520.00
1384, 1519.00
1385, 1518.00
1386, 1519.00
1387, 1518.00
1388, 1518.00
1389, 1517.00
1390, 1517.00
1391, 1516.00
1392, 1515.00
1393, 1515.00
1394, 1513.00
1395, 1514.00
1396, 1514.00
1397, 1513.00
1398, 1513.00
1399, 1512.00
1400, 1513.00
1401, 1513.00
1402, 1513.00
1403, 1512.00
1404, 1511.00
1405, 1513.00
1406, 1511.00
1407, 1511.00
1408, 1511.00
1409, 1512.00
1410, 1511.00
1411, 1511.00
1412, 1511.00
1413, 1510.00
1414, 1511.00
1415, 1511.00
1416, 1511.00
1417, 1511.00
1418, 1511.00
1419, 1510.00
1420, 1510.00
1421, 1511.00
1422, 1512.00
1423, 1511.00
1424, 1510.00
1425, 1511.00
1426, 1511.00
1427, 1512.00
1428, 1511.00
1429, 1513.00
1430, 1513.00
1431, 1513.00
1432, 1513.00
1433, 1513.00
1434, 1513.00
1435, 1513.00
1436, 1513.00
1437, 1514.00
1438, 1514.00
1439, 1514.00
1440, 1515.00
1441, 1515.00
1442, 1515.00
1443, 1516.00
1444, 1516.00
1445, 1516.00
1446, 1517.00
1447, 1517.00
1448, 1518.00
1449, 1519.00
1450, 1519.00
1451, 1519.00
1452, 1519.00
1453, 1521.00
1454, 1521.00
1455, 1521.00
1456, 1522.00
1457, 1523.00
1458, 1523.00
1459, 1523.00
1460, 1524.00
1461, 1525.00
1462, 1526.00
1463, 1528.00
1464, 1527.00
1465, 1528.00
1466, 1528.00
1467, 1530.00
1468, 1530.00
1469, 1531.00
1470, 1531.00
1471, 1533.00
1472, 1532.00
1473, 1533.00
1474, 1535.00
1475, 1535.00
1476, 1536.00
1477, 1536.00
1478, 1538.00
1479, 1538.00
1480, 1538.00
1481, 1541.00
1482, 1541.00
1483, 1542.00
1484, 1543.00
1485, 1545.00
1486, 1544.00
1487, 1546.00
1488, 1547.00
1489, 1548.00
1490, 1549.00
1491, 1550.00
1492, 1551.00
1493, 1551.00
1494, 1552.00
1495, 1553.00
1496, 1554.00
1497, 1555.00
1498, 1557.00
1499, 1557.00
1500, 1558.00
1501, 1559.00
1502, 1560.00
1503, 1562.00
1504, 1562.00
1505, 1563.00
1506, 1564.00
1507, 1563.00
1508, 1565.00
1509, 1567.00
1510, 1568.00
1511, 1569.00
1512, 1570.00
1513, 1571.00
1514, 1571.00
1515, 1573.00
1516, 1575.00
1517, 1575.00
1518, 1575.00
1519, 1577.00
1520, 1578.00
1521, 1580.00
1522, 1581.00
1523, 1583.00
1524, 1583.00
1525, 1584.00
1526, 1586.00
1527, 1586.00
1528, 1587.00
1529, 1589.00
1530, 1589.00
1531, 1590.00
1532, 1591.00
1533, 1594.00
1534, 1593.00
1535, 1596.00
1536, 1596.00
1537, 1598.00
1538, 1600.00
1539, 1600.00
1540, 1601.00
1541, 1601.00
1542, 1604.00
1543, 1605.00
1544, 1605.00
1545, 1606.00
1546, 1609.00
1547, 1610.00
1548, 1610.00
1549, 1612.00
1550, 1613.00
1551, 1614.00
1552, 1615.00
1553, 1615.00
1554, 1617.00
1555, 1618.00
1556, 1621.00
1557, 1621.00
1558, 1622.00
1559, 1626.00
1560, 1626.00
1561, 1627.00
1562, 1627.00
1563, 1629.00
1564, 1630.00
1565, 1632.00
1566, 1632.00
1567, 1633.00
1568, 1636.00
1569, 1637.00
1570, 1639.00
1571, 1639.00
1572, 1641.00
1573, 1641.00
1574, 1642.00
1575, 1645.00
1576, 1645.00
1577, 1647.00
1578, 1648.00
1579, 1649.00
1580, 1651.00
1581, 1651.00
1582, 1653.00
1583, 1653.00
1584, 1655.00
1585, 1655.00
1586, 1657.00
1587, 1659.00
1588, 1658.00
1589, 1661.00
1590, 1662.00
1591, 1662.00
1592, 1664.00
1593, 1665.00
1594, 1665.00
1595, 1667.00
1596, 1668.00
1597, 1670.00
1598, 1671.00
1599, 1672.00
1600, 1673.00
1601, 1674.00
1602, 1675.00
1603, 1676.00
1604, 1678.00
1605, 1679.00
1606, 1680.00
1607, 1681.00
1608, 1683.00
1609, 1684.00
1610, 1685.00
1611, 1687.00
1612, 1689.00
1613, 1690.00
1614, 1691.00
1615, 1693.00
1616, 1694.00
1617, 1695.00
1618, 1697.00
1619, 1699.00
1620, 1701.00
1621, 1702.00
1622, 1705.00
1623, 1705.00
1624, 1706.00
1625, 1708.00
1626, 1709.00
1627, 1711.00
1628, 1713.00
1629, 1713.00
1630, 1715.00
1631, 1717.00
1632, 1717.00
1633, 1719.00
1634, 1720.00
1635, 1721.00
1636, 1722.00
1637, 1724.00
1638, 1724.00
1639, 1726.00
1640, 1727.00
1641, 1729.00
1642, 1730.00
1643, 1731.00
1644, 1731.00
1645, 1734.00
1646, 1734.00
1647, 1736.00
1648, 1737.00
1649, 1739.00
1650, 1740.00

1750, 2167.00
1751, 2167.00
1752, 2168.00
1753, 2167.00
1754, 2166.00
1755, 2165.00
1756, 2167.00
1757, 2167.00
1758, 2167.00
1759, 2166.00
1760, 2166.00
1761, 2165.00
1762, 2166.00
1763, 2165.00
1764, 2164.00
1765, 2165.00
1766, 2164.00
1767, 2165.00
1768, 2164.00
1769, 2166.00
1770, 2162.00
1771, 2164.00
1772, 2163.00
1773, 2163.00
1774, 2163.00
1775, 2163.00
1776, 2163.00
1777, 2162.00
1778, 2161.00
1779, 2162.00
1780, 2160.00
1781, 2161.00
1782, 2159.00
1783, 2160.00
1784, 2160.00
1785, 2157.00
1786, 2158.00
1787, 2158.00
1788, 2157.00
1789, 2157.00
1790, 2157.00
1791, 2155.00
1792, 2154.00
1793, 2155.00
1794, 2153.00
1795, 2154.00
1796, 2154.00
1797, 2155.00
1798, 2151.00
1799, 2150.00
1800, 2150.00
1801, 2150.00
1802, 2150.00
1803, 2150.00
1804, 2150.00
1805, 2148.00
1806, 2148.00
1807, 2147.00
1808, 2147.00
1809, 2147.00
1810, 2147.00
1811, 2147.00
1812, 2144.00
1813, 2143.00
1814, 2144.00
1815, 2143.00
1816, 2143.00
1817, 2144.00
1818, 2142.00
1819, 2142.00
1820, 2141.00
1821, 2139.00
1822, 2139.00
1823, 2138.00
1824, 2137.00
1825, 2135.00
1826, 2135.00
1827, 2135.00
1828, 2133.00
1829, 2132.00
1830, 2129.00
1831, 2127.00
1832, 2127.00
1833, 2126.00
1834, 2123.00
1835, 2122.00
1836, 2121.00
1837, 2119.00
1838, 2116.00
1839, 2114.00
1840, 2112.00
1841, 2109.00
1842, 2109.00
1843, 2107.00
1844, 2105.00
1845, 2104.00
1846, 2100.00
1847, 2099.00
1848, 2097.00
1849, 2094.00
1850, 2089.00
1851, 2089.00
1852, 2086.00
1853, 2082.00
1854, 2082.00
1855, 2079.00
1856, 2078.00
1857, 2078.00
1858, 2071.00
1859, 2070.00
1860, 2069.00
1861, 2068.00
1862, 2066.00
1863, 2064.00
1864, 2063.00
1865, 2062.00
1866, 2062.00
1867, 2056.00
1868, 2057.00
1869, 2055.00
1870, 2053.00
1871, 2051.00
1872, 2050.00
1873, 2049.00
1874, 2047.00
1875, 2047.00
1876, 2047.00
1877, 2047.00
1878, 2045.00
1879, 2042.00
1880, 2045.00
1881, 2042.00
1882, 2041.00
1883, 2043.00
1884, 2040.00
1885, 2041.00
1886, 2040.00
1887, 2039.00
1888, 2040.00
1889, 2038.00
1890, 2037.00
1891, 2037.00
1892, 2035.00
1893, 2035.00
1894, 2034.00
1895, 2035.00
1896, 2034.00
1897, 2033.00
1898, 2034.00
1899, 2034.00
1900, 2032.00
1901, 2032.00
1902, 2032.00
1903, 2031.00
1904, 2031.00
1905, 2032.00
1906, 2029.00
1907, 2030.00
1908, 2029.00
1909, 2030.00
1910, 2029.00
1911, 2030.00
1912, 2029.00
1913, 2029.00
1914, 2027.00
1915, 2031.00
1916, 2029.00
1917, 2030.00
1918, 2028.00
1919, 2028.00
1920, 2028.00
1921, 2029.00
1922, 2028.00
1923, 2029.00
1924, 2027.00
1925, 2027.00
1926, 2030.00
1927, 2029.00
1928, 2029.00
1929, 2030.00
1930, 2029.00
1931, 2026.00
1932, 2027.00
1933, 2030.00
1934, 2030.00
1935, 2029.00
1936, 2029.00
1937, 2030.00
1938, 2029.00
1939, 2029.00
1940, 2031.00
1941, 2031.00
1942, 2030.00
1943, 2029.00
1944, 2030.00
1945, 2031.00
1946, 2031.00
1947, 2031.00
1948, 2031.00
1949, 2032.00
1950, 2033.00
1951, 2033.00
1952, 2032.00
1953, 2033.00
1954, 2034.00
1955, 2034.00
1956, 2035.00
1957, 2035.00
1958, 2035.00
1959, 2032.00
1960, 2036.00
1961, 2036.00
1962, 2035.00
1963, 2037.00
1964, 2037.00
1965, 2036.00
1966, 2038.00
1967, 2038.00
1968, 2039.00
1969, 2042.00
1970, 2039.00
1971, 2041.00
1972, 2041.00
1973, 2043.00
1974, 2041.00
1975, 2042.00
1976, 2042.00
1977, 2042.00
1978, 2043.00
1979, 2044.00
1980, 2046.00
1981, 2044.00
1982, 2046.00
1983, 2046.00
1984, 2046.00
1985, 2047.00
1986, 2048.00
1987, 2049.00
1988, 2048.00
1989, 2049.00
1990, 2051.00
1991, 2052.00
1992, 2052.00
1993, 2053.00
1994, 2052.00
1995, 2052.00
1996, 2052.00
1997, 2053.00
1998, 2053.00
1999, 2056.00
2000, 2055.00
2001, 2057.00
2002, 2056.00
2003, 2058.00
2004, 2056.00
2005, 2059.00
2006, 2059.00
2007, 2060.00
2008, 2061.00
2009, 2061.00
2010, 2060.00
2011, 2061.00
2012, 2063.00
2013, 2062.00
2014, 2063.00
2015, 2064.00
2016, 2063.00
2017, 2064.00
2018, 2067.00
2019, 2066.00
2020, 2065.00
2021, 2068.00
2022, 2067.00
2023, 2067.00
2024, 2069.00
2025, 2070.00
2026, 2070.00
2027, 2069.00
2028, 2071.00
2029, 2070.00
2030, 2072.00
2031, 2070.00
2032, 2072.00
2033, 2073.00
2034, 2074.00
2035, 2074.00
2036, 2075.00
2037, 2076.00
2038, 2076.00
2039, 2078.00
2040, 2076.00
2041, 2077.00
2042, 2078.00
2043, 2079.00
2044, 2080.00
2045, 2081.00
2046, 2083.00
2047, 2084.00
2048, 2084.00
2049, 2085.00
2050, 2085.00
2051, 2087.00
2052, 2085.00
2053, 2088.00
2054, 2088.00
2055, 2091.00
2056, 2090.00
2057, 2090.00
2058, 2093.00
2059, 2090.00
2060, 2094.00
2061, 2093.00
2062, 2097.00
2063, 2097.00
2064, 2096.00
2065, 2097.00
2066, 2097.00
2067, 2100.00
2068, 2100.00
2069, 2101.00
2070, 2101.00
2071, 2102.00
2072, 2102.00
2073, 2104.00
2074, 2105.00
2075, 2105.00
2076, 2106.00
2077, 2107.00
2078, 2107.00
2079, 2107.00
2080, 2111.00
2081, 2109.00
2082, 2110.00
2083, 2111.00
2084, 2112.00
2085, 2112.00
2086, 2113.00
2087, 2114.00
2088, 2114.00
2089, 2114.00
2090, 2116.00
2091, 2115.00
2092, 2116.00
2093, 2115.00
2094, 2117.00
2095, 2119.00
2096, 2121.00
2097, 2118.00
2098, 2120.00
2099, 2120.00
2100, 2122.00
2101, 2123.00
2102, 2123.00
2103, 2122.00
2104, 2123.00
2105, 2123.00
2106, 2123.00
2107, 2124.00
2108, 2125.00
2109, 2123.00
2110, 2125.00
2111, 2124.00
2112, 2127.00
2113, 2126.00
2114, 2128.00
2115, 2126.00
2116, 2127.00
2117, 2128.00
2118, 2129.00
2119, 2127.00
2120, 2129.00
2121, 2129.00
2122, 2130.00
2123, 2130.00
2124, 2131.00
2125, 2131.00
2126, 2130.00
2127, 2133.00
2128, 2131.00
2129, 2132.00
2130, 2133.00
2131, 2133.00
2132, 2132.00
2133, 2134.00
2134, 2133.00
2135, 2133.00
2136, 2135.00
2137, 2135.00
2138, 2135.00
2139, 2134.00
2140, 2135.00
2141, 2135.00
2142, 2135.00
2143, 2137.00
2144, 2137.00
2145, 2136.00
2146, 2137.00
2147, 2137.00
2148, 2137.00
2149, 2138.00
2150, 2136.00
