FW version: 24
Log Version: 3.0.3

General Info:
       Command/Macro Performed,            Timestamp,             Device ID, COM Port, UART/I2C, Test Name, Host Major, Host Minor, Host Revision, Host Git Commit
            Single_measurement,  2023_06_28_11_39_14,       Insight2_F4_xxx,    USB-C,      USB,          ,          0,          1,             1,      4031237645

Show Spectrometer Status:
l0_version, f4_version, battery_perc, battery_mVolt, accelerometer_temp, accelerometer_x, accelerometer_y, accelerometer_z, compass_temp, compass_x, compass_y, compass_z, lamp_0, lamp_1, gain_0, gain_1
        17,         24,           45,          1897,               6528,           65096,             948,           18808,            0,     65484,     65468,     18811,   3276,   3276,      1,      1

Temperature Statistic Info:
NTC AVG [°C], NTC2 AVG [°C]
      40.292,        39.966

Statistic Info:
M1:  num,      min,      max,   median,      AVG,      STD,M2:  num,      min,      max,   median,      AVG,      STD
     301,  1942.00,  2227.00,  2000.00,  2035.85,  88.9360,     401,  2516.00,  2690.00,  2589.00,  2593.16,  56.8191,

Measurements:
Wavelength, Data Amplitude
1350, 1993.00
1351, 1994.00
1352, 1991.00
1353, 1990.00
1354, 1989.00
1355, 1989.00
1356, 1988.00
1357, 1986.00
1358, 1986.00
1359, 1985.00
1360, 1983.00
1361, 1983.00
1362, 1981.00
1363, 1980.00
1364, 1977.00
1365, 1978.00
1366, 1975.00
1367, 1975.00
1368, 1973.00
1369, 1972.00
1370, 1970.00
1371, 1969.00
1372, 1967.00
1373, 1967.00
1374, 1965.00
1375, 1963.00
1376, 1961.00
1377, 1961.00
1378, 1959.00
1379, 1959.00
1380, 1959.00
1381, 1957.00
1382, 1957.00
1383, 1954.00
1384, 1953.00
1385, 1952.00
1386, 1952.00
1387, 1951.00
1388, 1951.00
1389, 1951.00
1390, 1949.00
1391, 1950.00
1392, 1950.00
1393, 1949.00
1394, 1948.00
1395, 1946.00
1396, 1947.00
1397, 1947.00
1398, 1945.00
1399, 1945.00
1400, 1945.00
1401, 1946.00
1402, 1944.00
1403, 1945.00
1404, 1944.00
1405, 1945.00
1406, 1944.00
1407, 1944.00
1408, 1944.00
1409, 1943.00
1410, 1944.00
1411, 1943.00
1412, 1942.00
1413, 1943.00
1414, 1943.00
1415, 1943.00
1416, 1943.00
1417, 1943.00
1418, 1942.00
1419, 1943.00
1420, 1942.00
1421, 1942.00
1422, 1942.00
1423, 1943.00
1424, 1942.00
1425, 1942.00
1426, 1943.00
1427, 1942.00
1428, 1944.00
1429, 1944.00
1430, 1944.00
1431, 1943.00
1432, 1944.00
1433, 1944.00
1434, 1945.00
1435, 1946.00
1436, 1945.00
1437, 1946.00
1438, 1946.00
1439, 1946.00
1440, 1947.00
1441, 1948.00
1442, 1949.00
1443, 1948.00
1444, 1950.00
1445, 1951.00
1446, 1951.00
1447, 1951.00
1448, 1951.00
1449, 1951.00
1450, 1953.00
1451, 1952.00
1452, 1954.00
1453, 1953.00
1454, 1954.00
1455, 1956.00
1456, 1955.00
1457, 1957.00
1458, 1957.00
1459, 1958.00
1460, 1959.00
1461, 1960.00
1462, 1961.00
1463, 1961.00
1464, 1962.00
1465, 1963.00
1466, 1964.00
1467, 1965.00
1468, 1965.00
1469, 1966.00
1470, 1969.00
1471, 1968.00
1472, 1969.00
1473, 1970.00
1474, 1971.00
1475, 1973.00
1476, 1973.00
1477, 1974.00
1478, 1976.00
1479, 1977.00
1480, 1978.00
1481, 1980.00
1482, 1980.00
1483, 1979.00
1484, 1981.00
1485, 1983.00
1486, 1984.00
1487, 1987.00
1488, 1987.00
1489, 1989.00
1490, 1989.00
1491, 1990.00
1492, 1992.00
1493, 1993.00
1494, 1994.00
1495, 1995.00
1496, 1996.00
1497, 1997.00
1498, 1998.00
1499, 1999.00
1500, 2000.00
1501, 2001.00
1502, 2002.00
1503, 2006.00
1504, 2005.00
1505, 2007.00
1506, 2007.00
1507, 2009.00
1508, 2011.00
1509, 2011.00
1510, 2011.00
1511, 2013.00
1512, 2015.00
1513, 2017.00
1514, 2017.00
1515, 2020.00
1516, 2021.00
1517, 2022.00
1518, 2024.00
1519, 2023.00
1520, 2026.00
1521, 2028.00
1522, 2028.00
1523, 2030.00
1524, 2030.00
1525, 2033.00
1526, 2034.00
1527, 2035.00
1528, 2037.00
1529, 2038.00
1530, 2040.00
1531, 2041.00
1532, 2044.00
1533, 2044.00
1534, 2045.00
1535, 2047.00
1536, 2048.00
1537, 2049.00
1538, 2053.00
1539, 2053.00
1540, 2055.00
1541, 2056.00
1542, 2058.00
1543, 2059.00
1544, 2061.00
1545, 2062.00
1546, 2064.00
1547, 2064.00
1548, 2066.00
1549, 2067.00
1550, 2069.00
1551, 2070.00
1552, 2073.00
1553, 2074.00
1554, 2074.00
1555, 2076.00
1556, 2079.00
1557, 2081.00
1558, 2082.00
1559, 2083.00
1560, 2085.00
1561, 2086.00
1562, 2090.00
1563, 2089.00
1564, 2091.00
1565, 2093.00
1566, 2094.00
1567, 2097.00
1568, 2099.00
1569, 2099.00
1570, 2101.00
1571, 2102.00
1572, 2104.00
1573, 2106.00
1574, 2109.00
1575, 2110.00
1576, 2111.00
1577, 2111.00
1578, 2114.00
1579, 2116.00
1580, 2117.00
1581, 2118.00
1582, 2119.00
1583, 2120.00
1584, 2123.00
1585, 2123.00
1586, 2125.00
1587, 2127.00
1588, 2130.00
1589, 2130.00
1590, 2131.00
1591, 2133.00
1592, 2134.00
1593, 2136.00
1594, 2137.00
1595, 2139.00
1596, 2139.00
1597, 2141.00
1598, 2143.00
1599, 2144.00
1600, 2145.00
1601, 2147.00
1602, 2147.00
1603, 2150.00
1604, 2152.00
1605, 2153.00
1606, 2154.00
1607, 2156.00
1608, 2158.00
1609, 2159.00
1610, 2161.00
1611, 2163.00
1612, 2165.00
1613, 2167.00
1614, 2169.00
1615, 2170.00
1616, 2172.00
1617, 2175.00
1618, 2176.00
1619, 2179.00
1620, 2180.00
1621, 2182.00
1622, 2183.00
1623, 2185.00
1624, 2187.00
1625, 2188.00
1626, 2190.00
1627, 2190.00
1628, 2193.00
1629, 2194.00
1630, 2197.00
1631, 2198.00
1632, 2199.00
1633, 2202.00
1634, 2203.00
1635, 2204.00
1636, 2206.00
1637, 2207.00
1638, 2208.00
1639, 2212.00
1640, 2213.00
1641, 2214.00
1642, 2216.00
1643, 2217.00
1644, 2219.00
1645, 2219.00
1646, 2220.00
1647, 2222.00
1648, 2224.00
1649, 2226.00
1650, 2227.00

1750, 2688.00
1751, 2689.00
1752, 2688.00
1753, 2689.00
1754, 2689.00
1755, 2689.00
1756, 2689.00
1757, 2689.00
1758, 2690.00
1759, 2689.00
1760, 2687.00
1761, 2688.00
1762, 2688.00
1763, 2685.00
1764, 2688.00
1765, 2686.00
1766, 2687.00
1767, 2688.00
1768, 2687.00
1769, 2687.00
1770, 2686.00
1771, 2687.00
1772, 2686.00
1773, 2686.00
1774, 2684.00
1775, 2684.00
1776, 2683.00
1777, 2683.00
1778, 2681.00
1779, 2682.00
1780, 2681.00
1781, 2681.00
1782, 2680.00
1783, 2679.00
1784, 2678.00
1785, 2679.00
1786, 2676.00
1787, 2677.00
1788, 2678.00
1789, 2675.00
1790, 2676.00
1791, 2675.00
1792, 2674.00
1793, 2672.00
1794, 2671.00
1795, 2672.00
1796, 2671.00
1797, 2671.00
1798, 2670.00
1799, 2670.00
1800, 2669.00
1801, 2669.00
1802, 2667.00
1803, 2669.00
1804, 2665.00
1805, 2666.00
1806, 2668.00
1807, 2667.00
1808, 2666.00
1809, 2664.00
1810, 2665.00
1811, 2661.00
1812, 2661.00
1813, 2663.00
1814, 2663.00
1815, 2661.00
1816, 2660.00
1817, 2659.00
1818, 2658.00
1819, 2658.00
1820, 2657.00
1821, 2655.00
1822, 2654.00
1823, 2655.00
1824, 2651.00
1825, 2649.00
1826, 2649.00
1827, 2647.00
1828, 2644.00
1829, 2643.00
1830, 2643.00
1831, 2641.00
1832, 2637.00
1833, 2636.00
1834, 2635.00
1835, 2632.00
1836, 2629.00
1837, 2628.00
1838, 2627.00
1839, 2622.00
1840, 2622.00
1841, 2619.00
1842, 2614.00
1843, 2612.00
1844, 2610.00
1845, 2607.00
1846, 2605.00
1847, 2603.00
1848, 2601.00
1849, 2597.00
1850, 2594.00
1851, 2592.00
1852, 2590.00
1853, 2587.00
1854, 2585.00
1855, 2580.00
1856, 2578.00
1857, 2575.00
1858, 2573.00
1859, 2571.00
1860, 2571.00
1861, 2565.00
1862, 2563.00
1863, 2562.00
1864, 2558.00
1865, 2558.00
1866, 2555.00
1867, 2553.00
1868, 2551.00
1869, 2549.00
1870, 2547.00
1871, 2546.00
1872, 2545.00
1873, 2544.00
1874, 2545.00
1875, 2540.00
1876, 2539.00
1877, 2537.00
1878, 2537.00
1879, 2536.00
1880, 2534.00
1881, 2535.00
1882, 2534.00
1883, 2534.00
1884, 2533.00
1885, 2531.00
1886, 2529.00
1887, 2530.00
1888, 2529.00
1889, 2528.00
1890, 2527.00
1891, 2529.00
1892, 2527.00
1893, 2529.00
1894, 2527.00
1895, 2526.00
1896, 2525.00
1897, 2526.00
1898, 2524.00
1899, 2523.00
1900, 2523.00
1901, 2521.00
1902, 2522.00
1903, 2522.00
1904, 2522.00
1905, 2521.00
1906, 2521.00
1907, 2520.00
1908, 2521.00
1909, 2521.00
1910, 2521.00
1911, 2519.00
1912, 2521.00
1913, 2518.00
1914, 2521.00
1915, 2519.00
1916, 2519.00
1917, 2521.00
1918, 2521.00
1919, 2519.00
1920, 2519.00
1921, 2518.00
1922, 2519.00
1923, 2520.00
1924, 2518.00
1925, 2519.00
1926, 2517.00
1927, 2516.00
1928, 2517.00
1929, 2517.00
1930, 2518.00
1931, 2519.00
1932, 2519.00
1933, 2518.00
1934, 2518.00
1935, 2518.00
1936, 2517.00
1937, 2518.00
1938, 2519.00
1939, 2519.00
1940, 2520.00
1941, 2519.00
1942, 2521.00
1943, 2519.00
1944, 2520.00
1945, 2521.00
1946, 2522.00
1947, 2520.00
1948, 2522.00
1949, 2522.00
1950, 2520.00
1951, 2523.00
1952, 2523.00
1953, 2523.00
1954, 2525.00
1955, 2523.00
1956, 2525.00
1957, 2527.00
1958, 2524.00
1959, 2528.00
1960, 2527.00
1961, 2526.00
1962, 2526.00
1963, 2527.00
1964, 2529.00
1965, 2529.00
1966, 2530.00
1967, 2531.00
1968, 2531.00
1969, 2532.00
1970, 2531.00
1971, 2532.00
1972, 2532.00
1973, 2533.00
1974, 2533.00
1975, 2534.00
1976, 2537.00
1977, 2536.00
1978, 2535.00
1979, 2537.00
1980, 2538.00
1981, 2539.00
1982, 2542.00
1983, 2540.00
1984, 2539.00
1985, 2539.00
1986, 2539.00
1987, 2542.00
1988, 2543.00
1989, 2544.00
1990, 2546.00
1991, 2545.00
1992, 2544.00
1993, 2546.00
1994, 2547.00
1995, 2549.00
1996, 2547.00
1997, 2550.00
1998, 2547.00
1999, 2551.00
2000, 2551.00
2001, 2551.00
2002, 2553.00
2003, 2552.00
2004, 2555.00
2005, 2554.00
2006, 2553.00
2007, 2555.00
2008, 2555.00
2009, 2557.00
2010, 2557.00
2011, 2558.00
2012, 2560.00
2013, 2558.00
2014, 2560.00
2015, 2561.00
2016, 2560.00
2017, 2562.00
2018, 2560.00
2019, 2562.00
2020, 2562.00
2021, 2564.00
2022, 2564.00
2023, 2565.00
2024, 2567.00
2025, 2566.00
2026, 2565.00
2027, 2568.00
2028, 2569.00
2029, 2569.00
2030, 2569.00
2031, 2571.00
2032, 2571.00
2033, 2571.00
2034, 2571.00
2035, 2573.00
2036, 2576.00
2037, 2575.00
2038, 2575.00
2039, 2575.00
2040, 2576.00
2041, 2580.00
2042, 2579.00
2043, 2580.00
2044, 2581.00
2045, 2583.00
2046, 2585.00
2047, 2584.00
2048, 2584.00
2049, 2585.00
2050, 2585.00
2051, 2589.00
2052, 2588.00
2053, 2589.00
2054, 2589.00
2055, 2593.00
2056, 2590.00
2057, 2593.00
2058, 2594.00
2059, 2596.00
2060, 2596.00
2061, 2597.00
2062, 2597.00
2063, 2598.00
2064, 2602.00
2065, 2600.00
2066, 2601.00
2067, 2602.00
2068, 2603.00
2069, 2605.00
2070, 2606.00
2071, 2606.00
2072, 2610.00
2073, 2609.00
2074, 2609.00
2075, 2611.00
2076, 2610.00
2077, 2610.00
2078, 2612.00
2079, 2613.00
2080, 2614.00
2081, 2615.00
2082, 2616.00
2083, 2617.00
2084, 2619.00
2085, 2620.00
2086, 2621.00
2087, 2620.00
2088, 2621.00
2089, 2619.00
2090, 2621.00
2091, 2624.00
2092, 2622.00
2093, 2626.00
2094, 2627.00
2095, 2626.00
2096, 2627.00
2097, 2627.00
2098, 2627.00
2099, 2627.00
2100, 2627.00
2101, 2628.00
2102, 2632.00
2103, 2630.00
2104, 2633.00
2105, 2632.00
2106, 2633.00
2107, 2633.00
2108, 2635.00
2109, 2633.00
2110, 2633.00
2111, 2634.00
2112, 2636.00
2113, 2634.00
2114, 2634.00
2115, 2637.00
2116, 2637.00
2117, 2638.00
2118, 2637.00
2119, 2639.00
2120, 2636.00
2121, 2639.00
2122, 2639.00
2123, 2640.00
2124, 2640.00
2125, 2641.00
2126, 2641.00
2127, 2640.00
2128, 2642.00
2129, 2641.00
2130, 2641.00
2131, 2642.00
2132, 2643.00
2133, 2644.00
2134, 2643.00
2135, 2643.00
2136, 2645.00
2137, 2645.00
2138, 2645.00
2139, 2645.00
2140, 2646.00
2141, 2647.00
2142, 2647.00
2143, 2647.00
2144, 2648.00
2145, 2646.00
2146, 2647.00
2147, 2648.00
2148, 2648.00
2149, 2650.00
2150, 2651.00
