FW version: 24
Log Version: 3.0.3

General Info:
       Command/Macro Performed,            Timestamp,             Device ID, COM Port, UART/I2C, Test Name, Host Major, Host Minor, Host Revision, Host Git Commit
            Single_measurement,  2023_07_18_11_18_32,       Insight2_F4_xxx,    USB-C,      USB,          ,          0,          1,             1,      4031237645

Show Spectrometer Status:
l0_version, f4_version, battery_perc, battery_mVolt, accelerometer_temp, accelerometer_x, accelerometer_y, accelerometer_z, compass_temp, compass_x, compass_y, compass_z, lamp_0, lamp_1, gain_0, gain_1
        17,         24,           76,          2001,               6480,           65240,            1416,           18940,            0,     65501,     65530,     18942,   3276,   3276,      0,      0

Temperature Statistic Info:
NTC AVG [°C], NTC2 AVG [°C]
      39.821,        39.529

Statistic Info:
M1:  num,      min,      max,   median,      AVG,      STD,M2:  num,      min,      max,   median,      AVG,      STD
     301,   679.00,   767.00,   699.00,   708.01,  27.6863,     401,   928.00,   982.00,   957.00,   955.32,  18.5175,

Measurements:
Wavelength, Data Amplitude
1350, 689.00
1351, 689.00
1352, 689.00
1353, 688.00
1354, 688.00
1355, 688.00
1356, 688.00
1357, 688.00
1358, 688.00
1359, 687.00
1360, 687.00
1361, 687.00
1362, 687.00
1363, 686.00
1364, 686.00
1365, 686.00
1366, 686.00
1367, 685.00
1368, 685.00
1369, 685.00
1370, 685.00
1371, 684.00
1372, 684.00
1373, 684.00
1374, 683.00
1375, 683.00
1376, 683.00
1377, 683.00
1378, 682.00
1379, 682.00
1380, 682.00
1381, 682.00
1382, 682.00
1383, 681.00
1384, 681.00
1385, 681.00
1386, 681.00
1387, 681.00
1388, 680.00
1389, 680.00
1390, 680.00
1391, 680.00
1392, 680.00
1393, 680.00
1394, 680.00
1395, 680.00
1396, 680.00
1397, 679.00
1398, 680.00
1399, 679.00
1400, 679.00
1401, 680.00
1402, 679.00
1403, 679.00
1404, 679.00
1405, 679.00
1406, 679.00
1407, 679.00
1408, 679.00
1409, 679.00
1410, 679.00
1411, 679.00
1412, 679.00
1413, 679.00
1414, 679.00
1415, 679.00
1416, 679.00
1417, 679.00
1418, 679.00
1419, 679.00
1420, 679.00
1421, 679.00
1422, 679.00
1423, 680.00
1424, 679.00
1425, 679.00
1426, 679.00
1427, 679.00
1428, 679.00
1429, 680.00
1430, 679.00
1431, 679.00
1432, 680.00
1433, 680.00
1434, 680.00
1435, 681.00
1436, 680.00
1437, 680.00
1438, 681.00
1439, 681.00
1440, 681.00
1441, 682.00
1442, 681.00
1443, 682.00
1444, 682.00
1445, 682.00
1446, 682.00
1447, 682.00
1448, 683.00
1449, 683.00
1450, 683.00
1451, 683.00
1452, 684.00
1453, 683.00
1454, 684.00
1455, 685.00
1456, 684.00
1457, 685.00
1458, 685.00
1459, 685.00
1460, 685.00
1461, 686.00
1462, 686.00
1463, 686.00
1464, 687.00
1465, 687.00
1466, 687.00
1467, 687.00
1468, 688.00
1469, 688.00
1470, 688.00
1471, 689.00
1472, 688.00
1473, 689.00
1474, 689.00
1475, 690.00
1476, 690.00
1477, 691.00
1478, 691.00
1479, 691.00
1480, 692.00
1481, 692.00
1482, 692.00
1483, 693.00
1484, 693.00
1485, 693.00
1486, 694.00
1487, 694.00
1488, 694.00
1489, 695.00
1490, 695.00
1491, 695.00
1492, 696.00
1493, 696.00
1494, 696.00
1495, 697.00
1496, 697.00
1497, 697.00
1498, 698.00
1499, 699.00
1500, 699.00
1501, 699.00
1502, 700.00
1503, 700.00
1504, 700.00
1505, 701.00
1506, 701.00
1507, 701.00
1508, 701.00
1509, 702.00
1510, 702.00
1511, 703.00
1512, 703.00
1513, 703.00
1514, 704.00
1515, 704.00
1516, 704.00
1517, 705.00
1518, 706.00
1519, 706.00
1520, 707.00
1521, 707.00
1522, 707.00
1523, 708.00
1524, 708.00
1525, 709.00
1526, 709.00
1527, 709.00
1528, 710.00
1529, 710.00
1530, 710.00
1531, 711.00
1532, 711.00
1533, 712.00
1534, 712.00
1535, 712.00
1536, 713.00
1537, 713.00
1538, 714.00
1539, 715.00
1540, 715.00
1541, 715.00
1542, 716.00
1543, 716.00
1544, 717.00
1545, 717.00
1546, 717.00
1547, 717.00
1548, 718.00
1549, 719.00
1550, 719.00
1551, 720.00
1552, 720.00
1553, 721.00
1554, 721.00
1555, 721.00
1556, 722.00
1557, 723.00
1558, 723.00
1559, 723.00
1560, 724.00
1561, 725.00
1562, 725.00
1563, 725.00
1564, 726.00
1565, 726.00
1566, 726.00
1567, 727.00
1568, 728.00
1569, 728.00
1570, 729.00
1571, 729.00
1572, 730.00
1573, 730.00
1574, 731.00
1575, 731.00
1576, 732.00
1577, 732.00
1578, 732.00
1579, 733.00
1580, 733.00
1581, 733.00
1582, 734.00
1583, 735.00
1584, 735.00
1585, 735.00
1586, 735.00
1587, 736.00
1588, 737.00
1589, 737.00
1590, 737.00
1591, 738.00
1592, 738.00
1593, 739.00
1594, 739.00
1595, 740.00
1596, 740.00
1597, 741.00
1598, 741.00
1599, 742.00
1600, 742.00
1601, 742.00
1602, 743.00
1603, 743.00
1604, 743.00
1605, 744.00
1606, 744.00
1607, 745.00
1608, 745.00
1609, 746.00
1610, 747.00
1611, 747.00
1612, 748.00
1613, 748.00
1614, 749.00
1615, 749.00
1616, 750.00
1617, 751.00
1618, 751.00
1619, 752.00
1620, 752.00
1621, 753.00
1622, 753.00
1623, 754.00
1624, 754.00
1625, 755.00
1626, 755.00
1627, 756.00
1628, 757.00
1629, 757.00
1630, 757.00
1631, 758.00
1632, 759.00
1633, 759.00
1634, 760.00
1635, 760.00
1636, 760.00
1637, 761.00
1638, 761.00
1639, 762.00
1640, 763.00
1641, 763.00
1642, 763.00
1643, 764.00
1644, 764.00
1645, 765.00
1646, 765.00
1647, 766.00
1648, 766.00
1649, 767.00
1650, 767.00

1750, 981.00
1751, 981.00
1752, 982.00
1753, 981.00
1754, 982.00
1755, 981.00
1756, 981.00
1757, 981.00
1758, 981.00
1759, 981.00
1760, 981.00
1761, 981.00
1762, 981.00
1763, 981.00
1764, 981.00
1765, 980.00
1766, 981.00
1767, 980.00
1768, 981.00
1769, 981.00
1770, 980.00
1771, 980.00
1772, 980.00
1773, 981.00
1774, 979.00
1775, 980.00
1776, 980.00
1777, 979.00
1778, 979.00
1779, 979.00
1780, 979.00
1781, 979.00
1782, 979.00
1783, 978.00
1784, 978.00
1785, 978.00
1786, 978.00
1787, 977.00
1788, 977.00
1789, 977.00
1790, 977.00
1791, 977.00
1792, 976.00
1793, 977.00
1794, 976.00
1795, 976.00
1796, 977.00
1797, 976.00
1798, 975.00
1799, 975.00
1800, 975.00
1801, 975.00
1802, 976.00
1803, 975.00
1804, 974.00
1805, 975.00
1806, 975.00
1807, 975.00
1808, 974.00
1809, 974.00
1810, 974.00
1811, 974.00
1812, 974.00
1813, 974.00
1814, 973.00
1815, 974.00
1816, 973.00
1817, 973.00
1818, 972.00
1819, 973.00
1820, 972.00
1821, 973.00
1822, 972.00
1823, 972.00
1824, 971.00
1825, 971.00
1826, 971.00
1827, 971.00
1828, 970.00
1829, 970.00
1830, 969.00
1831, 969.00
1832, 969.00
1833, 968.00
1834, 968.00
1835, 966.00
1836, 966.00
1837, 965.00
1838, 965.00
1839, 963.00
1840, 964.00
1841, 963.00
1842, 963.00
1843, 961.00
1844, 960.00
1845, 959.00
1846, 960.00
1847, 958.00
1848, 957.00
1849, 957.00
1850, 955.00
1851, 955.00
1852, 954.00
1853, 953.00
1854, 952.00
1855, 951.00
1856, 950.00
1857, 950.00
1858, 948.00
1859, 948.00
1860, 947.00
1861, 946.00
1862, 945.00
1863, 945.00
1864, 944.00
1865, 942.00
1866, 942.00
1867, 940.00
1868, 940.00
1869, 940.00
1870, 939.00
1871, 939.00
1872, 938.00
1873, 938.00
1874, 937.00
1875, 936.00
1876, 936.00
1877, 936.00
1878, 936.00
1879, 935.00
1880, 935.00
1881, 934.00
1882, 934.00
1883, 933.00
1884, 933.00
1885, 933.00
1886, 933.00
1887, 933.00
1888, 932.00
1889, 932.00
1890, 932.00
1891, 931.00
1892, 930.00
1893, 931.00
1894, 931.00
1895, 931.00
1896, 931.00
1897, 931.00
1898, 931.00
1899, 930.00
1900, 930.00
1901, 930.00
1902, 929.00
1903, 929.00
1904, 930.00
1905, 929.00
1906, 929.00
1907, 929.00
1908, 929.00
1909, 928.00
1910, 929.00
1911, 929.00
1912, 929.00
1913, 929.00
1914, 928.00
1915, 929.00
1916, 929.00
1917, 929.00
1918, 928.00
1919, 928.00
1920, 928.00
1921, 928.00
1922, 928.00
1923, 928.00
1924, 929.00
1925, 928.00
1926, 928.00
1927, 928.00
1928, 928.00
1929, 928.00
1930, 929.00
1931, 928.00
1932, 929.00
1933, 929.00
1934, 929.00
1935, 929.00
1936, 929.00
1937, 929.00
1938, 929.00
1939, 929.00
1940, 930.00
1941, 930.00
1942, 930.00
1943, 930.00
1944, 930.00
1945, 930.00
1946, 931.00
1947, 930.00
1948, 930.00
1949, 930.00
1950, 930.00
1951, 931.00
1952, 931.00
1953, 932.00
1954, 932.00
1955, 932.00
1956, 932.00
1957, 932.00
1958, 932.00
1959, 933.00
1960, 933.00
1961, 932.00
1962, 933.00
1963, 933.00
1964, 933.00
1965, 934.00
1966, 935.00
1967, 934.00
1968, 934.00
1969, 935.00
1970, 935.00
1971, 935.00
1972, 936.00
1973, 937.00
1974, 936.00
1975, 936.00
1976, 937.00
1977, 937.00
1978, 937.00
1979, 937.00
1980, 938.00
1981, 938.00
1982, 938.00
1983, 938.00
1984, 938.00
1985, 939.00
1986, 940.00
1987, 940.00
1988, 940.00
1989, 941.00
1990, 941.00
1991, 941.00
1992, 941.00
1993, 941.00
1994, 942.00
1995, 942.00
1996, 942.00
1997, 943.00
1998, 943.00
1999, 943.00
2000, 943.00
2001, 944.00
2002, 944.00
2003, 944.00
2004, 944.00
2005, 944.00
2006, 945.00
2007, 944.00
2008, 945.00
2009, 945.00
2010, 945.00
2011, 946.00
2012, 946.00
2013, 946.00
2014, 945.00
2015, 947.00
2016, 947.00
2017, 948.00
2018, 947.00
2019, 947.00
2020, 948.00
2021, 949.00
2022, 948.00
2023, 949.00
2024, 949.00
2025, 949.00
2026, 949.00
2027, 949.00
2028, 950.00
2029, 950.00
2030, 950.00
2031, 951.00
2032, 951.00
2033, 951.00
2034, 951.00
2035, 952.00
2036, 953.00
2037, 952.00
2038, 953.00
2039, 953.00
2040, 953.00
2041, 953.00
2042, 954.00
2043, 954.00
2044, 954.00
2045, 955.00
2046, 954.00
2047, 955.00
2048, 957.00
2049, 956.00
2050, 956.00
2051, 957.00
2052, 957.00
2053, 958.00
2054, 958.00
2055, 958.00
2056, 959.00
2057, 958.00
2058, 960.00
2059, 960.00
2060, 961.00
2061, 960.00
2062, 961.00
2063, 960.00
2064, 961.00
2065, 962.00
2066, 962.00
2067, 963.00
2068, 963.00
2069, 964.00
2070, 964.00
2071, 964.00
2072, 965.00
2073, 965.00
2074, 965.00
2075, 965.00
2076, 966.00
2077, 966.00
2078, 966.00
2079, 967.00
2080, 967.00
2081, 967.00
2082, 968.00
2083, 968.00
2084, 968.00
2085, 969.00
2086, 969.00
2087, 969.00
2088, 970.00
2089, 970.00
2090, 971.00
2091, 970.00
2092, 970.00
2093, 971.00
2094, 971.00
2095, 971.00
2096, 971.00
2097, 971.00
2098, 971.00
2099, 972.00
2100, 972.00
2101, 972.00
2102, 972.00
2103, 973.00
2104, 972.00
2105, 973.00
2106, 973.00
2107, 973.00
2108, 973.00
2109, 973.00
2110, 974.00
2111, 973.00
2112, 973.00
2113, 974.00
2114, 974.00
2115, 973.00
2116, 974.00
2117, 973.00
2118, 974.00
2119, 975.00
2120, 975.00
2121, 974.00
2122, 975.00
2123, 975.00
2124, 975.00
2125, 975.00
2126, 975.00
2127, 975.00
2128, 976.00
2129, 976.00
2130, 976.00
2131, 975.00
2132, 975.00
2133, 977.00
2134, 976.00
2135, 976.00
2136, 977.00
2137, 976.00
2138, 977.00
2139, 977.00
2140, 977.00
2141, 976.00
2142, 977.00
2143, 976.00
2144, 977.00
2145, 977.00
2146, 977.00
2147, 978.00
2148, 977.00
2149, 977.00
2150, 978.00
