FW version: 24
Log Version: 3.0.3

General Info:
       Command/Macro Performed,            Timestamp,             Device ID, COM Port, UART/I2C, Test Name, Host Major, Host Minor, Host Revision, Host Git Commit
            Single_measurement,  2023_07_11_11_42_07,       Insight2_F4_xxx,    USB-C,      USB,          ,          0,          1,             1,      4031237645

Show Spectrometer Status:
l0_version, f4_version, battery_perc, battery_mVolt, accelerometer_temp, accelerometer_x, accelerometer_y, accelerometer_z, compass_temp, compass_x, compass_y, compass_z, lamp_0, lamp_1, gain_0, gain_1
        17,         24,           51,          1911,               7024,           65244,            1156,           18756,            0,     65532,     65486,     18789,   2047,   2047,      1,      1

Temperature Statistic Info:
NTC AVG [°C], NTC2 AVG [°C]
      41.950,        41.625

Statistic Info:
M1:  num,      min,      max,   median,      AVG,      STD,M2:  num,      min,      max,   median,      AVG,      STD
     301,  1041.00,  1210.00,  1079.00,  1097.76,  53.5628,     401,  1530.00,  1634.00,  1578.00,  1579.56,  34.4059,

Measurements:
Wavelength, Data Amplitude
1350, 1065.00
1351, 1064.00
1352, 1063.00
1353, 1064.00
1354, 1061.00
1355, 1063.00
1356, 1062.00
1357, 1061.00
1358, 1061.00
1359, 1061.00
1360, 1060.00
1361, 1060.00
1362, 1059.00
1363, 1058.00
1364, 1058.00
1365, 1057.00
1366, 1056.00
1367, 1056.00
1368, 1055.00
1369, 1054.00
1370, 1054.00
1371, 1053.00
1372, 1052.00
1373, 1051.00
1374, 1051.00
1375, 1052.00
1376, 1050.00
1377, 1049.00
1378, 1048.00
1379, 1049.00
1380, 1048.00
1381, 1048.00
1382, 1048.00
1383, 1045.00
1384, 1045.00
1385, 1045.00
1386, 1044.00
1387, 1045.00
1388, 1044.00
1389, 1044.00
1390, 1045.00
1391, 1044.00
1392, 1044.00
1393, 1043.00
1394, 1043.00
1395, 1042.00
1396, 1043.00
1397, 1043.00
1398, 1043.00
1399, 1042.00
1400, 1041.00
1401, 1042.00
1402, 1042.00
1403, 1042.00
1404, 1041.00
1405, 1041.00
1406, 1042.00
1407, 1041.00
1408, 1041.00
1409, 1041.00
1410, 1041.00
1411, 1041.00
1412, 1041.00
1413, 1042.00
1414, 1041.00
1415, 1042.00
1416, 1042.00
1417, 1042.00
1418, 1041.00
1419, 1041.00
1420, 1042.00
1421, 1042.00
1422, 1042.00
1423, 1042.00
1424, 1042.00
1425, 1043.00
1426, 1043.00
1427, 1042.00
1428, 1044.00
1429, 1042.00
1430, 1042.00
1431, 1044.00
1432, 1044.00
1433, 1043.00
1434, 1044.00
1435, 1043.00
1436, 1045.00
1437, 1045.00
1438, 1046.00
1439, 1045.00
1440, 1045.00
1441, 1046.00
1442, 1047.00
1443, 1047.00
1444, 1047.00
1445, 1047.00
1446, 1048.00
1447, 1047.00
1448, 1048.00
1449, 1048.00
1450, 1049.00
1451, 1050.00
1452, 1049.00
1453, 1050.00
1454, 1049.00
1455, 1051.00
1456, 1052.00
1457, 1051.00
1458, 1052.00
1459, 1052.00
1460, 1053.00
1461, 1053.00
1462, 1053.00
1463, 1054.00
1464, 1056.00
1465, 1055.00
1466, 1057.00
1467, 1056.00
1468, 1057.00
1469, 1057.00
1470, 1058.00
1471, 1060.00
1472, 1059.00
1473, 1060.00
1474, 1061.00
1475, 1061.00
1476, 1062.00
1477, 1063.00
1478, 1064.00
1479, 1064.00
1480, 1064.00
1481, 1065.00
1482, 1066.00
1483, 1066.00
1484, 1067.00
1485, 1068.00
1486, 1068.00
1487, 1070.00
1488, 1070.00
1489, 1071.00
1490, 1071.00
1491, 1073.00
1492, 1073.00
1493, 1073.00
1494, 1074.00
1495, 1074.00
1496, 1076.00
1497, 1077.00
1498, 1077.00
1499, 1078.00
1500, 1079.00
1501, 1080.00
1502, 1079.00
1503, 1081.00
1504, 1081.00
1505, 1082.00
1506, 1083.00
1507, 1085.00
1508, 1084.00
1509, 1086.00
1510, 1085.00
1511, 1087.00
1512, 1088.00
1513, 1089.00
1514, 1090.00
1515, 1090.00
1516, 1091.00
1517, 1091.00
1518, 1092.00
1519, 1094.00
1520, 1094.00
1521, 1094.00
1522, 1096.00
1523, 1097.00
1524, 1098.00
1525, 1098.00
1526, 1099.00
1527, 1099.00
1528, 1101.00
1529, 1102.00
1530, 1101.00
1531, 1104.00
1532, 1105.00
1533, 1105.00
1534, 1106.00
1535, 1107.00
1536, 1108.00
1537, 1109.00
1538, 1110.00
1539, 1111.00
1540, 1111.00
1541, 1112.00
1542, 1112.00
1543, 1114.00
1544, 1114.00
1545, 1115.00
1546, 1117.00
1547, 1117.00
1548, 1118.00
1549, 1119.00
1550, 1119.00
1551, 1121.00
1552, 1121.00
1553, 1123.00
1554, 1123.00
1555, 1124.00
1556, 1126.00
1557, 1126.00
1558, 1127.00
1559, 1128.00
1560, 1129.00
1561, 1130.00
1562, 1131.00
1563, 1132.00
1564, 1133.00
1565, 1134.00
1566, 1135.00
1567, 1136.00
1568, 1136.00
1569, 1138.00
1570, 1139.00
1571, 1139.00
1572, 1140.00
1573, 1141.00
1574, 1141.00
1575, 1142.00
1576, 1143.00
1577, 1145.00
1578, 1146.00
1579, 1146.00
1580, 1147.00
1581, 1148.00
1582, 1149.00
1583, 1150.00
1584, 1150.00
1585, 1151.00
1586, 1152.00
1587, 1152.00
1588, 1154.00
1589, 1155.00
1590, 1155.00
1591, 1157.00
1592, 1156.00
1593, 1157.00
1594, 1158.00
1595, 1159.00
1596, 1160.00
1597, 1161.00
1598, 1162.00
1599, 1162.00
1600, 1164.00
1601, 1164.00
1602, 1165.00
1603, 1167.00
1604, 1168.00
1605, 1168.00
1606, 1170.00
1607, 1171.00
1608, 1171.00
1609, 1172.00
1610, 1174.00
1611, 1174.00
1612, 1176.00
1613, 1176.00
1614, 1178.00
1615, 1179.00
1616, 1179.00
1617, 1181.00
1618, 1182.00
1619, 1183.00
1620, 1184.00
1621, 1185.00
1622, 1186.00
1623, 1187.00
1624, 1188.00
1625, 1189.00
1626, 1191.00
1627, 1191.00
1628, 1191.00
1629, 1192.00
1630, 1193.00
1631, 1194.00
1632, 1195.00
1633, 1196.00
1634, 1197.00
1635, 1197.00
1636, 1199.00
1637, 1200.00
1638, 1201.00
1639, 1202.00
1640, 1201.00
1641, 1203.00
1642, 1203.00
1643, 1204.00
1644, 1205.00
1645, 1205.00
1646, 1207.00
1647, 1207.00
1648, 1207.00
1649, 1208.00
1650, 1210.00

1750, 1632.00
1751, 1632.00
1752, 1633.00
1753, 1632.00
1754, 1632.00
1755, 1632.00
1756, 1633.00
1757, 1633.00
1758, 1632.00
1759, 1632.00
1760, 1631.00
1761, 1631.00
1762, 1633.00
1763, 1634.00
1764, 1631.00
1765, 1632.00
1766, 1632.00
1767, 1632.00
1768, 1630.00
1769, 1630.00
1770, 1630.00
1771, 1632.00
1772, 1630.00
1773, 1629.00
1774, 1631.00
1775, 1631.00
1776, 1629.00
1777, 1628.00
1778, 1629.00
1779, 1629.00
1780, 1628.00
1781, 1628.00
1782, 1626.00
1783, 1627.00
1784, 1628.00
1785, 1627.00
1786, 1625.00
1787, 1625.00
1788, 1626.00
1789, 1627.00
1790, 1628.00
1791, 1626.00
1792, 1624.00
1793, 1625.00
1794, 1625.00
1795, 1625.00
1796, 1624.00
1797, 1624.00
1798, 1622.00
1799, 1621.00
1800, 1623.00
1801, 1621.00
1802, 1621.00
1803, 1621.00
1804, 1622.00
1805, 1621.00
1806, 1622.00
1807, 1618.00
1808, 1622.00
1809, 1620.00
1810, 1619.00
1811, 1619.00
1812, 1618.00
1813, 1618.00
1814, 1618.00
1815, 1618.00
1816, 1616.00
1817, 1618.00
1818, 1616.00
1819, 1616.00
1820, 1615.00
1821, 1614.00
1822, 1614.00
1823, 1614.00
1824, 1612.00
1825, 1612.00
1826, 1610.00
1827, 1609.00
1828, 1611.00
1829, 1607.00
1830, 1608.00
1831, 1606.00
1832, 1604.00
1833, 1605.00
1834, 1603.00
1835, 1601.00
1836, 1599.00
1837, 1598.00
1838, 1599.00
1839, 1596.00
1840, 1596.00
1841, 1594.00
1842, 1595.00
1843, 1589.00
1844, 1589.00
1845, 1587.00
1846, 1585.00
1847, 1583.00
1848, 1582.00
1849, 1580.00
1850, 1578.00
1851, 1577.00
1852, 1575.00
1853, 1576.00
1854, 1572.00
1855, 1572.00
1856, 1569.00
1857, 1568.00
1858, 1566.00
1859, 1565.00
1860, 1563.00
1861, 1560.00
1862, 1560.00
1863, 1558.00
1864, 1557.00
1865, 1555.00
1866, 1556.00
1867, 1553.00
1868, 1555.00
1869, 1552.00
1870, 1551.00
1871, 1549.00
1872, 1549.00
1873, 1549.00
1874, 1547.00
1875, 1547.00
1876, 1545.00
1877, 1544.00
1878, 1544.00
1879, 1545.00
1880, 1544.00
1881, 1543.00
1882, 1543.00
1883, 1543.00
1884, 1543.00
1885, 1540.00
1886, 1541.00
1887, 1541.00
1888, 1539.00
1889, 1540.00
1890, 1539.00
1891, 1539.00
1892, 1538.00
1893, 1537.00
1894, 1538.00
1895, 1538.00
1896, 1536.00
1897, 1534.00
1898, 1535.00
1899, 1535.00
1900, 1536.00
1901, 1537.00
1902, 1535.00
1903, 1537.00
1904, 1533.00
1905, 1535.00
1906, 1533.00
1907, 1533.00
1908, 1535.00
1909, 1532.00
1910, 1533.00
1911, 1533.00
1912, 1535.00
1913, 1531.00
1914, 1533.00
1915, 1532.00
1916, 1533.00
1917, 1534.00
1918, 1532.00
1919, 1535.00
1920, 1533.00
1921, 1531.00
1922, 1531.00
1923, 1530.00
1924, 1534.00
1925, 1531.00
1926, 1533.00
1927, 1532.00
1928, 1531.00
1929, 1532.00
1930, 1534.00
1931, 1533.00
1932, 1533.00
1933, 1534.00
1934, 1533.00
1935, 1531.00
1936, 1533.00
1937, 1533.00
1938, 1534.00
1939, 1533.00
1940, 1533.00
1941, 1532.00
1942, 1534.00
1943, 1533.00
1944, 1534.00
1945, 1535.00
1946, 1535.00
1947, 1535.00
1948, 1535.00
1949, 1536.00
1950, 1536.00
1951, 1536.00
1952, 1535.00
1953, 1535.00
1954, 1539.00
1955, 1535.00
1956, 1536.00
1957, 1538.00
1958, 1537.00
1959, 1536.00
1960, 1538.00
1961, 1539.00
1962, 1537.00
1963, 1539.00
1964, 1539.00
1965, 1541.00
1966, 1541.00
1967, 1541.00
1968, 1542.00
1969, 1542.00
1970, 1544.00
1971, 1543.00
1972, 1543.00
1973, 1544.00
1974, 1543.00
1975, 1544.00
1976, 1544.00
1977, 1545.00
1978, 1544.00
1979, 1546.00
1980, 1545.00
1981, 1547.00
1982, 1548.00
1983, 1547.00
1984, 1545.00
1985, 1549.00
1986, 1549.00
1987, 1549.00
1988, 1548.00
1989, 1549.00
1990, 1551.00
1991, 1550.00
1992, 1551.00
1993, 1550.00
1994, 1551.00
1995, 1552.00
1996, 1552.00
1997, 1552.00
1998, 1555.00
1999, 1554.00
2000, 1556.00
2001, 1554.00
2002, 1555.00
2003, 1557.00
2004, 1557.00
2005, 1557.00
2006, 1556.00
2007, 1558.00
2008, 1558.00
2009, 1560.00
2010, 1558.00
2011, 1561.00
2012, 1561.00
2013, 1559.00
2014, 1561.00
2015, 1561.00
2016, 1560.00
2017, 1560.00
2018, 1564.00
2019, 1563.00
2020, 1563.00
2021, 1565.00
2022, 1561.00
2023, 1563.00
2024, 1563.00
2025, 1566.00
2026, 1565.00
2027, 1564.00
2028, 1567.00
2029, 1568.00
2030, 1565.00
2031, 1568.00
2032, 1567.00
2033, 1568.00
2034, 1570.00
2035, 1569.00
2036, 1570.00
2037, 1571.00
2038, 1570.00
2039, 1573.00
2040, 1574.00
2041, 1571.00
2042, 1572.00
2043, 1574.00
2044, 1574.00
2045, 1576.00
2046, 1576.00
2047, 1577.00
2048, 1577.00
2049, 1578.00
2050, 1578.00
2051, 1577.00
2052, 1579.00
2053, 1579.00
2054, 1581.00
2055, 1579.00
2056, 1584.00
2057, 1583.00
2058, 1582.00
2059, 1583.00
2060, 1585.00
2061, 1585.00
2062, 1585.00
2063, 1586.00
2064, 1587.00
2065, 1587.00
2066, 1587.00
2067, 1590.00
2068, 1592.00
2069, 1591.00
2070, 1591.00
2071, 1592.00
2072, 1591.00
2073, 1593.00
2074, 1594.00
2075, 1593.00
2076, 1595.00
2077, 1595.00
2078, 1595.00
2079, 1596.00
2080, 1596.00
2081, 1595.00
2082, 1597.00
2083, 1596.00
2084, 1599.00
2085, 1600.00
2086, 1600.00
2087, 1600.00
2088, 1601.00
2089, 1601.00
2090, 1600.00
2091, 1601.00
2092, 1603.00
2093, 1603.00
2094, 1602.00
2095, 1605.00
2096, 1604.00
2097, 1605.00
2098, 1605.00
2099, 1607.00
2100, 1605.00
2101, 1607.00
2102, 1607.00
2103, 1607.00
2104, 1607.00
2105, 1607.00
2106, 1608.00
2107, 1607.00
2108, 1607.00
2109, 1609.00
2110, 1610.00
2111, 1608.00
2112, 1609.00
2113, 1610.00
2114, 1609.00
2115, 1610.00
2116, 1610.00
2117, 1609.00
2118, 1610.00
2119, 1611.00
2120, 1613.00
2121, 1612.00
2122, 1613.00
2123, 1614.00
2124, 1613.00
2125, 1612.00
2126, 1611.00
2127, 1613.00
2128, 1614.00
2129, 1612.00
2130, 1615.00
2131, 1613.00
2132, 1616.00
2133, 1615.00
2134, 1616.00
2135, 1616.00
2136, 1616.00
2137, 1615.00
2138, 1617.00
2139, 1617.00
2140, 1617.00
2141, 1618.00
2142, 1617.00
2143, 1619.00
2144, 1618.00
2145, 1617.00
2146, 1618.00
2147, 1619.00
2148, 1619.00
2149, 1617.00
2150, 1618.00
