FW version: 24
Log Version: 3.0.3

General Info:
       Command/Macro Performed,            Timestamp,             Device ID, COM Port, UART/I2C, Test Name, Host Major, Host Minor, Host Revision, Host Git Commit
            Single_measurement,  2023_07_11_12_06_57,       Insight2_F4_xxx,    USB-C,      USB,          ,          0,          1,             1,      4031237645

Show Spectrometer Status:
l0_version, f4_version, battery_perc, battery_mVolt, accelerometer_temp, accelerometer_x, accelerometer_y, accelerometer_z, compass_temp, compass_x, compass_y, compass_z, lamp_0, lamp_1, gain_0, gain_1
        17,         24,           53,          1917,               7040,           64648,            1380,           18808,            0,     65433,     65405,     18810,   2047,   2047,      1,      1

Temperature Statistic Info:
NTC AVG [°C], NTC2 AVG [°C]
      42.373,        42.010

Statistic Info:
M1:  num,      min,      max,   median,      AVG,      STD,M2:  num,      min,      max,   median,      AVG,      STD
     301,   661.00,   759.00,   685.00,   694.80,  31.4294,     401,  1045.00,  1107.00,  1078.00,  1077.29,  21.0505,

Measurements:
Wavelength, Data Amplitude
1350, 670.00
1351, 671.00
1352, 670.00
1353, 670.00
1354, 670.00
1355, 670.00
1356, 670.00
1357, 670.00
1358, 670.00
1359, 669.00
1360, 670.00
1361, 669.00
1362, 669.00
1363, 668.00
1364, 668.00
1365, 667.00
1366, 668.00
1367, 668.00
1368, 667.00
1369, 667.00
1370, 666.00
1371, 666.00
1372, 667.00
1373, 665.00
1374, 665.00
1375, 665.00
1376, 665.00
1377, 663.00
1378, 663.00
1379, 663.00
1380, 663.00
1381, 663.00
1382, 663.00
1383, 663.00
1384, 662.00
1385, 663.00
1386, 662.00
1387, 663.00
1388, 662.00
1389, 662.00
1390, 662.00
1391, 662.00
1392, 662.00
1393, 662.00
1394, 661.00
1395, 661.00
1396, 662.00
1397, 662.00
1398, 662.00
1399, 662.00
1400, 661.00
1401, 661.00
1402, 662.00
1403, 661.00
1404, 662.00
1405, 661.00
1406, 662.00
1407, 661.00
1408, 661.00
1409, 661.00
1410, 661.00
1411, 661.00
1412, 661.00
1413, 662.00
1414, 661.00
1415, 662.00
1416, 661.00
1417, 662.00
1418, 661.00
1419, 662.00
1420, 662.00
1421, 662.00
1422, 662.00
1423, 662.00
1424, 662.00
1425, 663.00
1426, 663.00
1427, 663.00
1428, 663.00
1429, 663.00
1430, 663.00
1431, 663.00
1432, 663.00
1433, 663.00
1434, 664.00
1435, 664.00
1436, 664.00
1437, 664.00
1438, 665.00
1439, 665.00
1440, 664.00
1441, 664.00
1442, 665.00
1443, 665.00
1444, 665.00
1445, 666.00
1446, 666.00
1447, 666.00
1448, 667.00
1449, 666.00
1450, 667.00
1451, 667.00
1452, 667.00
1453, 667.00
1454, 668.00
1455, 668.00
1456, 669.00
1457, 669.00
1458, 669.00
1459, 668.00
1460, 669.00
1461, 670.00
1462, 670.00
1463, 671.00
1464, 672.00
1465, 671.00
1466, 671.00
1467, 672.00
1468, 672.00
1469, 671.00
1470, 672.00
1471, 673.00
1472, 673.00
1473, 674.00
1474, 674.00
1475, 674.00
1476, 676.00
1477, 676.00
1478, 675.00
1479, 676.00
1480, 677.00
1481, 677.00
1482, 678.00
1483, 679.00
1484, 678.00
1485, 678.00
1486, 679.00
1487, 680.00
1488, 681.00
1489, 681.00
1490, 681.00
1491, 681.00
1492, 683.00
1493, 682.00
1494, 682.00
1495, 683.00
1496, 684.00
1497, 683.00
1498, 684.00
1499, 685.00
1500, 686.00
1501, 685.00
1502, 687.00
1503, 686.00
1504, 687.00
1505, 686.00
1506, 688.00
1507, 688.00
1508, 688.00
1509, 690.00
1510, 690.00
1511, 691.00
1512, 690.00
1513, 691.00
1514, 692.00
1515, 692.00
1516, 692.00
1517, 693.00
1518, 694.00
1519, 693.00
1520, 694.00
1521, 695.00
1522, 695.00
1523, 696.00
1524, 696.00
1525, 697.00
1526, 696.00
1527, 698.00
1528, 698.00
1529, 698.00
1530, 699.00
1531, 700.00
1532, 700.00
1533, 701.00
1534, 701.00
1535, 702.00
1536, 702.00
1537, 702.00
1538, 704.00
1539, 703.00
1540, 705.00
1541, 706.00
1542, 706.00
1543, 706.00
1544, 707.00
1545, 706.00
1546, 708.00
1547, 708.00
1548, 709.00
1549, 709.00
1550, 709.00
1551, 709.00
1552, 711.00
1553, 711.00
1554, 711.00
1555, 712.00
1556, 712.00
1557, 712.00
1558, 712.00
1559, 714.00
1560, 714.00
1561, 714.00
1562, 714.00
1563, 715.00
1564, 716.00
1565, 717.00
1566, 717.00
1567, 717.00
1568, 718.00
1569, 719.00
1570, 719.00
1571, 720.00
1572, 720.00
1573, 721.00
1574, 721.00
1575, 722.00
1576, 721.00
1577, 722.00
1578, 723.00
1579, 724.00
1580, 723.00
1581, 725.00
1582, 725.00
1583, 725.00
1584, 726.00
1585, 726.00
1586, 727.00
1587, 726.00
1588, 727.00
1589, 728.00
1590, 728.00
1591, 729.00
1592, 729.00
1593, 730.00
1594, 731.00
1595, 731.00
1596, 731.00
1597, 731.00
1598, 732.00
1599, 733.00
1600, 733.00
1601, 733.00
1602, 734.00
1603, 734.00
1604, 734.00
1605, 735.00
1606, 736.00
1607, 737.00
1608, 738.00
1609, 738.00
1610, 737.00
1611, 739.00
1612, 741.00
1613, 740.00
1614, 741.00
1615, 741.00
1616, 742.00
1617, 743.00
1618, 743.00
1619, 744.00
1620, 744.00
1621, 745.00
1622, 746.00
1623, 746.00
1624, 747.00
1625, 747.00
1626, 748.00
1627, 749.00
1628, 749.00
1629, 749.00
1630, 751.00
1631, 750.00
1632, 752.00
1633, 753.00
1634, 752.00
1635, 752.00
1636, 753.00
1637, 753.00
1638, 754.00
1639, 756.00
1640, 754.00
1641, 755.00
1642, 756.00
1643, 756.00
1644, 756.00
1645, 757.00
1646, 759.00
1647, 757.00
1648, 758.00
1649, 759.00
1650, 759.00

1750, 1105.00
1751, 1103.00
1752, 1104.00
1753, 1105.00
1754, 1105.00
1755, 1103.00
1756, 1105.00
1757, 1104.00
1758, 1105.00
1759, 1104.00
1760, 1104.00
1761, 1104.00
1762, 1104.00
1763, 1104.00
1764, 1102.00
1765, 1103.00
1766, 1105.00
1767, 1104.00
1768, 1104.00
1769, 1104.00
1770, 1103.00
1771, 1103.00
1772, 1104.00
1773, 1102.00
1774, 1103.00
1775, 1104.00
1776, 1102.00
1777, 1101.00
1778, 1103.00
1779, 1103.00
1780, 1101.00
1781, 1101.00
1782, 1102.00
1783, 1101.00
1784, 1100.00
1785, 1100.00
1786, 1100.00
1787, 1100.00
1788, 1101.00
1789, 1098.00
1790, 1100.00
1791, 1100.00
1792, 1098.00
1793, 1102.00
1794, 1098.00
1795, 1098.00
1796, 1098.00
1797, 1099.00
1798, 1098.00
1799, 1097.00
1800, 1097.00
1801, 1099.00
1802, 1097.00
1803, 1098.00
1804, 1098.00
1805, 1097.00
1806, 1099.00
1807, 1095.00
1808, 1095.00
1809, 1096.00
1810, 1097.00
1811, 1097.00
1812, 1098.00
1813, 1097.00
1814, 1095.00
1815, 1095.00
1816, 1095.00
1817, 1096.00
1818, 1096.00
1819, 1096.00
1820, 1095.00
1821, 1095.00
1822, 1093.00
1823, 1093.00
1824, 1094.00
1825, 1093.00
1826, 1093.00
1827, 1094.00
1828, 1091.00
1829, 1091.00
1830, 1092.00
1831, 1091.00
1832, 1092.00
1833, 1089.00
1834, 1088.00
1835, 1088.00
1836, 1087.00
1837, 1085.00
1838, 1087.00
1839, 1085.00
1840, 1084.00
1841, 1082.00
1842, 1081.00
1843, 1083.00
1844, 1079.00
1845, 1080.00
1846, 1078.00
1847, 1077.00
1848, 1077.00
1849, 1076.00
1850, 1076.00
1851, 1075.00
1852, 1073.00
1853, 1074.00
1854, 1072.00
1855, 1070.00
1856, 1070.00
1857, 1068.00
1858, 1067.00
1859, 1068.00
1860, 1066.00
1861, 1063.00
1862, 1063.00
1863, 1064.00
1864, 1063.00
1865, 1060.00
1866, 1060.00
1867, 1061.00
1868, 1060.00
1869, 1058.00
1870, 1057.00
1871, 1058.00
1872, 1057.00
1873, 1056.00
1874, 1057.00
1875, 1055.00
1876, 1055.00
1877, 1056.00
1878, 1054.00
1879, 1050.00
1880, 1053.00
1881, 1054.00
1882, 1052.00
1883, 1052.00
1884, 1051.00
1885, 1051.00
1886, 1049.00
1887, 1049.00
1888, 1051.00
1889, 1050.00
1890, 1050.00
1891, 1051.00
1892, 1049.00
1893, 1050.00
1894, 1049.00
1895, 1047.00
1896, 1050.00
1897, 1048.00
1898, 1048.00
1899, 1048.00
1900, 1047.00
1901, 1049.00
1902, 1048.00
1903, 1047.00
1904, 1046.00
1905, 1048.00
1906, 1047.00
1907, 1047.00
1908, 1046.00
1909, 1048.00
1910, 1048.00
1911, 1045.00
1912, 1045.00
1913, 1047.00
1914, 1045.00
1915, 1045.00
1916, 1046.00
1917, 1047.00
1918, 1048.00
1919, 1046.00
1920, 1048.00
1921, 1046.00
1922, 1046.00
1923, 1048.00
1924, 1046.00
1925, 1049.00
1926, 1045.00
1927, 1048.00
1928, 1047.00
1929, 1047.00
1930, 1046.00
1931, 1048.00
1932, 1048.00
1933, 1049.00
1934, 1049.00
1935, 1049.00
1936, 1049.00
1937, 1048.00
1938, 1046.00
1939, 1048.00
1940, 1048.00
1941, 1048.00
1942, 1049.00
1943, 1050.00
1944, 1050.00
1945, 1048.00
1946, 1049.00
1947, 1050.00
1948, 1047.00
1949, 1048.00
1950, 1049.00
1951, 1049.00
1952, 1049.00
1953, 1051.00
1954, 1052.00
1955, 1050.00
1956, 1051.00
1957, 1051.00
1958, 1052.00
1959, 1049.00
1960, 1052.00
1961, 1052.00
1962, 1053.00
1963, 1052.00
1964, 1052.00
1965, 1055.00
1966, 1055.00
1967, 1055.00
1968, 1054.00
1969, 1053.00
1970, 1056.00
1971, 1056.00
1972, 1055.00
1973, 1058.00
1974, 1056.00
1975, 1056.00
1976, 1058.00
1977, 1060.00
1978, 1057.00
1979, 1058.00
1980, 1059.00
1981, 1058.00
1982, 1059.00
1983, 1059.00
1984, 1059.00
1985, 1059.00
1986, 1059.00
1987, 1061.00
1988, 1060.00
1989, 1061.00
1990, 1060.00
1991, 1063.00
1992, 1062.00
1993, 1060.00
1994, 1063.00
1995, 1063.00
1996, 1063.00
1997, 1063.00
1998, 1063.00
1999, 1064.00
2000, 1063.00
2001, 1065.00
2002, 1064.00
2003, 1063.00
2004, 1066.00
2005, 1066.00
2006, 1064.00
2007, 1066.00
2008, 1066.00
2009, 1066.00
2010, 1064.00
2011, 1065.00
2012, 1065.00
2013, 1067.00
2014, 1069.00
2015, 1068.00
2016, 1069.00
2017, 1068.00
2018, 1069.00
2019, 1070.00
2020, 1071.00
2021, 1069.00
2022, 1071.00
2023, 1071.00
2024, 1071.00
2025, 1071.00
2026, 1071.00
2027, 1071.00
2028, 1072.00
2029, 1072.00
2030, 1073.00
2031, 1073.00
2032, 1073.00
2033, 1074.00
2034, 1073.00
2035, 1076.00
2036, 1073.00
2037, 1074.00
2038, 1076.00
2039, 1074.00
2040, 1077.00
2041, 1077.00
2042, 1078.00
2043, 1076.00
2044, 1078.00
2045, 1078.00
2046, 1077.00
2047, 1079.00
2048, 1079.00
2049, 1079.00
2050, 1078.00
2051, 1081.00
2052, 1080.00
2053, 1083.00
2054, 1081.00
2055, 1085.00
2056, 1083.00
2057, 1083.00
2058, 1084.00
2059, 1084.00
2060, 1082.00
2061, 1085.00
2062, 1084.00
2063, 1088.00
2064, 1086.00
2065, 1085.00
2066, 1086.00
2067, 1087.00
2068, 1088.00
2069, 1088.00
2070, 1087.00
2071, 1088.00
2072, 1088.00
2073, 1090.00
2074, 1090.00
2075, 1089.00
2076, 1091.00
2077, 1090.00
2078, 1092.00
2079, 1091.00
2080, 1093.00
2081, 1090.00
2082, 1092.00
2083, 1093.00
2084, 1096.00
2085, 1094.00
2086, 1096.00
2087, 1096.00
2088, 1096.00
2089, 1096.00
2090, 1096.00
2091, 1096.00
2092, 1096.00
2093, 1098.00
2094, 1096.00
2095, 1097.00
2096, 1098.00
2097, 1098.00
2098, 1096.00
2099, 1097.00
2100, 1100.00
2101, 1098.00
2102, 1100.00
2103, 1098.00
2104, 1099.00
2105, 1099.00
2106, 1100.00
2107, 1100.00
2108, 1099.00
2109, 1099.00
2110, 1102.00
2111, 1100.00
2112, 1099.00
2113, 1101.00
2114, 1100.00
2115, 1103.00
2116, 1101.00
2117, 1100.00
2118, 1101.00
2119, 1100.00
2120, 1104.00
2121, 1101.00
2122, 1104.00
2123, 1103.00
2124, 1105.00
2125, 1103.00
2126, 1101.00
2127, 1103.00
2128, 1102.00
2129, 1103.00
2130, 1104.00
2131, 1102.00
2132, 1102.00
2133, 1104.00
2134, 1103.00
2135, 1105.00
2136, 1103.00
2137, 1104.00
2138, 1105.00
2139, 1105.00
2140, 1105.00
2141, 1105.00
2142, 1105.00
2143, 1105.00
2144, 1106.00
2145, 1106.00
2146, 1105.00
2147, 1106.00
2148, 1106.00
2149, 1107.00
2150, 1105.00
