FW version: 24
Log Version: 3.0.3

General Info:
       Command/Macro Performed,            Timestamp,             Device ID, COM Port, UART/I2C, Test Name, Host Major, Host Minor, Host Revision, Host Git Commit
            Single_measurement,  2023_07_11_12_07_47,       Insight2_F4_xxx,    USB-C,      USB,          ,          0,          1,             1,      4031237645

Show Spectrometer Status:
l0_version, f4_version, battery_perc, battery_mVolt, accelerometer_temp, accelerometer_x, accelerometer_y, accelerometer_z, compass_temp, compass_x, compass_y, compass_z, lamp_0, lamp_1, gain_0, gain_1
        17,         24,           53,          1915,               7088,           64628,            1380,           18632,            0,     65399,     65405,     18633,   3276,   3276,      1,      1

Temperature Statistic Info:
NTC AVG [°C], NTC2 AVG [°C]
      42.644,        42.313

Statistic Info:
M1:  num,      min,      max,   median,      AVG,      STD,M2:  num,      min,      max,   median,      AVG,      STD
     301,  1645.00,  1867.00,  1697.00,  1719.44,  69.0553,     401,  2294.00,  2425.00,  2361.00,  2358.84,  44.2640,

Measurements:
Wavelength, Data Amplitude
1350, 1676.00
1351, 1674.00
1352, 1674.00
1353, 1675.00
1354, 1673.00
1355, 1673.00
1356, 1673.00
1357, 1672.00
1358, 1672.00
1359, 1671.00
1360, 1670.00
1361, 1670.00
1362, 1668.00
1363, 1668.00
1364, 1666.00
1365, 1667.00
1366, 1666.00
1367, 1664.00
1368, 1663.00
1369, 1662.00
1370, 1662.00
1371, 1661.00
1372, 1659.00
1373, 1660.00
1374, 1659.00
1375, 1658.00
1376, 1658.00
1377, 1657.00
1378, 1656.00
1379, 1655.00
1380, 1655.00
1381, 1655.00
1382, 1653.00
1383, 1653.00
1384, 1652.00
1385, 1651.00
1386, 1651.00
1387, 1651.00
1388, 1650.00
1389, 1650.00
1390, 1650.00
1391, 1651.00
1392, 1650.00
1393, 1650.00
1394, 1648.00
1395, 1649.00
1396, 1648.00
1397, 1649.00
1398, 1648.00
1399, 1648.00
1400, 1647.00
1401, 1647.00
1402, 1647.00
1403, 1648.00
1404, 1647.00
1405, 1648.00
1406, 1647.00
1407, 1647.00
1408, 1647.00
1409, 1645.00
1410, 1646.00
1411, 1647.00
1412, 1647.00
1413, 1646.00
1414, 1647.00
1415, 1647.00
1416, 1647.00
1417, 1648.00
1418, 1647.00
1419, 1647.00
1420, 1647.00
1421, 1646.00
1422, 1647.00
1423, 1647.00
1424, 1647.00
1425, 1647.00
1426, 1647.00
1427, 1648.00
1428, 1649.00
1429, 1648.00
1430, 1648.00
1431, 1648.00
1432, 1650.00
1433, 1649.00
1434, 1650.00
1435, 1651.00
1436, 1650.00
1437, 1650.00
1438, 1651.00
1439, 1652.00
1440, 1653.00
1441, 1654.00
1442, 1654.00
1443, 1653.00
1444, 1654.00
1445, 1655.00
1446, 1655.00
1447, 1655.00
1448, 1657.00
1449, 1656.00
1450, 1657.00
1451, 1657.00
1452, 1657.00
1453, 1659.00
1454, 1659.00
1455, 1661.00
1456, 1660.00
1457, 1660.00
1458, 1661.00
1459, 1662.00
1460, 1663.00
1461, 1663.00
1462, 1665.00
1463, 1665.00
1464, 1665.00
1465, 1666.00
1466, 1666.00
1467, 1667.00
1468, 1668.00
1469, 1668.00
1470, 1669.00
1471, 1671.00
1472, 1671.00
1473, 1671.00
1474, 1672.00
1475, 1673.00
1476, 1675.00
1477, 1675.00
1478, 1676.00
1479, 1676.00
1480, 1677.00
1481, 1680.00
1482, 1679.00
1483, 1679.00
1484, 1682.00
1485, 1681.00
1486, 1682.00
1487, 1684.00
1488, 1684.00
1489, 1685.00
1490, 1687.00
1491, 1687.00
1492, 1689.00
1493, 1689.00
1494, 1690.00
1495, 1691.00
1496, 1692.00
1497, 1693.00
1498, 1694.00
1499, 1694.00
1500, 1697.00
1501, 1697.00
1502, 1698.00
1503, 1698.00
1504, 1698.00
1505, 1701.00
1506, 1701.00
1507, 1702.00
1508, 1704.00
1509, 1704.00
1510, 1704.00
1511, 1705.00
1512, 1707.00
1513, 1708.00
1514, 1709.00
1515, 1710.00
1516, 1710.00
1517, 1711.00
1518, 1713.00
1519, 1713.00
1520, 1715.00
1521, 1715.00
1522, 1717.00
1523, 1717.00
1524, 1718.00
1525, 1719.00
1526, 1722.00
1527, 1721.00
1528, 1724.00
1529, 1725.00
1530, 1725.00
1531, 1726.00
1532, 1726.00
1533, 1729.00
1534, 1729.00
1535, 1730.00
1536, 1732.00
1537, 1732.00
1538, 1735.00
1539, 1735.00
1540, 1736.00
1541, 1737.00
1542, 1738.00
1543, 1739.00
1544, 1740.00
1545, 1741.00
1546, 1743.00
1547, 1745.00
1548, 1746.00
1549, 1746.00
1550, 1748.00
1551, 1748.00
1552, 1750.00
1553, 1752.00
1554, 1752.00
1555, 1752.00
1556, 1755.00
1557, 1755.00
1558, 1756.00
1559, 1758.00
1560, 1759.00
1561, 1759.00
1562, 1761.00
1563, 1762.00
1564, 1764.00
1565, 1765.00
1566, 1766.00
1567, 1768.00
1568, 1769.00
1569, 1771.00
1570, 1771.00
1571, 1772.00
1572, 1774.00
1573, 1775.00
1574, 1777.00
1575, 1777.00
1576, 1779.00
1577, 1780.00
1578, 1779.00
1579, 1781.00
1580, 1783.00
1581, 1783.00
1582, 1784.00
1583, 1786.00
1584, 1787.00
1585, 1787.00
1586, 1789.00
1587, 1790.00
1588, 1791.00
1589, 1793.00
1590, 1793.00
1591, 1794.00
1592, 1795.00
1593, 1796.00
1594, 1796.00
1595, 1800.00
1596, 1798.00
1597, 1800.00
1598, 1802.00
1599, 1803.00
1600, 1804.00
1601, 1806.00
1602, 1806.00
1603, 1807.00
1604, 1808.00
1605, 1808.00
1606, 1812.00
1607, 1812.00
1608, 1813.00
1609, 1815.00
1610, 1815.00
1611, 1817.00
1612, 1819.00
1613, 1819.00
1614, 1821.00
1615, 1822.00
1616, 1825.00
1617, 1825.00
1618, 1827.00
1619, 1829.00
1620, 1830.00
1621, 1832.00
1622, 1833.00
1623, 1834.00
1624, 1835.00
1625, 1837.00
1626, 1837.00
1627, 1838.00
1628, 1840.00
1629, 1842.00
1630, 1843.00
1631, 1844.00
1632, 1846.00
1633, 1846.00
1634, 1849.00
1635, 1850.00
1636, 1850.00
1637, 1852.00
1638, 1852.00
1639, 1854.00
1640, 1854.00
1641, 1858.00
1642, 1857.00
1643, 1859.00
1644, 1859.00
1645, 1861.00
1646, 1862.00
1647, 1863.00
1648, 1865.00
1649, 1866.00
1650, 1867.00

1750, 2424.00
1751, 2423.00
1752, 2423.00
1753, 2423.00
1754, 2423.00
1755, 2423.00
1756, 2423.00
1757, 2422.00
1758, 2425.00
1759, 2423.00
1760, 2422.00
1761, 2425.00
1762, 2423.00
1763, 2422.00
1764, 2423.00
1765, 2421.00
1766, 2422.00
1767, 2421.00
1768, 2421.00
1769, 2421.00
1770, 2421.00
1771, 2420.00
1772, 2419.00
1773, 2418.00
1774, 2417.00
1775, 2419.00
1776, 2419.00
1777, 2417.00
1778, 2417.00
1779, 2418.00
1780, 2417.00
1781, 2415.00
1782, 2417.00
1783, 2414.00
1784, 2413.00
1785, 2416.00
1786, 2412.00
1787, 2415.00
1788, 2413.00
1789, 2410.00
1790, 2412.00
1791, 2409.00
1792, 2411.00
1793, 2409.00
1794, 2411.00
1795, 2409.00
1796, 2411.00
1797, 2409.00
1798, 2412.00
1799, 2409.00
1800, 2409.00
1801, 2408.00
1802, 2408.00
1803, 2408.00
1804, 2407.00
1805, 2406.00
1806, 2408.00
1807, 2405.00
1808, 2405.00
1809, 2405.00
1810, 2404.00
1811, 2405.00
1812, 2403.00
1813, 2404.00
1814, 2404.00
1815, 2402.00
1816, 2401.00
1817, 2401.00
1818, 2400.00
1819, 2400.00
1820, 2401.00
1821, 2399.00
1822, 2400.00
1823, 2400.00
1824, 2397.00
1825, 2393.00
1826, 2394.00
1827, 2393.00
1828, 2394.00
1829, 2393.00
1830, 2389.00
1831, 2389.00
1832, 2388.00
1833, 2387.00
1834, 2386.00
1835, 2383.00
1836, 2381.00
1837, 2380.00
1838, 2379.00
1839, 2377.00
1840, 2376.00
1841, 2373.00
1842, 2374.00
1843, 2371.00
1844, 2369.00
1845, 2366.00
1846, 2365.00
1847, 2364.00
1848, 2361.00
1849, 2358.00
1850, 2357.00
1851, 2354.00
1852, 2352.00
1853, 2350.00
1854, 2347.00
1855, 2346.00
1856, 2345.00
1857, 2341.00
1858, 2339.00
1859, 2337.00
1860, 2335.00
1861, 2332.00
1862, 2330.00
1863, 2331.00
1864, 2331.00
1865, 2326.00
1866, 2325.00
1867, 2322.00
1868, 2321.00
1869, 2320.00
1870, 2320.00
1871, 2319.00
1872, 2316.00
1873, 2315.00
1874, 2313.00
1875, 2312.00
1876, 2312.00
1877, 2311.00
1878, 2308.00
1879, 2310.00
1880, 2309.00
1881, 2307.00
1882, 2307.00
1883, 2303.00
1884, 2305.00
1885, 2305.00
1886, 2302.00
1887, 2302.00
1888, 2304.00
1889, 2304.00
1890, 2301.00
1891, 2301.00
1892, 2300.00
1893, 2301.00
1894, 2301.00
1895, 2299.00
1896, 2300.00
1897, 2300.00
1898, 2297.00
1899, 2300.00
1900, 2299.00
1901, 2296.00
1902, 2297.00
1903, 2298.00
1904, 2296.00
1905, 2296.00
1906, 2295.00
1907, 2297.00
1908, 2297.00
1909, 2296.00
1910, 2297.00
1911, 2295.00
1912, 2296.00
1913, 2295.00
1914, 2294.00
1915, 2295.00
1916, 2297.00
1917, 2295.00
1918, 2296.00
1919, 2295.00
1920, 2294.00
1921, 2294.00
1922, 2296.00
1923, 2296.00
1924, 2296.00
1925, 2294.00
1926, 2294.00
1927, 2295.00
1928, 2297.00
1929, 2298.00
1930, 2296.00
1931, 2297.00
1932, 2295.00
1933, 2297.00
1934, 2296.00
1935, 2297.00
1936, 2297.00
1937, 2298.00
1938, 2299.00
1939, 2298.00
1940, 2298.00
1941, 2298.00
1942, 2299.00
1943, 2300.00
1944, 2298.00
1945, 2299.00
1946, 2300.00
1947, 2301.00
1948, 2301.00
1949, 2300.00
1950, 2303.00
1951, 2301.00
1952, 2301.00
1953, 2303.00
1954, 2304.00
1955, 2305.00
1956, 2303.00
1957, 2306.00
1958, 2304.00
1959, 2305.00
1960, 2305.00
1961, 2306.00
1962, 2309.00
1963, 2307.00
1964, 2307.00
1965, 2308.00
1966, 2311.00
1967, 2308.00
1968, 2311.00
1969, 2312.00
1970, 2311.00
1971, 2312.00
1972, 2315.00
1973, 2314.00
1974, 2315.00
1975, 2315.00
1976, 2316.00
1977, 2317.00
1978, 2316.00
1979, 2317.00
1980, 2318.00
1981, 2316.00
1982, 2318.00
1983, 2319.00
1984, 2321.00
1985, 2321.00
1986, 2320.00
1987, 2323.00
1988, 2324.00
1989, 2323.00
1990, 2324.00
1991, 2326.00
1992, 2324.00
1993, 2326.00
1994, 2327.00
1995, 2326.00
1996, 2330.00
1997, 2328.00
1998, 2328.00
1999, 2331.00
2000, 2329.00
2001, 2330.00
2002, 2330.00
2003, 2332.00
2004, 2332.00
2005, 2332.00
2006, 2334.00
2007, 2334.00
2008, 2335.00
2009, 2334.00
2010, 2336.00
2011, 2335.00
2012, 2337.00
2013, 2337.00
2014, 2336.00
2015, 2338.00
2016, 2340.00
2017, 2341.00
2018, 2339.00
2019, 2342.00
2020, 2343.00
2021, 2341.00
2022, 2344.00
2023, 2343.00
2024, 2344.00
2025, 2343.00
2026, 2343.00
2027, 2346.00
2028, 2343.00
2029, 2345.00
2030, 2347.00
2031, 2349.00
2032, 2350.00
2033, 2349.00
2034, 2347.00
2035, 2351.00
2036, 2351.00
2037, 2351.00
2038, 2352.00
2039, 2354.00
2040, 2352.00
2041, 2353.00
2042, 2355.00
2043, 2355.00
2044, 2360.00
2045, 2359.00
2046, 2358.00
2047, 2359.00
2048, 2360.00
2049, 2361.00
2050, 2362.00
2051, 2362.00
2052, 2363.00
2053, 2365.00
2054, 2365.00
2055, 2367.00
2056, 2366.00
2057, 2366.00
2058, 2371.00
2059, 2370.00
2060, 2369.00
2061, 2372.00
2062, 2373.00
2063, 2374.00
2064, 2373.00
2065, 2373.00
2066, 2376.00
2067, 2379.00
2068, 2378.00
2069, 2376.00
2070, 2379.00
2071, 2379.00
2072, 2382.00
2073, 2381.00
2074, 2382.00
2075, 2381.00
2076, 2383.00
2077, 2383.00
2078, 2385.00
2079, 2387.00
2080, 2385.00
2081, 2387.00
2082, 2387.00
2083, 2386.00
2084, 2389.00
2085, 2390.00
2086, 2390.00
2087, 2390.00
2088, 2389.00
2089, 2394.00
2090, 2392.00
2091, 2393.00
2092, 2395.00
2093, 2392.00
2094, 2396.00
2095, 2397.00
2096, 2395.00
2097, 2396.00
2098, 2397.00
2099, 2396.00
2100, 2399.00
2101, 2399.00
2102, 2397.00
2103, 2397.00
2104, 2399.00
2105, 2400.00
2106, 2398.00
2107, 2401.00
2108, 2399.00
2109, 2399.00
2110, 2401.00
2111, 2401.00
2112, 2402.00
2113, 2404.00
2114, 2402.00
2115, 2403.00
2116, 2402.00
2117, 2404.00
2118, 2404.00
2119, 2403.00
2120, 2404.00
2121, 2404.00
2122, 2405.00
2123, 2405.00
2124, 2406.00
2125, 2405.00
2126, 2407.00
2127, 2405.00
2128, 2406.00
2129, 2406.00
2130, 2407.00
2131, 2408.00
2132, 2408.00
2133, 2407.00
2134, 2409.00
2135, 2407.00
2136, 2409.00
2137, 2409.00
2138, 2407.00
2139, 2410.00
2140, 2411.00
2141, 2409.00
2142, 2410.00
2143, 2409.00
2144, 2410.00
2145, 2410.00
2146, 2409.00
2147, 2412.00
2148, 2412.00
2149, 2412.00
2150, 2413.00
