FW version: 24
Log Version: 3.0.3

General Info:
       Command/Macro Performed,            Timestamp,             Device ID, COM Port, UART/I2C, Test Name, Host Major, Host Minor, Host Revision, Host Git Commit
            Single_measurement,  2023_07_11_12_06_53,       Insight2_F4_xxx,    USB-C,      USB,          ,          0,          1,             1,      4031237645

Show Spectrometer Status:
l0_version, f4_version, battery_perc, battery_mVolt, accelerometer_temp, accelerometer_x, accelerometer_y, accelerometer_z, compass_temp, compass_x, compass_y, compass_z, lamp_0, lamp_1, gain_0, gain_1
        17,         24,           53,          1918,               7056,           64620,            1372,           18844,            0,     65407,     65373,     18846,   2047,   2047,      1,      1

Temperature Statistic Info:
NTC AVG [°C], NTC2 AVG [°C]
      42.343,        42.010

Statistic Info:
M1:  num,      min,      max,   median,      AVG,      STD,M2:  num,      min,      max,   median,      AVG,      STD
     301,   661.00,   759.00,   686.00,   695.08,  31.4789,     401,  1045.00,  1108.00,  1079.00,  1077.66,  21.1848,

Measurements:
Wavelength, Data Amplitude
1350, 671.00
1351, 672.00
1352, 670.00
1353, 671.00
1354, 670.00
1355, 671.00
1356, 670.00
1357, 670.00
1358, 670.00
1359, 670.00
1360, 669.00
1361, 669.00
1362, 668.00
1363, 669.00
1364, 667.00
1365, 667.00
1366, 668.00
1367, 668.00
1368, 667.00
1369, 666.00
1370, 667.00
1371, 666.00
1372, 667.00
1373, 665.00
1374, 665.00
1375, 665.00
1376, 666.00
1377, 664.00
1378, 663.00
1379, 664.00
1380, 664.00
1381, 664.00
1382, 662.00
1383, 663.00
1384, 662.00
1385, 663.00
1386, 662.00
1387, 662.00
1388, 663.00
1389, 662.00
1390, 662.00
1391, 662.00
1392, 663.00
1393, 663.00
1394, 662.00
1395, 662.00
1396, 662.00
1397, 662.00
1398, 662.00
1399, 661.00
1400, 662.00
1401, 661.00
1402, 662.00
1403, 661.00
1404, 662.00
1405, 662.00
1406, 661.00
1407, 661.00
1408, 661.00
1409, 661.00
1410, 662.00
1411, 662.00
1412, 662.00
1413, 662.00
1414, 662.00
1415, 662.00
1416, 662.00
1417, 662.00
1418, 661.00
1419, 662.00
1420, 662.00
1421, 662.00
1422, 662.00
1423, 663.00
1424, 662.00
1425, 663.00
1426, 662.00
1427, 663.00
1428, 662.00
1429, 663.00
1430, 663.00
1431, 664.00
1432, 664.00
1433, 664.00
1434, 665.00
1435, 665.00
1436, 664.00
1437, 664.00
1438, 664.00
1439, 665.00
1440, 664.00
1441, 666.00
1442, 666.00
1443, 665.00
1444, 665.00
1445, 666.00
1446, 667.00
1447, 666.00
1448, 666.00
1449, 667.00
1450, 667.00
1451, 667.00
1452, 667.00
1453, 667.00
1454, 667.00
1455, 668.00
1456, 668.00
1457, 669.00
1458, 669.00
1459, 670.00
1460, 670.00
1461, 670.00
1462, 670.00
1463, 670.00
1464, 671.00
1465, 671.00
1466, 671.00
1467, 672.00
1468, 672.00
1469, 672.00
1470, 674.00
1471, 675.00
1472, 673.00
1473, 674.00
1474, 674.00
1475, 674.00
1476, 676.00
1477, 675.00
1478, 676.00
1479, 676.00
1480, 677.00
1481, 677.00
1482, 678.00
1483, 677.00
1484, 679.00
1485, 680.00
1486, 680.00
1487, 680.00
1488, 680.00
1489, 681.00
1490, 681.00
1491, 681.00
1492, 682.00
1493, 682.00
1494, 682.00
1495, 683.00
1496, 684.00
1497, 684.00
1498, 684.00
1499, 686.00
1500, 686.00
1501, 686.00
1502, 686.00
1503, 687.00
1504, 687.00
1505, 688.00
1506, 688.00
1507, 689.00
1508, 689.00
1509, 689.00
1510, 690.00
1511, 690.00
1512, 691.00
1513, 691.00
1514, 691.00
1515, 693.00
1516, 693.00
1517, 694.00
1518, 694.00
1519, 694.00
1520, 695.00
1521, 695.00
1522, 695.00
1523, 697.00
1524, 697.00
1525, 697.00
1526, 698.00
1527, 699.00
1528, 698.00
1529, 698.00
1530, 700.00
1531, 701.00
1532, 701.00
1533, 701.00
1534, 701.00
1535, 703.00
1536, 703.00
1537, 704.00
1538, 704.00
1539, 704.00
1540, 705.00
1541, 705.00
1542, 706.00
1543, 707.00
1544, 707.00
1545, 708.00
1546, 707.00
1547, 708.00
1548, 709.00
1549, 709.00
1550, 710.00
1551, 710.00
1552, 710.00
1553, 710.00
1554, 712.00
1555, 711.00
1556, 712.00
1557, 713.00
1558, 713.00
1559, 714.00
1560, 714.00
1561, 715.00
1562, 716.00
1563, 716.00
1564, 717.00
1565, 718.00
1566, 716.00
1567, 718.00
1568, 718.00
1569, 719.00
1570, 719.00
1571, 720.00
1572, 721.00
1573, 722.00
1574, 722.00
1575, 722.00
1576, 722.00
1577, 723.00
1578, 723.00
1579, 724.00
1580, 724.00
1581, 725.00
1582, 725.00
1583, 725.00
1584, 727.00
1585, 727.00
1586, 727.00
1587, 727.00
1588, 727.00
1589, 728.00
1590, 729.00
1591, 729.00
1592, 730.00
1593, 730.00
1594, 731.00
1595, 731.00
1596, 730.00
1597, 732.00
1598, 732.00
1599, 733.00
1600, 734.00
1601, 734.00
1602, 734.00
1603, 735.00
1604, 735.00
1605, 737.00
1606, 736.00
1607, 737.00
1608, 737.00
1609, 737.00
1610, 738.00
1611, 740.00
1612, 740.00
1613, 739.00
1614, 742.00
1615, 742.00
1616, 743.00
1617, 743.00
1618, 743.00
1619, 745.00
1620, 744.00
1621, 745.00
1622, 746.00
1623, 746.00
1624, 748.00
1625, 747.00
1626, 748.00
1627, 749.00
1628, 749.00
1629, 750.00
1630, 750.00
1631, 751.00
1632, 751.00
1633, 752.00
1634, 752.00
1635, 753.00
1636, 753.00
1637, 755.00
1638, 755.00
1639, 755.00
1640, 755.00
1641, 756.00
1642, 756.00
1643, 757.00
1644, 756.00
1645, 757.00
1646, 758.00
1647, 759.00
1648, 758.00
1649, 759.00
1650, 759.00

1750, 1105.00
1751, 1105.00
1752, 1105.00
1753, 1106.00
1754, 1106.00
1755, 1106.00
1756, 1105.00
1757, 1104.00
1758, 1104.00
1759, 1105.00
1760, 1103.00
1761, 1104.00
1762, 1105.00
1763, 1104.00
1764, 1104.00
1765, 1106.00
1766, 1103.00
1767, 1104.00
1768, 1104.00
1769, 1104.00
1770, 1104.00
1771, 1101.00
1772, 1104.00
1773, 1104.00
1774, 1105.00
1775, 1104.00
1776, 1104.00
1777, 1104.00
1778, 1102.00
1779, 1101.00
1780, 1102.00
1781, 1102.00
1782, 1101.00
1783, 1100.00
1784, 1102.00
1785, 1101.00
1786, 1101.00
1787, 1100.00
1788, 1102.00
1789, 1102.00
1790, 1100.00
1791, 1101.00
1792, 1098.00
1793, 1098.00
1794, 1101.00
1795, 1099.00
1796, 1099.00
1797, 1099.00
1798, 1099.00
1799, 1100.00
1800, 1099.00
1801, 1099.00
1802, 1099.00
1803, 1098.00
1804, 1098.00
1805, 1097.00
1806, 1095.00
1807, 1100.00
1808, 1098.00
1809, 1099.00
1810, 1097.00
1811, 1099.00
1812, 1097.00
1813, 1097.00
1814, 1095.00
1815, 1094.00
1816, 1098.00
1817, 1096.00
1818, 1095.00
1819, 1094.00
1820, 1097.00
1821, 1095.00
1822, 1095.00
1823, 1095.00
1824, 1095.00
1825, 1094.00
1826, 1093.00
1827, 1093.00
1828, 1094.00
1829, 1091.00
1830, 1090.00
1831, 1092.00
1832, 1089.00
1833, 1091.00
1834, 1088.00
1835, 1088.00
1836, 1088.00
1837, 1087.00
1838, 1087.00
1839, 1086.00
1840, 1085.00
1841, 1085.00
1842, 1084.00
1843, 1082.00
1844, 1080.00
1845, 1081.00
1846, 1080.00
1847, 1079.00
1848, 1080.00
1849, 1075.00
1850, 1077.00
1851, 1075.00
1852, 1073.00
1853, 1072.00
1854, 1070.00
1855, 1072.00
1856, 1070.00
1857, 1068.00
1858, 1067.00
1859, 1067.00
1860, 1067.00
1861, 1063.00
1862, 1064.00
1863, 1064.00
1864, 1062.00
1865, 1060.00
1866, 1058.00
1867, 1059.00
1868, 1059.00
1869, 1059.00
1870, 1057.00
1871, 1059.00
1872, 1056.00
1873, 1057.00
1874, 1055.00
1875, 1054.00
1876, 1054.00
1877, 1053.00
1878, 1053.00
1879, 1053.00
1880, 1052.00
1881, 1053.00
1882, 1051.00
1883, 1051.00
1884, 1050.00
1885, 1050.00
1886, 1052.00
1887, 1051.00
1888, 1052.00
1889, 1051.00
1890, 1050.00
1891, 1050.00
1892, 1048.00
1893, 1049.00
1894, 1048.00
1895, 1050.00
1896, 1051.00
1897, 1049.00
1898, 1048.00
1899, 1049.00
1900, 1048.00
1901, 1048.00
1902, 1047.00
1903, 1049.00
1904, 1048.00
1905, 1048.00
1906, 1045.00
1907, 1047.00
1908, 1047.00
1909, 1046.00
1910, 1047.00
1911, 1047.00
1912, 1046.00
1913, 1046.00
1914, 1049.00
1915, 1048.00
1916, 1048.00
1917, 1047.00
1918, 1049.00
1919, 1047.00
1920, 1045.00
1921, 1046.00
1922, 1046.00
1923, 1047.00
1924, 1049.00
1925, 1048.00
1926, 1048.00
1927, 1047.00
1928, 1046.00
1929, 1046.00
1930, 1046.00
1931, 1047.00
1932, 1048.00
1933, 1048.00
1934, 1048.00
1935, 1046.00
1936, 1050.00
1937, 1047.00
1938, 1050.00
1939, 1050.00
1940, 1048.00
1941, 1050.00
1942, 1048.00
1943, 1049.00
1944, 1049.00
1945, 1048.00
1946, 1049.00
1947, 1051.00
1948, 1050.00
1949, 1050.00
1950, 1050.00
1951, 1052.00
1952, 1051.00
1953, 1051.00
1954, 1052.00
1955, 1048.00
1956, 1050.00
1957, 1051.00
1958, 1052.00
1959, 1052.00
1960, 1052.00
1961, 1053.00
1962, 1055.00
1963, 1052.00
1964, 1054.00
1965, 1053.00
1966, 1053.00
1967, 1055.00
1968, 1054.00
1969, 1054.00
1970, 1056.00
1971, 1057.00
1972, 1056.00
1973, 1055.00
1974, 1058.00
1975, 1059.00
1976, 1056.00
1977, 1057.00
1978, 1057.00
1979, 1058.00
1980, 1058.00
1981, 1057.00
1982, 1058.00
1983, 1058.00
1984, 1059.00
1985, 1061.00
1986, 1062.00
1987, 1060.00
1988, 1061.00
1989, 1061.00
1990, 1062.00
1991, 1062.00
1992, 1063.00
1993, 1061.00
1994, 1064.00
1995, 1061.00
1996, 1061.00
1997, 1064.00
1998, 1064.00
1999, 1064.00
2000, 1063.00
2001, 1066.00
2002, 1063.00
2003, 1065.00
2004, 1065.00
2005, 1065.00
2006, 1069.00
2007, 1066.00
2008, 1067.00
2009, 1066.00
2010, 1068.00
2011, 1067.00
2012, 1066.00
2013, 1067.00
2014, 1068.00
2015, 1069.00
2016, 1068.00
2017, 1068.00
2018, 1069.00
2019, 1070.00
2020, 1071.00
2021, 1070.00
2022, 1070.00
2023, 1071.00
2024, 1070.00
2025, 1071.00
2026, 1071.00
2027, 1072.00
2028, 1071.00
2029, 1071.00
2030, 1074.00
2031, 1074.00
2032, 1072.00
2033, 1072.00
2034, 1073.00
2035, 1076.00
2036, 1075.00
2037, 1074.00
2038, 1077.00
2039, 1075.00
2040, 1077.00
2041, 1077.00
2042, 1078.00
2043, 1077.00
2044, 1077.00
2045, 1078.00
2046, 1078.00
2047, 1079.00
2048, 1079.00
2049, 1081.00
2050, 1082.00
2051, 1082.00
2052, 1083.00
2053, 1084.00
2054, 1080.00
2055, 1083.00
2056, 1084.00
2057, 1083.00
2058, 1084.00
2059, 1086.00
2060, 1084.00
2061, 1087.00
2062, 1085.00
2063, 1087.00
2064, 1085.00
2065, 1087.00
2066, 1086.00
2067, 1088.00
2068, 1088.00
2069, 1088.00
2070, 1090.00
2071, 1089.00
2072, 1090.00
2073, 1091.00
2074, 1091.00
2075, 1093.00
2076, 1090.00
2077, 1090.00
2078, 1090.00
2079, 1091.00
2080, 1093.00
2081, 1094.00
2082, 1093.00
2083, 1093.00
2084, 1093.00
2085, 1094.00
2086, 1094.00
2087, 1096.00
2088, 1094.00
2089, 1096.00
2090, 1096.00
2091, 1096.00
2092, 1095.00
2093, 1096.00
2094, 1098.00
2095, 1098.00
2096, 1098.00
2097, 1098.00
2098, 1099.00
2099, 1099.00
2100, 1099.00
2101, 1099.00
2102, 1099.00
2103, 1099.00
2104, 1100.00
2105, 1098.00
2106, 1099.00
2107, 1100.00
2108, 1102.00
2109, 1099.00
2110, 1101.00
2111, 1100.00
2112, 1101.00
2113, 1100.00
2114, 1101.00
2115, 1101.00
2116, 1101.00
2117, 1101.00
2118, 1104.00
2119, 1103.00
2120, 1102.00
2121, 1102.00
2122, 1102.00
2123, 1102.00
2124, 1102.00
2125, 1104.00
2126, 1104.00
2127, 1102.00
2128, 1103.00
2129, 1104.00
2130, 1104.00
2131, 1104.00
2132, 1103.00
2133, 1104.00
2134, 1104.00
2135, 1104.00
2136, 1108.00
2137, 1105.00
2138, 1107.00
2139, 1104.00
2140, 1106.00
2141, 1105.00
2142, 1104.00
2143, 1104.00
2144, 1105.00
2145, 1107.00
2146, 1105.00
2147, 1106.00
2148, 1105.00
2149, 1107.00
2150, 1107.00
