FW version: 24
Log Version: 3.0.3

General Info:
       Command/Macro Performed,            Timestamp,             Device ID, COM Port, UART/I2C, Test Name, Host Major, Host Minor, Host Revision, Host Git Commit
            Single_measurement,  2023_07_11_12_07_55,       Insight2_F4_xxx,    USB-C,      USB,          ,          0,          1,             1,      4031237645

Show Spectrometer Status:
l0_version, f4_version, battery_perc, battery_mVolt, accelerometer_temp, accelerometer_x, accelerometer_y, accelerometer_z, compass_temp, compass_x, compass_y, compass_z, lamp_0, lamp_1, gain_0, gain_1
        17,         24,           53,          1918,               7072,           64616,            1332,           18724,            0,     65401,     65406,     18814,   3276,   3276,      1,      1

Temperature Statistic Info:
NTC AVG [°C], NTC2 AVG [°C]
      42.733,        42.373

Statistic Info:
M1:  num,      min,      max,   median,      AVG,      STD,M2:  num,      min,      max,   median,      AVG,      STD
     301,  1643.00,  1864.00,  1693.00,  1717.04,  68.9239,     401,  2291.00,  2422.00,  2358.00,  2356.20,  44.2709,

Measurements:
Wavelength, Data Amplitude
1350, 1673.00
1351, 1672.00
1352, 1673.00
1353, 1672.00
1354, 1672.00
1355, 1671.00
1356, 1671.00
1357, 1670.00
1358, 1669.00
1359, 1669.00
1360, 1668.00
1361, 1667.00
1362, 1667.00
1363, 1666.00
1364, 1663.00
1365, 1665.00
1366, 1663.00
1367, 1662.00
1368, 1660.00
1369, 1661.00
1370, 1659.00
1371, 1659.00
1372, 1658.00
1373, 1658.00
1374, 1656.00
1375, 1655.00
1376, 1655.00
1377, 1653.00
1378, 1653.00
1379, 1653.00
1380, 1652.00
1381, 1651.00
1382, 1651.00
1383, 1651.00
1384, 1649.00
1385, 1649.00
1386, 1649.00
1387, 1648.00
1388, 1648.00
1389, 1648.00
1390, 1647.00
1391, 1648.00
1392, 1647.00
1393, 1648.00
1394, 1646.00
1395, 1646.00
1396, 1647.00
1397, 1646.00
1398, 1646.00
1399, 1645.00
1400, 1645.00
1401, 1646.00
1402, 1645.00
1403, 1645.00
1404, 1645.00
1405, 1645.00
1406, 1644.00
1407, 1645.00
1408, 1645.00
1409, 1643.00
1410, 1644.00
1411, 1644.00
1412, 1644.00
1413, 1644.00
1414, 1644.00
1415, 1644.00
1416, 1645.00
1417, 1644.00
1418, 1644.00
1419, 1644.00
1420, 1645.00
1421, 1645.00
1422, 1644.00
1423, 1645.00
1424, 1645.00
1425, 1645.00
1426, 1646.00
1427, 1646.00
1428, 1646.00
1429, 1646.00
1430, 1646.00
1431, 1646.00
1432, 1647.00
1433, 1647.00
1434, 1648.00
1435, 1649.00
1436, 1648.00
1437, 1649.00
1438, 1650.00
1439, 1649.00
1440, 1649.00
1441, 1651.00
1442, 1651.00
1443, 1652.00
1444, 1651.00
1445, 1652.00
1446, 1651.00
1447, 1653.00
1448, 1654.00
1449, 1655.00
1450, 1655.00
1451, 1655.00
1452, 1656.00
1453, 1655.00
1454, 1657.00
1455, 1656.00
1456, 1658.00
1457, 1659.00
1458, 1659.00
1459, 1660.00
1460, 1660.00
1461, 1662.00
1462, 1661.00
1463, 1662.00
1464, 1662.00
1465, 1664.00
1466, 1665.00
1467, 1665.00
1468, 1665.00
1469, 1667.00
1470, 1666.00
1471, 1668.00
1472, 1669.00
1473, 1669.00
1474, 1670.00
1475, 1672.00
1476, 1673.00
1477, 1673.00
1478, 1673.00
1479, 1673.00
1480, 1676.00
1481, 1677.00
1482, 1677.00
1483, 1678.00
1484, 1679.00
1485, 1680.00
1486, 1681.00
1487, 1682.00
1488, 1682.00
1489, 1683.00
1490, 1684.00
1491, 1685.00
1492, 1688.00
1493, 1686.00
1494, 1688.00
1495, 1689.00
1496, 1689.00
1497, 1691.00
1498, 1691.00
1499, 1692.00
1500, 1693.00
1501, 1694.00
1502, 1694.00
1503, 1697.00
1504, 1696.00
1505, 1697.00
1506, 1699.00
1507, 1699.00
1508, 1701.00
1509, 1702.00
1510, 1703.00
1511, 1703.00
1512, 1705.00
1513, 1705.00
1514, 1706.00
1515, 1708.00
1516, 1709.00
1517, 1709.00
1518, 1709.00
1519, 1713.00
1520, 1712.00
1521, 1714.00
1522, 1715.00
1523, 1717.00
1524, 1717.00
1525, 1718.00
1526, 1718.00
1527, 1721.00
1528, 1722.00
1529, 1721.00
1530, 1723.00
1531, 1725.00
1532, 1724.00
1533, 1725.00
1534, 1727.00
1535, 1728.00
1536, 1730.00
1537, 1730.00
1538, 1731.00
1539, 1734.00
1540, 1735.00
1541, 1735.00
1542, 1735.00
1543, 1737.00
1544, 1739.00
1545, 1739.00
1546, 1741.00
1547, 1741.00
1548, 1742.00
1549, 1743.00
1550, 1744.00
1551, 1745.00
1552, 1747.00
1553, 1748.00
1554, 1750.00
1555, 1751.00
1556, 1752.00
1557, 1752.00
1558, 1753.00
1559, 1756.00
1560, 1757.00
1561, 1757.00
1562, 1759.00
1563, 1760.00
1564, 1761.00
1565, 1763.00
1566, 1764.00
1567, 1765.00
1568, 1767.00
1569, 1768.00
1570, 1769.00
1571, 1770.00
1572, 1771.00
1573, 1772.00
1574, 1773.00
1575, 1775.00
1576, 1775.00
1577, 1777.00
1578, 1777.00
1579, 1778.00
1580, 1780.00
1581, 1781.00
1582, 1781.00
1583, 1783.00
1584, 1785.00
1585, 1786.00
1586, 1787.00
1587, 1788.00
1588, 1788.00
1589, 1789.00
1590, 1791.00
1591, 1791.00
1592, 1793.00
1593, 1794.00
1594, 1795.00
1595, 1796.00
1596, 1797.00
1597, 1798.00
1598, 1800.00
1599, 1801.00
1600, 1801.00
1601, 1803.00
1602, 1804.00
1603, 1804.00
1604, 1805.00
1605, 1807.00
1606, 1808.00
1607, 1810.00
1608, 1811.00
1609, 1812.00
1610, 1814.00
1611, 1815.00
1612, 1815.00
1613, 1817.00
1614, 1819.00
1615, 1819.00
1616, 1821.00
1617, 1823.00
1618, 1823.00
1619, 1826.00
1620, 1828.00
1621, 1829.00
1622, 1830.00
1623, 1830.00
1624, 1831.00
1625, 1833.00
1626, 1835.00
1627, 1837.00
1628, 1837.00
1629, 1839.00
1630, 1840.00
1631, 1841.00
1632, 1843.00
1633, 1844.00
1634, 1846.00
1635, 1847.00
1636, 1849.00
1637, 1849.00
1638, 1850.00
1639, 1852.00
1640, 1852.00
1641, 1854.00
1642, 1854.00
1643, 1857.00
1644, 1856.00
1645, 1858.00
1646, 1860.00
1647, 1860.00
1648, 1861.00
1649, 1863.00
1650, 1864.00

1750, 2421.00
1751, 2420.00
1752, 2419.00
1753, 2422.00
1754, 2419.00
1755, 2421.00
1756, 2420.00
1757, 2422.00
1758, 2421.00
1759, 2419.00
1760, 2421.00
1761, 2420.00
1762, 2420.00
1763, 2419.00
1764, 2419.00
1765, 2419.00
1766, 2419.00
1767, 2419.00
1768, 2417.00
1769, 2417.00
1770, 2419.00
1771, 2417.00
1772, 2416.00
1773, 2417.00
1774, 2418.00
1775, 2416.00
1776, 2416.00
1777, 2415.00
1778, 2416.00
1779, 2414.00
1780, 2413.00
1781, 2412.00
1782, 2413.00
1783, 2413.00
1784, 2412.00
1785, 2411.00
1786, 2412.00
1787, 2413.00
1788, 2409.00
1789, 2409.00
1790, 2409.00
1791, 2408.00
1792, 2408.00
1793, 2409.00
1794, 2408.00
1795, 2409.00
1796, 2408.00
1797, 2407.00
1798, 2406.00
1799, 2405.00
1800, 2405.00
1801, 2404.00
1802, 2405.00
1803, 2406.00
1804, 2403.00
1805, 2404.00
1806, 2403.00
1807, 2403.00
1808, 2403.00
1809, 2403.00
1810, 2402.00
1811, 2400.00
1812, 2401.00
1813, 2399.00
1814, 2400.00
1815, 2400.00
1816, 2401.00
1817, 2397.00
1818, 2399.00
1819, 2399.00
1820, 2395.00
1821, 2397.00
1822, 2395.00
1823, 2395.00
1824, 2393.00
1825, 2395.00
1826, 2391.00
1827, 2392.00
1828, 2392.00
1829, 2389.00
1830, 2388.00
1831, 2388.00
1832, 2385.00
1833, 2384.00
1834, 2381.00
1835, 2383.00
1836, 2382.00
1837, 2378.00
1838, 2378.00
1839, 2376.00
1840, 2375.00
1841, 2372.00
1842, 2372.00
1843, 2368.00
1844, 2366.00
1845, 2363.00
1846, 2362.00
1847, 2358.00
1848, 2359.00
1849, 2356.00
1850, 2353.00
1851, 2351.00
1852, 2349.00
1853, 2348.00
1854, 2346.00
1855, 2343.00
1856, 2340.00
1857, 2341.00
1858, 2337.00
1859, 2336.00
1860, 2333.00
1861, 2330.00
1862, 2329.00
1863, 2326.00
1864, 2328.00
1865, 2324.00
1866, 2323.00
1867, 2322.00
1868, 2320.00
1869, 2318.00
1870, 2316.00
1871, 2313.00
1872, 2314.00
1873, 2310.00
1874, 2311.00
1875, 2311.00
1876, 2308.00
1877, 2307.00
1878, 2307.00
1879, 2306.00
1880, 2305.00
1881, 2305.00
1882, 2306.00
1883, 2302.00
1884, 2301.00
1885, 2302.00
1886, 2301.00
1887, 2301.00
1888, 2301.00
1889, 2300.00
1890, 2299.00
1891, 2300.00
1892, 2297.00
1893, 2297.00
1894, 2297.00
1895, 2298.00
1896, 2297.00
1897, 2297.00
1898, 2296.00
1899, 2295.00
1900, 2296.00
1901, 2296.00
1902, 2297.00
1903, 2294.00
1904, 2293.00
1905, 2294.00
1906, 2294.00
1907, 2295.00
1908, 2294.00
1909, 2293.00
1910, 2296.00
1911, 2293.00
1912, 2295.00
1913, 2293.00
1914, 2294.00
1915, 2291.00
1916, 2293.00
1917, 2294.00
1918, 2291.00
1919, 2293.00
1920, 2293.00
1921, 2293.00
1922, 2292.00
1923, 2293.00
1924, 2293.00
1925, 2293.00
1926, 2291.00
1927, 2293.00
1928, 2294.00
1929, 2295.00
1930, 2293.00
1931, 2293.00
1932, 2294.00
1933, 2292.00
1934, 2293.00
1935, 2293.00
1936, 2294.00
1937, 2295.00
1938, 2295.00
1939, 2295.00
1940, 2297.00
1941, 2294.00
1942, 2296.00
1943, 2296.00
1944, 2296.00
1945, 2296.00
1946, 2297.00
1947, 2297.00
1948, 2301.00
1949, 2298.00
1950, 2298.00
1951, 2299.00
1952, 2299.00
1953, 2301.00
1954, 2298.00
1955, 2301.00
1956, 2301.00
1957, 2302.00
1958, 2302.00
1959, 2305.00
1960, 2304.00
1961, 2302.00
1962, 2305.00
1963, 2305.00
1964, 2307.00
1965, 2307.00
1966, 2305.00
1967, 2307.00
1968, 2308.00
1969, 2306.00
1970, 2308.00
1971, 2310.00
1972, 2310.00
1973, 2311.00
1974, 2310.00
1975, 2313.00
1976, 2313.00
1977, 2313.00
1978, 2314.00
1979, 2314.00
1980, 2315.00
1981, 2314.00
1982, 2317.00
1983, 2316.00
1984, 2317.00
1985, 2318.00
1986, 2321.00
1987, 2320.00
1988, 2319.00
1989, 2321.00
1990, 2320.00
1991, 2323.00
1992, 2322.00
1993, 2324.00
1994, 2323.00
1995, 2325.00
1996, 2325.00
1997, 2328.00
1998, 2326.00
1999, 2326.00
2000, 2327.00
2001, 2328.00
2002, 2330.00
2003, 2329.00
2004, 2330.00
2005, 2328.00
2006, 2330.00
2007, 2332.00
2008, 2331.00
2009, 2332.00
2010, 2336.00
2011, 2334.00
2012, 2333.00
2013, 2333.00
2014, 2335.00
2015, 2337.00
2016, 2335.00
2017, 2336.00
2018, 2338.00
2019, 2338.00
2020, 2337.00
2021, 2338.00
2022, 2341.00
2023, 2341.00
2024, 2343.00
2025, 2339.00
2026, 2343.00
2027, 2344.00
2028, 2343.00
2029, 2343.00
2030, 2344.00
2031, 2346.00
2032, 2343.00
2033, 2347.00
2034, 2346.00
2035, 2348.00
2036, 2349.00
2037, 2349.00
2038, 2352.00
2039, 2351.00
2040, 2350.00
2041, 2353.00
2042, 2352.00
2043, 2352.00
2044, 2355.00
2045, 2353.00
2046, 2355.00
2047, 2355.00
2048, 2358.00
2049, 2358.00
2050, 2358.00
2051, 2358.00
2052, 2361.00
2053, 2362.00
2054, 2362.00
2055, 2362.00
2056, 2365.00
2057, 2362.00
2058, 2365.00
2059, 2367.00
2060, 2367.00
2061, 2368.00
2062, 2371.00
2063, 2370.00
2064, 2372.00
2065, 2371.00
2066, 2373.00
2067, 2374.00
2068, 2373.00
2069, 2376.00
2070, 2376.00
2071, 2378.00
2072, 2378.00
2073, 2376.00
2074, 2380.00
2075, 2380.00
2076, 2381.00
2077, 2381.00
2078, 2381.00
2079, 2384.00
2080, 2382.00
2081, 2384.00
2082, 2384.00
2083, 2386.00
2084, 2384.00
2085, 2385.00
2086, 2389.00
2087, 2388.00
2088, 2389.00
2089, 2389.00
2090, 2390.00
2091, 2392.00
2092, 2390.00
2093, 2392.00
2094, 2391.00
2095, 2392.00
2096, 2394.00
2097, 2394.00
2098, 2394.00
2099, 2394.00
2100, 2397.00
2101, 2395.00
2102, 2397.00
2103, 2395.00
2104, 2395.00
2105, 2397.00
2106, 2397.00
2107, 2396.00
2108, 2399.00
2109, 2397.00
2110, 2398.00
2111, 2399.00
2112, 2400.00
2113, 2400.00
2114, 2398.00
2115, 2399.00
2116, 2401.00
2117, 2399.00
2118, 2401.00
2119, 2403.00
2120, 2401.00
2121, 2400.00
2122, 2401.00
2123, 2403.00
2124, 2402.00
2125, 2403.00
2126, 2403.00
2127, 2404.00
2128, 2404.00
2129, 2404.00
2130, 2405.00
2131, 2405.00
2132, 2404.00
2133, 2406.00
2134, 2407.00
2135, 2407.00
2136, 2407.00
2137, 2404.00
2138, 2406.00
2139, 2408.00
2140, 2407.00
2141, 2407.00
2142, 2406.00
2143, 2408.00
2144, 2408.00
2145, 2409.00
2146, 2409.00
2147, 2409.00
2148, 2407.00
2149, 2411.00
2150, 2408.00
