FW version: 24
Log Version: 3.0.3

General Info:
       Command/Macro Performed,            Timestamp,             Device ID, COM Port, UART/I2C, Test Name, Host Major, Host Minor, Host Revision, Host Git Commit
            Single_measurement,  2023_07_11_12_06_38,       Insight2_F4_xxx,    USB-C,      USB,          ,          0,          1,             1,      4031237645

Show Spectrometer Status:
l0_version, f4_version, battery_perc, battery_mVolt, accelerometer_temp, accelerometer_x, accelerometer_y, accelerometer_z, compass_temp, compass_x, compass_y, compass_z, lamp_0, lamp_1, gain_0, gain_1
        17,         24,           53,          1917,               7056,           64624,            1388,           18768,            0,     65402,     65406,     18813,   3276,   3276,      0,      0

Temperature Statistic Info:
NTC AVG [°C], NTC2 AVG [°C]
      42.283,        42.010

Statistic Info:
M1:  num,      min,      max,   median,      AVG,      STD,M2:  num,      min,      max,   median,      AVG,      STD
     301,   572.00,   650.00,   589.00,   598.23,  23.9941,     401,   798.00,   844.00,   821.00,   820.96,  15.5342,

Measurements:
Wavelength, Data Amplitude
1350, 583.00
1351, 583.00
1352, 583.00
1353, 583.00
1354, 582.00
1355, 582.00
1356, 582.00
1357, 582.00
1358, 582.00
1359, 581.00
1360, 582.00
1361, 580.00
1362, 581.00
1363, 580.00
1364, 580.00
1365, 580.00
1366, 580.00
1367, 579.00
1368, 579.00
1369, 579.00
1370, 579.00
1371, 578.00
1372, 578.00
1373, 577.00
1374, 577.00
1375, 577.00
1376, 577.00
1377, 577.00
1378, 576.00
1379, 576.00
1380, 576.00
1381, 576.00
1382, 575.00
1383, 575.00
1384, 576.00
1385, 575.00
1386, 575.00
1387, 574.00
1388, 574.00
1389, 574.00
1390, 574.00
1391, 574.00
1392, 574.00
1393, 574.00
1394, 574.00
1395, 574.00
1396, 574.00
1397, 574.00
1398, 573.00
1399, 573.00
1400, 573.00
1401, 573.00
1402, 573.00
1403, 573.00
1404, 573.00
1405, 573.00
1406, 573.00
1407, 573.00
1408, 573.00
1409, 573.00
1410, 573.00
1411, 574.00
1412, 573.00
1413, 573.00
1414, 573.00
1415, 573.00
1416, 572.00
1417, 573.00
1418, 573.00
1419, 573.00
1420, 573.00
1421, 573.00
1422, 573.00
1423, 573.00
1424, 574.00
1425, 573.00
1426, 573.00
1427, 573.00
1428, 573.00
1429, 574.00
1430, 574.00
1431, 574.00
1432, 574.00
1433, 574.00
1434, 574.00
1435, 574.00
1436, 574.00
1437, 574.00
1438, 574.00
1439, 575.00
1440, 575.00
1441, 576.00
1442, 575.00
1443, 575.00
1444, 576.00
1445, 576.00
1446, 576.00
1447, 576.00
1448, 576.00
1449, 576.00
1450, 577.00
1451, 577.00
1452, 577.00
1453, 577.00
1454, 577.00
1455, 577.00
1456, 578.00
1457, 578.00
1458, 578.00
1459, 578.00
1460, 578.00
1461, 579.00
1462, 579.00
1463, 579.00
1464, 579.00
1465, 579.00
1466, 580.00
1467, 580.00
1468, 580.00
1469, 580.00
1470, 581.00
1471, 581.00
1472, 581.00
1473, 582.00
1474, 581.00
1475, 582.00
1476, 583.00
1477, 583.00
1478, 583.00
1479, 583.00
1480, 584.00
1481, 584.00
1482, 585.00
1483, 585.00
1484, 585.00
1485, 585.00
1486, 585.00
1487, 586.00
1488, 586.00
1489, 586.00
1490, 587.00
1491, 588.00
1492, 587.00
1493, 587.00
1494, 588.00
1495, 588.00
1496, 588.00
1497, 589.00
1498, 589.00
1499, 589.00
1500, 590.00
1501, 589.00
1502, 591.00
1503, 591.00
1504, 592.00
1505, 592.00
1506, 592.00
1507, 592.00
1508, 593.00
1509, 592.00
1510, 593.00
1511, 594.00
1512, 594.00
1513, 593.00
1514, 594.00
1515, 594.00
1516, 595.00
1517, 595.00
1518, 596.00
1519, 596.00
1520, 596.00
1521, 597.00
1522, 597.00
1523, 598.00
1524, 598.00
1525, 598.00
1526, 599.00
1527, 599.00
1528, 599.00
1529, 600.00
1530, 600.00
1531, 601.00
1532, 601.00
1533, 601.00
1534, 602.00
1535, 602.00
1536, 602.00
1537, 603.00
1538, 603.00
1539, 603.00
1540, 604.00
1541, 605.00
1542, 604.00
1543, 605.00
1544, 605.00
1545, 607.00
1546, 607.00
1547, 607.00
1548, 607.00
1549, 608.00
1550, 608.00
1551, 608.00
1552, 608.00
1553, 609.00
1554, 610.00
1555, 610.00
1556, 610.00
1557, 611.00
1558, 611.00
1559, 611.00
1560, 612.00
1561, 612.00
1562, 613.00
1563, 613.00
1564, 614.00
1565, 615.00
1566, 615.00
1567, 615.00
1568, 616.00
1569, 616.00
1570, 616.00
1571, 616.00
1572, 617.00
1573, 617.00
1574, 618.00
1575, 618.00
1576, 618.00
1577, 619.00
1578, 620.00
1579, 620.00
1580, 620.00
1581, 620.00
1582, 621.00
1583, 622.00
1584, 622.00
1585, 622.00
1586, 623.00
1587, 623.00
1588, 623.00
1589, 623.00
1590, 624.00
1591, 624.00
1592, 624.00
1593, 625.00
1594, 625.00
1595, 625.00
1596, 626.00
1597, 626.00
1598, 627.00
1599, 627.00
1600, 628.00
1601, 628.00
1602, 628.00
1603, 629.00
1604, 629.00
1605, 629.00
1606, 630.00
1607, 630.00
1608, 631.00
1609, 631.00
1610, 631.00
1611, 632.00
1612, 634.00
1613, 634.00
1614, 634.00
1615, 634.00
1616, 635.00
1617, 635.00
1618, 636.00
1619, 636.00
1620, 636.00
1621, 637.00
1622, 637.00
1623, 638.00
1624, 639.00
1625, 639.00
1626, 640.00
1627, 640.00
1628, 640.00
1629, 640.00
1630, 641.00
1631, 642.00
1632, 642.00
1633, 642.00
1634, 643.00
1635, 643.00
1636, 644.00
1637, 644.00
1638, 644.00
1639, 646.00
1640, 645.00
1641, 646.00
1642, 646.00
1643, 646.00
1644, 647.00
1645, 648.00
1646, 648.00
1647, 648.00
1648, 649.00
1649, 649.00
1650, 650.00

1750, 843.00
1751, 843.00
1752, 844.00
1753, 843.00
1754, 843.00
1755, 844.00
1756, 843.00
1757, 843.00
1758, 843.00
1759, 844.00
1760, 843.00
1761, 844.00
1762, 843.00
1763, 843.00
1764, 843.00
1765, 844.00
1766, 843.00
1767, 842.00
1768, 843.00
1769, 843.00
1770, 843.00
1771, 843.00
1772, 842.00
1773, 842.00
1774, 842.00
1775, 842.00
1776, 842.00
1777, 842.00
1778, 842.00
1779, 841.00
1780, 842.00
1781, 840.00
1782, 841.00
1783, 840.00
1784, 841.00
1785, 841.00
1786, 841.00
1787, 840.00
1788, 840.00
1789, 841.00
1790, 840.00
1791, 839.00
1792, 839.00
1793, 840.00
1794, 838.00
1795, 839.00
1796, 839.00
1797, 839.00
1798, 838.00
1799, 839.00
1800, 839.00
1801, 838.00
1802, 839.00
1803, 837.00
1804, 838.00
1805, 837.00
1806, 837.00
1807, 838.00
1808, 837.00
1809, 837.00
1810, 836.00
1811, 837.00
1812, 837.00
1813, 837.00
1814, 837.00
1815, 836.00
1816, 836.00
1817, 836.00
1818, 836.00
1819, 836.00
1820, 835.00
1821, 835.00
1822, 835.00
1823, 835.00
1824, 833.00
1825, 835.00
1826, 833.00
1827, 834.00
1828, 833.00
1829, 833.00
1830, 832.00
1831, 831.00
1832, 831.00
1833, 831.00
1834, 831.00
1835, 831.00
1836, 830.00
1837, 829.00
1838, 828.00
1839, 828.00
1840, 828.00
1841, 826.00
1842, 825.00
1843, 826.00
1844, 824.00
1845, 824.00
1846, 823.00
1847, 822.00
1848, 823.00
1849, 821.00
1850, 820.00
1851, 820.00
1852, 819.00
1853, 818.00
1854, 817.00
1855, 816.00
1856, 816.00
1857, 815.00
1858, 814.00
1859, 813.00
1860, 813.00
1861, 812.00
1862, 811.00
1863, 811.00
1864, 810.00
1865, 810.00
1866, 809.00
1867, 809.00
1868, 808.00
1869, 807.00
1870, 807.00
1871, 806.00
1872, 806.00
1873, 805.00
1874, 805.00
1875, 805.00
1876, 805.00
1877, 803.00
1878, 804.00
1879, 803.00
1880, 803.00
1881, 803.00
1882, 802.00
1883, 802.00
1884, 802.00
1885, 803.00
1886, 802.00
1887, 802.00
1888, 801.00
1889, 801.00
1890, 801.00
1891, 801.00
1892, 800.00
1893, 801.00
1894, 800.00
1895, 801.00
1896, 800.00
1897, 800.00
1898, 800.00
1899, 800.00
1900, 800.00
1901, 800.00
1902, 800.00
1903, 800.00
1904, 799.00
1905, 799.00
1906, 798.00
1907, 799.00
1908, 799.00
1909, 799.00
1910, 800.00
1911, 799.00
1912, 799.00
1913, 799.00
1914, 799.00
1915, 799.00
1916, 799.00
1917, 798.00
1918, 799.00
1919, 799.00
1920, 799.00
1921, 799.00
1922, 799.00
1923, 799.00
1924, 798.00
1925, 798.00
1926, 799.00
1927, 798.00
1928, 799.00
1929, 799.00
1930, 799.00
1931, 798.00
1932, 799.00
1933, 800.00
1934, 799.00
1935, 799.00
1936, 799.00
1937, 800.00
1938, 800.00
1939, 799.00
1940, 800.00
1941, 799.00
1942, 799.00
1943, 800.00
1944, 800.00
1945, 800.00
1946, 801.00
1947, 801.00
1948, 801.00
1949, 801.00
1950, 800.00
1951, 801.00
1952, 801.00
1953, 801.00
1954, 801.00
1955, 800.00
1956, 802.00
1957, 802.00
1958, 802.00
1959, 802.00
1960, 802.00
1961, 803.00
1962, 803.00
1963, 803.00
1964, 803.00
1965, 803.00
1966, 804.00
1967, 804.00
1968, 805.00
1969, 804.00
1970, 805.00
1971, 804.00
1972, 805.00
1973, 805.00
1974, 806.00
1975, 806.00
1976, 807.00
1977, 806.00
1978, 806.00
1979, 806.00
1980, 807.00
1981, 807.00
1982, 807.00
1983, 806.00
1984, 808.00
1985, 808.00
1986, 807.00
1987, 808.00
1988, 808.00
1989, 808.00
1990, 808.00
1991, 810.00
1992, 809.00
1993, 809.00
1994, 809.00
1995, 810.00
1996, 810.00
1997, 811.00
1998, 811.00
1999, 810.00
2000, 811.00
2001, 810.00
2002, 811.00
2003, 811.00
2004, 812.00
2005, 812.00
2006, 811.00
2007, 812.00
2008, 813.00
2009, 813.00
2010, 813.00
2011, 813.00
2012, 813.00
2013, 813.00
2014, 813.00
2015, 814.00
2016, 814.00
2017, 814.00
2018, 813.00
2019, 815.00
2020, 815.00
2021, 814.00
2022, 814.00
2023, 815.00
2024, 815.00
2025, 815.00
2026, 816.00
2027, 817.00
2028, 817.00
2029, 816.00
2030, 817.00
2031, 818.00
2032, 817.00
2033, 817.00
2034, 818.00
2035, 817.00
2036, 819.00
2037, 818.00
2038, 819.00
2039, 820.00
2040, 819.00
2041, 819.00
2042, 819.00
2043, 820.00
2044, 820.00
2045, 820.00
2046, 820.00
2047, 821.00
2048, 821.00
2049, 821.00
2050, 821.00
2051, 823.00
2052, 822.00
2053, 823.00
2054, 823.00
2055, 823.00
2056, 824.00
2057, 823.00
2058, 824.00
2059, 825.00
2060, 825.00
2061, 826.00
2062, 826.00
2063, 826.00
2064, 826.00
2065, 826.00
2066, 826.00
2067, 826.00
2068, 828.00
2069, 828.00
2070, 828.00
2071, 828.00
2072, 828.00
2073, 829.00
2074, 829.00
2075, 830.00
2076, 830.00
2077, 830.00
2078, 830.00
2079, 830.00
2080, 831.00
2081, 832.00
2082, 831.00
2083, 831.00
2084, 831.00
2085, 832.00
2086, 832.00
2087, 832.00
2088, 832.00
2089, 833.00
2090, 833.00
2091, 833.00
2092, 833.00
2093, 834.00
2094, 833.00
2095, 834.00
2096, 834.00
2097, 835.00
2098, 834.00
2099, 833.00
2100, 834.00
2101, 835.00
2102, 834.00
2103, 835.00
2104, 835.00
2105, 835.00
2106, 835.00
2107, 835.00
2108, 836.00
2109, 836.00
2110, 835.00
2111, 836.00
2112, 836.00
2113, 836.00
2114, 835.00
2115, 836.00
2116, 836.00
2117, 836.00
2118, 837.00
2119, 837.00
2120, 837.00
2121, 837.00
2122, 836.00
2123, 837.00
2124, 837.00
2125, 837.00
2126, 837.00
2127, 838.00
2128, 838.00
2129, 838.00
2130, 838.00
2131, 838.00
2132, 838.00
2133, 838.00
2134, 839.00
2135, 838.00
2136, 838.00
2137, 839.00
2138, 838.00
2139, 839.00
2140, 837.00
2141, 838.00
2142, 839.00
2143, 840.00
2144, 839.00
2145, 840.00
2146, 839.00
2147, 839.00
2148, 839.00
2149, 840.00
2150, 840.00
