FW version: 24
Log Version: 3.0.3

General Info:
       Command/Macro Performed,            Timestamp,             Device ID, COM Port, UART/I2C, Test Name, Host Major, Host Minor, Host Revision, Host Git Commit
            Single_measurement,  2023_07_11_12_07_12,       Insight2_F4_xxx,    USB-C,      USB,          ,          0,          1,             1,      4031237645

Show Spectrometer Status:
l0_version, f4_version, battery_perc, battery_mVolt, accelerometer_temp, accelerometer_x, accelerometer_y, accelerometer_z, compass_temp, compass_x, compass_y, compass_z, lamp_0, lamp_1, gain_0, gain_1
        17,         24,           53,          1912,               7056,           64592,            1388,           18804,            0,     65362,     65407,     18935,   2457,   2457,      1,      1

Temperature Statistic Info:
NTC AVG [°C], NTC2 AVG [°C]
      42.434,        42.101

Statistic Info:
M1:  num,      min,      max,   median,      AVG,      STD,M2:  num,      min,      max,   median,      AVG,      STD
     301,   953.00,  1093.00,   986.00,  1000.33,  43.5443,     401,  1434.00,  1518.00,  1479.00,  1476.70,  28.5983,

Measurements:
Wavelength, Data Amplitude
1350, 969.00
1351, 969.00
1352, 968.00
1353, 969.00
1354, 969.00
1355, 969.00
1356, 969.00
1357, 969.00
1358, 968.00
1359, 967.00
1360, 967.00
1361, 966.00
1362, 966.00
1363, 965.00
1364, 965.00
1365, 965.00
1366, 964.00
1367, 964.00
1368, 963.00
1369, 962.00
1370, 962.00
1371, 962.00
1372, 962.00
1373, 961.00
1374, 961.00
1375, 961.00
1376, 961.00
1377, 959.00
1378, 959.00
1379, 960.00
1380, 959.00
1381, 957.00
1382, 958.00
1383, 956.00
1384, 957.00
1385, 956.00
1386, 957.00
1387, 956.00
1388, 955.00
1389, 955.00
1390, 956.00
1391, 956.00
1392, 955.00
1393, 956.00
1394, 955.00
1395, 955.00
1396, 955.00
1397, 956.00
1398, 955.00
1399, 955.00
1400, 956.00
1401, 955.00
1402, 954.00
1403, 954.00
1404, 953.00
1405, 954.00
1406, 954.00
1407, 954.00
1408, 953.00
1409, 954.00
1410, 955.00
1411, 955.00
1412, 955.00
1413, 955.00
1414, 954.00
1415, 955.00
1416, 955.00
1417, 954.00
1418, 955.00
1419, 954.00
1420, 955.00
1421, 955.00
1422, 955.00
1423, 954.00
1424, 955.00
1425, 956.00
1426, 955.00
1427, 954.00
1428, 956.00
1429, 956.00
1430, 956.00
1431, 957.00
1432, 957.00
1433, 956.00
1434, 957.00
1435, 957.00
1436, 958.00
1437, 958.00
1438, 957.00
1439, 959.00
1440, 958.00
1441, 959.00
1442, 959.00
1443, 959.00
1444, 959.00
1445, 959.00
1446, 960.00
1447, 960.00
1448, 961.00
1449, 961.00
1450, 962.00
1451, 962.00
1452, 963.00
1453, 963.00
1454, 963.00
1455, 963.00
1456, 963.00
1457, 965.00
1458, 964.00
1459, 964.00
1460, 965.00
1461, 965.00
1462, 965.00
1463, 965.00
1464, 967.00
1465, 968.00
1466, 968.00
1467, 969.00
1468, 969.00
1469, 968.00
1470, 969.00
1471, 970.00
1472, 971.00
1473, 971.00
1474, 971.00
1475, 971.00
1476, 972.00
1477, 973.00
1478, 974.00
1479, 973.00
1480, 975.00
1481, 976.00
1482, 976.00
1483, 976.00
1484, 977.00
1485, 978.00
1486, 978.00
1487, 979.00
1488, 979.00
1489, 980.00
1490, 981.00
1491, 981.00
1492, 981.00
1493, 982.00
1494, 983.00
1495, 983.00
1496, 984.00
1497, 985.00
1498, 984.00
1499, 986.00
1500, 986.00
1501, 986.00
1502, 987.00
1503, 987.00
1504, 988.00
1505, 989.00
1506, 990.00
1507, 990.00
1508, 991.00
1509, 992.00
1510, 992.00
1511, 992.00
1512, 994.00
1513, 994.00
1514, 994.00
1515, 995.00
1516, 997.00
1517, 997.00
1518, 997.00
1519, 998.00
1520, 998.00
1521, 999.00
1522, 1000.00
1523, 1000.00
1524, 1001.00
1525, 1002.00
1526, 1001.00
1527, 1002.00
1528, 1003.00
1529, 1005.00
1530, 1006.00
1531, 1005.00
1532, 1006.00
1533, 1006.00
1534, 1008.00
1535, 1009.00
1536, 1010.00
1537, 1011.00
1538, 1011.00
1539, 1011.00
1540, 1013.00
1541, 1014.00
1542, 1013.00
1543, 1013.00
1544, 1015.00
1545, 1015.00
1546, 1016.00
1547, 1017.00
1548, 1017.00
1549, 1018.00
1550, 1019.00
1551, 1019.00
1552, 1019.00
1553, 1021.00
1554, 1022.00
1555, 1022.00
1556, 1022.00
1557, 1024.00
1558, 1025.00
1559, 1026.00
1560, 1026.00
1561, 1027.00
1562, 1028.00
1563, 1028.00
1564, 1029.00
1565, 1030.00
1566, 1030.00
1567, 1031.00
1568, 1031.00
1569, 1032.00
1570, 1032.00
1571, 1034.00
1572, 1035.00
1573, 1036.00
1574, 1036.00
1575, 1036.00
1576, 1037.00
1577, 1037.00
1578, 1039.00
1579, 1039.00
1580, 1040.00
1581, 1041.00
1582, 1041.00
1583, 1042.00
1584, 1042.00
1585, 1043.00
1586, 1044.00
1587, 1044.00
1588, 1045.00
1589, 1045.00
1590, 1046.00
1591, 1047.00
1592, 1048.00
1593, 1048.00
1594, 1048.00
1595, 1051.00
1596, 1050.00
1597, 1050.00
1598, 1052.00
1599, 1053.00
1600, 1054.00
1601, 1054.00
1602, 1055.00
1603, 1056.00
1604, 1055.00
1605, 1057.00
1606, 1057.00
1607, 1058.00
1608, 1059.00
1609, 1060.00
1610, 1060.00
1611, 1062.00
1612, 1062.00
1613, 1064.00
1614, 1065.00
1615, 1065.00
1616, 1067.00
1617, 1067.00
1618, 1067.00
1619, 1069.00
1620, 1069.00
1621, 1070.00
1622, 1071.00
1623, 1071.00
1624, 1073.00
1625, 1073.00
1626, 1075.00
1627, 1076.00
1628, 1077.00
1629, 1077.00
1630, 1078.00
1631, 1079.00
1632, 1080.00
1633, 1080.00
1634, 1081.00
1635, 1082.00
1636, 1082.00
1637, 1084.00
1638, 1084.00
1639, 1085.00
1640, 1085.00
1641, 1087.00
1642, 1087.00
1643, 1088.00
1644, 1088.00
1645, 1089.00
1646, 1090.00
1647, 1089.00
1648, 1091.00
1649, 1092.00
1650, 1093.00

1750, 1516.00
1751, 1514.00
1752, 1514.00
1753, 1515.00
1754, 1514.00
1755, 1514.00
1756, 1518.00
1757, 1514.00
1758, 1513.00
1759, 1515.00
1760, 1515.00
1761, 1515.00
1762, 1515.00
1763, 1514.00
1764, 1515.00
1765, 1515.00
1766, 1513.00
1767, 1512.00
1768, 1513.00
1769, 1514.00
1770, 1512.00
1771, 1516.00
1772, 1512.00
1773, 1514.00
1774, 1513.00
1775, 1514.00
1776, 1514.00
1777, 1512.00
1778, 1513.00
1779, 1513.00
1780, 1510.00
1781, 1513.00
1782, 1511.00
1783, 1512.00
1784, 1509.00
1785, 1509.00
1786, 1509.00
1787, 1511.00
1788, 1507.00
1789, 1510.00
1790, 1508.00
1791, 1509.00
1792, 1509.00
1793, 1509.00
1794, 1507.00
1795, 1507.00
1796, 1508.00
1797, 1506.00
1798, 1508.00
1799, 1507.00
1800, 1506.00
1801, 1506.00
1802, 1506.00
1803, 1504.00
1804, 1506.00
1805, 1504.00
1806, 1506.00
1807, 1505.00
1808, 1505.00
1809, 1505.00
1810, 1505.00
1811, 1505.00
1812, 1504.00
1813, 1503.00
1814, 1503.00
1815, 1503.00
1816, 1504.00
1817, 1502.00
1818, 1502.00
1819, 1503.00
1820, 1501.00
1821, 1501.00
1822, 1501.00
1823, 1500.00
1824, 1498.00
1825, 1500.00
1826, 1499.00
1827, 1501.00
1828, 1498.00
1829, 1497.00
1830, 1497.00
1831, 1496.00
1832, 1496.00
1833, 1494.00
1834, 1494.00
1835, 1491.00
1836, 1490.00
1837, 1492.00
1838, 1490.00
1839, 1488.00
1840, 1488.00
1841, 1486.00
1842, 1484.00
1843, 1484.00
1844, 1482.00
1845, 1482.00
1846, 1479.00
1847, 1479.00
1848, 1478.00
1849, 1475.00
1850, 1473.00
1851, 1476.00
1852, 1473.00
1853, 1472.00
1854, 1471.00
1855, 1468.00
1856, 1466.00
1857, 1463.00
1858, 1463.00
1859, 1462.00
1860, 1462.00
1861, 1461.00
1862, 1460.00
1863, 1456.00
1864, 1457.00
1865, 1454.00
1866, 1453.00
1867, 1455.00
1868, 1454.00
1869, 1450.00
1870, 1451.00
1871, 1450.00
1872, 1448.00
1873, 1447.00
1874, 1447.00
1875, 1447.00
1876, 1446.00
1877, 1445.00
1878, 1445.00
1879, 1444.00
1880, 1446.00
1881, 1442.00
1882, 1441.00
1883, 1442.00
1884, 1441.00
1885, 1440.00
1886, 1442.00
1887, 1441.00
1888, 1442.00
1889, 1440.00
1890, 1440.00
1891, 1439.00
1892, 1438.00
1893, 1439.00
1894, 1438.00
1895, 1437.00
1896, 1437.00
1897, 1438.00
1898, 1438.00
1899, 1437.00
1900, 1437.00
1901, 1437.00
1902, 1435.00
1903, 1437.00
1904, 1436.00
1905, 1435.00
1906, 1437.00
1907, 1436.00
1908, 1435.00
1909, 1438.00
1910, 1434.00
1911, 1437.00
1912, 1434.00
1913, 1435.00
1914, 1434.00
1915, 1435.00
1916, 1435.00
1917, 1434.00
1918, 1434.00
1919, 1435.00
1920, 1434.00
1921, 1435.00
1922, 1435.00
1923, 1435.00
1924, 1435.00
1925, 1434.00
1926, 1435.00
1927, 1435.00
1928, 1436.00
1929, 1434.00
1930, 1434.00
1931, 1436.00
1932, 1435.00
1933, 1438.00
1934, 1435.00
1935, 1436.00
1936, 1438.00
1937, 1437.00
1938, 1439.00
1939, 1437.00
1940, 1437.00
1941, 1438.00
1942, 1437.00
1943, 1438.00
1944, 1439.00
1945, 1437.00
1946, 1440.00
1947, 1439.00
1948, 1439.00
1949, 1440.00
1950, 1439.00
1951, 1441.00
1952, 1439.00
1953, 1441.00
1954, 1440.00
1955, 1442.00
1956, 1442.00
1957, 1442.00
1958, 1442.00
1959, 1443.00
1960, 1442.00
1961, 1443.00
1962, 1442.00
1963, 1442.00
1964, 1443.00
1965, 1445.00
1966, 1445.00
1967, 1444.00
1968, 1447.00
1969, 1443.00
1970, 1446.00
1971, 1445.00
1972, 1446.00
1973, 1447.00
1974, 1448.00
1975, 1449.00
1976, 1448.00
1977, 1449.00
1978, 1451.00
1979, 1449.00
1980, 1453.00
1981, 1451.00
1982, 1451.00
1983, 1452.00
1984, 1453.00
1985, 1453.00
1986, 1453.00
1987, 1454.00
1988, 1453.00
1989, 1454.00
1990, 1453.00
1991, 1455.00
1992, 1455.00
1993, 1455.00
1994, 1456.00
1995, 1456.00
1996, 1458.00
1997, 1456.00
1998, 1459.00
1999, 1458.00
2000, 1459.00
2001, 1458.00
2002, 1459.00
2003, 1461.00
2004, 1459.00
2005, 1460.00
2006, 1461.00
2007, 1461.00
2008, 1462.00
2009, 1461.00
2010, 1462.00
2011, 1463.00
2012, 1463.00
2013, 1465.00
2014, 1464.00
2015, 1463.00
2016, 1465.00
2017, 1463.00
2018, 1465.00
2019, 1464.00
2020, 1467.00
2021, 1466.00
2022, 1465.00
2023, 1467.00
2024, 1468.00
2025, 1470.00
2026, 1466.00
2027, 1468.00
2028, 1469.00
2029, 1469.00
2030, 1470.00
2031, 1469.00
2032, 1471.00
2033, 1469.00
2034, 1471.00
2035, 1471.00
2036, 1474.00
2037, 1474.00
2038, 1471.00
2039, 1473.00
2040, 1475.00
2041, 1475.00
2042, 1477.00
2043, 1476.00
2044, 1476.00
2045, 1477.00
2046, 1479.00
2047, 1478.00
2048, 1477.00
2049, 1481.00
2050, 1480.00
2051, 1481.00
2052, 1481.00
2053, 1482.00
2054, 1481.00
2055, 1481.00
2056, 1483.00
2057, 1485.00
2058, 1484.00
2059, 1485.00
2060, 1487.00
2061, 1485.00
2062, 1485.00
2063, 1487.00
2064, 1488.00
2065, 1488.00
2066, 1489.00
2067, 1490.00
2068, 1490.00
2069, 1490.00
2070, 1489.00
2071, 1492.00
2072, 1492.00
2073, 1493.00
2074, 1491.00
2075, 1494.00
2076, 1492.00
2077, 1495.00
2078, 1495.00
2079, 1498.00
2080, 1495.00
2081, 1496.00
2082, 1496.00
2083, 1497.00
2084, 1498.00
2085, 1498.00
2086, 1498.00
2087, 1499.00
2088, 1499.00
2089, 1500.00
2090, 1501.00
2091, 1501.00
2092, 1500.00
2093, 1502.00
2094, 1502.00
2095, 1501.00
2096, 1503.00
2097, 1504.00
2098, 1503.00
2099, 1503.00
2100, 1504.00
2101, 1506.00
2102, 1503.00
2103, 1505.00
2104, 1506.00
2105, 1505.00
2106, 1505.00
2107, 1505.00
2108, 1505.00
2109, 1506.00
2110, 1505.00
2111, 1505.00
2112, 1507.00
2113, 1507.00
2114, 1506.00
2115, 1507.00
2116, 1507.00
2117, 1508.00
2118, 1507.00
2119, 1508.00
2120, 1507.00
2121, 1510.00
2122, 1507.00
2123, 1508.00
2124, 1510.00
2125, 1509.00
2126, 1509.00
2127, 1512.00
2128, 1509.00
2129, 1510.00
2130, 1508.00
2131, 1511.00
2132, 1511.00
2133, 1512.00
2134, 1510.00
2135, 1511.00
2136, 1511.00
2137, 1513.00
2138, 1513.00
2139, 1513.00
2140, 1511.00
2141, 1510.00
2142, 1512.00
2143, 1512.00
2144, 1514.00
2145, 1513.00
2146, 1514.00
2147, 1515.00
2148, 1514.00
2149, 1514.00
2150, 1515.00
