FW version: 24
Log Version: 3.0.3

General Info:
       Command/Macro Performed,            Timestamp,             Device ID, COM Port, UART/I2C, Test Name, Host Major, Host Minor, Host Revision, Host Git Commit
            Single_measurement,  2023_07_11_12_07_08,       Insight2_F4_xxx,    USB-C,      USB,          ,          0,          1,             1,      4031237645

Show Spectrometer Status:
l0_version, f4_version, battery_perc, battery_mVolt, accelerometer_temp, accelerometer_x, accelerometer_y, accelerometer_z, compass_temp, compass_x, compass_y, compass_z, lamp_0, lamp_1, gain_0, gain_1
        17,         24,           53,          1918,               7072,           64584,            1348,           18772,            0,     65370,     65373,     18813,   2457,   2457,      1,      1

Temperature Statistic Info:
NTC AVG [°C], NTC2 AVG [°C]
      42.404,        42.040

Statistic Info:
M1:  num,      min,      max,   median,      AVG,      STD,M2:  num,      min,      max,   median,      AVG,      STD
     301,   954.00,  1094.00,   987.00,  1000.93,  43.5944,     401,  1435.00,  1517.00,  1479.00,  1477.36,  28.5124,

Measurements:
Wavelength, Data Amplitude
1350, 971.00
1351, 970.00
1352, 970.00
1353, 970.00
1354, 969.00
1355, 969.00
1356, 969.00
1357, 968.00
1358, 969.00
1359, 967.00
1360, 969.00
1361, 967.00
1362, 967.00
1363, 965.00
1364, 964.00
1365, 965.00
1366, 965.00
1367, 964.00
1368, 964.00
1369, 963.00
1370, 964.00
1371, 963.00
1372, 962.00
1373, 960.00
1374, 961.00
1375, 961.00
1376, 959.00
1377, 960.00
1378, 959.00
1379, 959.00
1380, 959.00
1381, 958.00
1382, 957.00
1383, 958.00
1384, 958.00
1385, 957.00
1386, 957.00
1387, 957.00
1388, 956.00
1389, 956.00
1390, 956.00
1391, 957.00
1392, 957.00
1393, 956.00
1394, 955.00
1395, 956.00
1396, 956.00
1397, 956.00
1398, 955.00
1399, 954.00
1400, 956.00
1401, 956.00
1402, 956.00
1403, 955.00
1404, 955.00
1405, 955.00
1406, 955.00
1407, 955.00
1408, 955.00
1409, 955.00
1410, 956.00
1411, 955.00
1412, 955.00
1413, 954.00
1414, 954.00
1415, 955.00
1416, 955.00
1417, 955.00
1418, 955.00
1419, 955.00
1420, 956.00
1421, 956.00
1422, 956.00
1423, 955.00
1424, 957.00
1425, 955.00
1426, 955.00
1427, 957.00
1428, 956.00
1429, 956.00
1430, 957.00
1431, 957.00
1432, 957.00
1433, 958.00
1434, 957.00
1435, 957.00
1436, 959.00
1437, 958.00
1438, 959.00
1439, 959.00
1440, 958.00
1441, 959.00
1442, 959.00
1443, 959.00
1444, 960.00
1445, 961.00
1446, 960.00
1447, 961.00
1448, 962.00
1449, 962.00
1450, 962.00
1451, 962.00
1452, 964.00
1453, 963.00
1454, 963.00
1455, 964.00
1456, 965.00
1457, 964.00
1458, 965.00
1459, 965.00
1460, 967.00
1461, 965.00
1462, 966.00
1463, 967.00
1464, 967.00
1465, 967.00
1466, 968.00
1467, 969.00
1468, 970.00
1469, 969.00
1470, 971.00
1471, 971.00
1472, 972.00
1473, 972.00
1474, 972.00
1475, 973.00
1476, 974.00
1477, 974.00
1478, 974.00
1479, 975.00
1480, 975.00
1481, 975.00
1482, 977.00
1483, 977.00
1484, 978.00
1485, 978.00
1486, 978.00
1487, 978.00
1488, 979.00
1489, 981.00
1490, 981.00
1491, 981.00
1492, 982.00
1493, 982.00
1494, 984.00
1495, 984.00
1496, 985.00
1497, 985.00
1498, 983.00
1499, 986.00
1500, 987.00
1501, 987.00
1502, 988.00
1503, 989.00
1504, 989.00
1505, 989.00
1506, 990.00
1507, 992.00
1508, 991.00
1509, 993.00
1510, 992.00
1511, 992.00
1512, 994.00
1513, 995.00
1514, 994.00
1515, 997.00
1516, 996.00
1517, 997.00
1518, 998.00
1519, 998.00
1520, 999.00
1521, 999.00
1522, 1001.00
1523, 1001.00
1524, 1001.00
1525, 1002.00
1526, 1003.00
1527, 1003.00
1528, 1004.00
1529, 1005.00
1530, 1005.00
1531, 1006.00
1532, 1007.00
1533, 1007.00
1534, 1009.00
1535, 1009.00
1536, 1010.00
1537, 1010.00
1538, 1012.00
1539, 1012.00
1540, 1012.00
1541, 1012.00
1542, 1014.00
1543, 1015.00
1544, 1015.00
1545, 1016.00
1546, 1017.00
1547, 1015.00
1548, 1018.00
1549, 1019.00
1550, 1019.00
1551, 1020.00
1552, 1021.00
1553, 1022.00
1554, 1022.00
1555, 1022.00
1556, 1024.00
1557, 1024.00
1558, 1024.00
1559, 1025.00
1560, 1026.00
1561, 1028.00
1562, 1028.00
1563, 1028.00
1564, 1029.00
1565, 1030.00
1566, 1032.00
1567, 1032.00
1568, 1032.00
1569, 1033.00
1570, 1034.00
1571, 1034.00
1572, 1035.00
1573, 1036.00
1574, 1037.00
1575, 1038.00
1576, 1038.00
1577, 1038.00
1578, 1040.00
1579, 1040.00
1580, 1041.00
1581, 1041.00
1582, 1041.00
1583, 1043.00
1584, 1043.00
1585, 1044.00
1586, 1044.00
1587, 1045.00
1588, 1046.00
1589, 1047.00
1590, 1047.00
1591, 1048.00
1592, 1049.00
1593, 1049.00
1594, 1049.00
1595, 1050.00
1596, 1052.00
1597, 1051.00
1598, 1052.00
1599, 1053.00
1600, 1053.00
1601, 1055.00
1602, 1054.00
1603, 1056.00
1604, 1057.00
1605, 1058.00
1606, 1059.00
1607, 1060.00
1608, 1059.00
1609, 1061.00
1610, 1062.00
1611, 1063.00
1612, 1063.00
1613, 1064.00
1614, 1064.00
1615, 1066.00
1616, 1067.00
1617, 1067.00
1618, 1069.00
1619, 1069.00
1620, 1070.00
1621, 1071.00
1622, 1072.00
1623, 1073.00
1624, 1073.00
1625, 1074.00
1626, 1075.00
1627, 1075.00
1628, 1077.00
1629, 1079.00
1630, 1079.00
1631, 1080.00
1632, 1079.00
1633, 1081.00
1634, 1082.00
1635, 1082.00
1636, 1084.00
1637, 1084.00
1638, 1084.00
1639, 1085.00
1640, 1087.00
1641, 1088.00
1642, 1088.00
1643, 1088.00
1644, 1088.00
1645, 1090.00
1646, 1091.00
1647, 1091.00
1648, 1092.00
1649, 1093.00
1650, 1094.00

1750, 1515.00
1751, 1516.00
1752, 1517.00
1753, 1516.00
1754, 1514.00
1755, 1517.00
1756, 1515.00
1757, 1516.00
1758, 1517.00
1759, 1516.00
1760, 1516.00
1761, 1516.00
1762, 1516.00
1763, 1514.00
1764, 1515.00
1765, 1516.00
1766, 1514.00
1767, 1513.00
1768, 1514.00
1769, 1515.00
1770, 1514.00
1771, 1515.00
1772, 1512.00
1773, 1514.00
1774, 1511.00
1775, 1514.00
1776, 1513.00
1777, 1513.00
1778, 1511.00
1779, 1511.00
1780, 1512.00
1781, 1512.00
1782, 1510.00
1783, 1510.00
1784, 1511.00
1785, 1511.00
1786, 1509.00
1787, 1510.00
1788, 1510.00
1789, 1510.00
1790, 1509.00
1791, 1510.00
1792, 1508.00
1793, 1509.00
1794, 1508.00
1795, 1507.00
1796, 1508.00
1797, 1507.00
1798, 1507.00
1799, 1508.00
1800, 1507.00
1801, 1505.00
1802, 1506.00
1803, 1507.00
1804, 1505.00
1805, 1507.00
1806, 1507.00
1807, 1506.00
1808, 1506.00
1809, 1505.00
1810, 1505.00
1811, 1505.00
1812, 1505.00
1813, 1503.00
1814, 1505.00
1815, 1504.00
1816, 1504.00
1817, 1503.00
1818, 1502.00
1819, 1502.00
1820, 1502.00
1821, 1502.00
1822, 1500.00
1823, 1500.00
1824, 1501.00
1825, 1500.00
1826, 1500.00
1827, 1498.00
1828, 1498.00
1829, 1497.00
1830, 1497.00
1831, 1495.00
1832, 1497.00
1833, 1494.00
1834, 1495.00
1835, 1493.00
1836, 1491.00
1837, 1491.00
1838, 1491.00
1839, 1489.00
1840, 1487.00
1841, 1487.00
1842, 1486.00
1843, 1485.00
1844, 1484.00
1845, 1480.00
1846, 1479.00
1847, 1479.00
1848, 1481.00
1849, 1476.00
1850, 1475.00
1851, 1476.00
1852, 1472.00
1853, 1473.00
1854, 1471.00
1855, 1470.00
1856, 1466.00
1857, 1465.00
1858, 1465.00
1859, 1464.00
1860, 1462.00
1861, 1460.00
1862, 1462.00
1863, 1458.00
1864, 1457.00
1865, 1456.00
1866, 1455.00
1867, 1452.00
1868, 1452.00
1869, 1452.00
1870, 1450.00
1871, 1450.00
1872, 1448.00
1873, 1449.00
1874, 1448.00
1875, 1447.00
1876, 1446.00
1877, 1444.00
1878, 1446.00
1879, 1443.00
1880, 1443.00
1881, 1444.00
1882, 1446.00
1883, 1441.00
1884, 1444.00
1885, 1440.00
1886, 1441.00
1887, 1439.00
1888, 1440.00
1889, 1441.00
1890, 1439.00
1891, 1440.00
1892, 1439.00
1893, 1438.00
1894, 1441.00
1895, 1439.00
1896, 1439.00
1897, 1440.00
1898, 1439.00
1899, 1439.00
1900, 1437.00
1901, 1438.00
1902, 1438.00
1903, 1438.00
1904, 1436.00
1905, 1437.00
1906, 1437.00
1907, 1438.00
1908, 1436.00
1909, 1436.00
1910, 1437.00
1911, 1438.00
1912, 1435.00
1913, 1436.00
1914, 1437.00
1915, 1437.00
1916, 1435.00
1917, 1436.00
1918, 1435.00
1919, 1436.00
1920, 1436.00
1921, 1436.00
1922, 1436.00
1923, 1437.00
1924, 1437.00
1925, 1437.00
1926, 1437.00
1927, 1436.00
1928, 1438.00
1929, 1437.00
1930, 1437.00
1931, 1437.00
1932, 1435.00
1933, 1437.00
1934, 1437.00
1935, 1438.00
1936, 1437.00
1937, 1439.00
1938, 1438.00
1939, 1437.00
1940, 1440.00
1941, 1439.00
1942, 1436.00
1943, 1439.00
1944, 1440.00
1945, 1440.00
1946, 1439.00
1947, 1440.00
1948, 1439.00
1949, 1441.00
1950, 1439.00
1951, 1441.00
1952, 1441.00
1953, 1438.00
1954, 1441.00
1955, 1442.00
1956, 1439.00
1957, 1443.00
1958, 1442.00
1959, 1443.00
1960, 1442.00
1961, 1443.00
1962, 1444.00
1963, 1444.00
1964, 1445.00
1965, 1446.00
1966, 1447.00
1967, 1444.00
1968, 1446.00
1969, 1447.00
1970, 1444.00
1971, 1448.00
1972, 1448.00
1973, 1448.00
1974, 1448.00
1975, 1449.00
1976, 1449.00
1977, 1450.00
1978, 1449.00
1979, 1450.00
1980, 1450.00
1981, 1451.00
1982, 1452.00
1983, 1452.00
1984, 1452.00
1985, 1452.00
1986, 1453.00
1987, 1454.00
1988, 1455.00
1989, 1456.00
1990, 1454.00
1991, 1456.00
1992, 1455.00
1993, 1456.00
1994, 1458.00
1995, 1457.00
1996, 1459.00
1997, 1457.00
1998, 1458.00
1999, 1458.00
2000, 1459.00
2001, 1460.00
2002, 1461.00
2003, 1460.00
2004, 1461.00
2005, 1461.00
2006, 1460.00
2007, 1462.00
2008, 1462.00
2009, 1462.00
2010, 1463.00
2011, 1463.00
2012, 1463.00
2013, 1464.00
2014, 1464.00
2015, 1465.00
2016, 1465.00
2017, 1467.00
2018, 1465.00
2019, 1465.00
2020, 1467.00
2021, 1464.00
2022, 1468.00
2023, 1469.00
2024, 1468.00
2025, 1469.00
2026, 1467.00
2027, 1469.00
2028, 1470.00
2029, 1469.00
2030, 1470.00
2031, 1470.00
2032, 1473.00
2033, 1471.00
2034, 1470.00
2035, 1472.00
2036, 1474.00
2037, 1472.00
2038, 1475.00
2039, 1474.00
2040, 1476.00
2041, 1474.00
2042, 1478.00
2043, 1476.00
2044, 1477.00
2045, 1478.00
2046, 1478.00
2047, 1477.00
2048, 1481.00
2049, 1481.00
2050, 1479.00
2051, 1482.00
2052, 1482.00
2053, 1483.00
2054, 1483.00
2055, 1484.00
2056, 1485.00
2057, 1485.00
2058, 1485.00
2059, 1485.00
2060, 1486.00
2061, 1486.00
2062, 1486.00
2063, 1488.00
2064, 1490.00
2065, 1489.00
2066, 1490.00
2067, 1492.00
2068, 1491.00
2069, 1492.00
2070, 1492.00
2071, 1493.00
2072, 1493.00
2073, 1492.00
2074, 1492.00
2075, 1495.00
2076, 1495.00
2077, 1496.00
2078, 1496.00
2079, 1496.00
2080, 1496.00
2081, 1498.00
2082, 1497.00
2083, 1498.00
2084, 1497.00
2085, 1499.00
2086, 1498.00
2087, 1500.00
2088, 1501.00
2089, 1500.00
2090, 1501.00
2091, 1501.00
2092, 1503.00
2093, 1501.00
2094, 1502.00
2095, 1502.00
2096, 1503.00
2097, 1502.00
2098, 1503.00
2099, 1504.00
2100, 1505.00
2101, 1505.00
2102, 1506.00
2103, 1505.00
2104, 1506.00
2105, 1505.00
2106, 1504.00
2107, 1505.00
2108, 1506.00
2109, 1506.00
2110, 1507.00
2111, 1507.00
2112, 1506.00
2113, 1508.00
2114, 1507.00
2115, 1507.00
2116, 1509.00
2117, 1508.00
2118, 1509.00
2119, 1508.00
2120, 1509.00
2121, 1511.00
2122, 1508.00
2123, 1511.00
2124, 1509.00
2125, 1511.00
2126, 1509.00
2127, 1511.00
2128, 1509.00
2129, 1510.00
2130, 1511.00
2131, 1512.00
2132, 1511.00
2133, 1512.00
2134, 1511.00
2135, 1511.00
2136, 1514.00
2137, 1511.00
2138, 1513.00
2139, 1513.00
2140, 1514.00
2141, 1513.00
2142, 1515.00
2143, 1513.00
2144, 1513.00
2145, 1514.00
2146, 1515.00
2147, 1514.00
2148, 1515.00
2149, 1515.00
2150, 1514.00
