FW version: 24
Log Version: 3.0.3

General Info:
       Command/Macro Performed,            Timestamp,             Device ID, COM Port, UART/I2C, Test Name, Host Major, Host Minor, Host Revision, Host Git Commit
            Single_measurement,  2023_07_11_12_07_36,       Insight2_F4_xxx,    USB-C,      USB,          ,          0,          1,             1,      4031237645

Show Spectrometer Status:
l0_version, f4_version, battery_perc, battery_mVolt, accelerometer_temp, accelerometer_x, accelerometer_y, accelerometer_z, compass_temp, compass_x, compass_y, compass_z, lamp_0, lamp_1, gain_0, gain_1
        17,         24,           53,          1914,               7056,           64584,            1380,           18808,            0,     65368,     65398,     18941,   2866,   2866,      1,      1

Temperature Statistic Info:
NTC AVG [°C], NTC2 AVG [°C]
      42.584,        42.222

Statistic Info:
M1:  num,      min,      max,   median,      AVG,      STD,M2:  num,      min,      max,   median,      AVG,      STD
     301,  1282.00,  1462.00,  1323.00,  1341.89,  55.7877,     401,  1849.00,  1955.00,  1905.00,  1903.70,  36.0216,

Measurements:
Wavelength, Data Amplitude
1350, 1305.00
1351, 1304.00
1352, 1304.00
1353, 1304.00
1354, 1303.00
1355, 1303.00
1356, 1303.00
1357, 1301.00
1358, 1302.00
1359, 1301.00
1360, 1300.00
1361, 1299.00
1362, 1299.00
1363, 1299.00
1364, 1298.00
1365, 1298.00
1366, 1296.00
1367, 1297.00
1368, 1295.00
1369, 1295.00
1370, 1295.00
1371, 1294.00
1372, 1292.00
1373, 1291.00
1374, 1292.00
1375, 1292.00
1376, 1290.00
1377, 1290.00
1378, 1289.00
1379, 1289.00
1380, 1289.00
1381, 1288.00
1382, 1288.00
1383, 1287.00
1384, 1286.00
1385, 1286.00
1386, 1285.00
1387, 1286.00
1388, 1286.00
1389, 1285.00
1390, 1285.00
1391, 1285.00
1392, 1286.00
1393, 1285.00
1394, 1285.00
1395, 1284.00
1396, 1284.00
1397, 1284.00
1398, 1284.00
1399, 1284.00
1400, 1284.00
1401, 1283.00
1402, 1283.00
1403, 1283.00
1404, 1284.00
1405, 1284.00
1406, 1282.00
1407, 1283.00
1408, 1283.00
1409, 1283.00
1410, 1283.00
1411, 1282.00
1412, 1284.00
1413, 1283.00
1414, 1283.00
1415, 1284.00
1416, 1283.00
1417, 1284.00
1418, 1284.00
1419, 1284.00
1420, 1284.00
1421, 1284.00
1422, 1283.00
1423, 1285.00
1424, 1285.00
1425, 1285.00
1426, 1284.00
1427, 1284.00
1428, 1284.00
1429, 1285.00
1430, 1285.00
1431, 1285.00
1432, 1286.00
1433, 1286.00
1434, 1287.00
1435, 1286.00
1436, 1287.00
1437, 1287.00
1438, 1286.00
1439, 1287.00
1440, 1289.00
1441, 1287.00
1442, 1290.00
1443, 1288.00
1444, 1290.00
1445, 1290.00
1446, 1290.00
1447, 1291.00
1448, 1291.00
1449, 1291.00
1450, 1291.00
1451, 1292.00
1452, 1292.00
1453, 1292.00
1454, 1293.00
1455, 1295.00
1456, 1295.00
1457, 1295.00
1458, 1296.00
1459, 1296.00
1460, 1297.00
1461, 1297.00
1462, 1297.00
1463, 1299.00
1464, 1299.00
1465, 1300.00
1466, 1300.00
1467, 1300.00
1468, 1300.00
1469, 1302.00
1470, 1302.00
1471, 1302.00
1472, 1303.00
1473, 1303.00
1474, 1305.00
1475, 1306.00
1476, 1305.00
1477, 1307.00
1478, 1307.00
1479, 1307.00
1480, 1308.00
1481, 1309.00
1482, 1310.00
1483, 1312.00
1484, 1311.00
1485, 1312.00
1486, 1313.00
1487, 1313.00
1488, 1314.00
1489, 1315.00
1490, 1317.00
1491, 1316.00
1492, 1317.00
1493, 1318.00
1494, 1319.00
1495, 1319.00
1496, 1320.00
1497, 1321.00
1498, 1321.00
1499, 1322.00
1500, 1323.00
1501, 1324.00
1502, 1325.00
1503, 1325.00
1504, 1325.00
1505, 1326.00
1506, 1327.00
1507, 1329.00
1508, 1330.00
1509, 1330.00
1510, 1330.00
1511, 1332.00
1512, 1332.00
1513, 1334.00
1514, 1333.00
1515, 1335.00
1516, 1335.00
1517, 1336.00
1518, 1337.00
1519, 1337.00
1520, 1338.00
1521, 1340.00
1522, 1340.00
1523, 1341.00
1524, 1342.00
1525, 1344.00
1526, 1344.00
1527, 1345.00
1528, 1345.00
1529, 1347.00
1530, 1347.00
1531, 1349.00
1532, 1349.00
1533, 1349.00
1534, 1351.00
1535, 1351.00
1536, 1352.00
1537, 1354.00
1538, 1354.00
1539, 1355.00
1540, 1357.00
1541, 1357.00
1542, 1357.00
1543, 1359.00
1544, 1359.00
1545, 1361.00
1546, 1361.00
1547, 1362.00
1548, 1363.00
1549, 1364.00
1550, 1365.00
1551, 1366.00
1552, 1365.00
1553, 1367.00
1554, 1368.00
1555, 1369.00
1556, 1370.00
1557, 1371.00
1558, 1372.00
1559, 1373.00
1560, 1375.00
1561, 1375.00
1562, 1376.00
1563, 1378.00
1564, 1378.00
1565, 1379.00
1566, 1380.00
1567, 1381.00
1568, 1381.00
1569, 1382.00
1570, 1384.00
1571, 1385.00
1572, 1387.00
1573, 1387.00
1574, 1388.00
1575, 1389.00
1576, 1390.00
1577, 1390.00
1578, 1392.00
1579, 1392.00
1580, 1393.00
1581, 1393.00
1582, 1394.00
1583, 1395.00
1584, 1397.00
1585, 1397.00
1586, 1398.00
1587, 1398.00
1588, 1400.00
1589, 1400.00
1590, 1401.00
1591, 1402.00
1592, 1402.00
1593, 1403.00
1594, 1404.00
1595, 1405.00
1596, 1406.00
1597, 1407.00
1598, 1408.00
1599, 1408.00
1600, 1409.00
1601, 1410.00
1602, 1412.00
1603, 1413.00
1604, 1413.00
1605, 1414.00
1606, 1415.00
1607, 1417.00
1608, 1417.00
1609, 1418.00
1610, 1420.00
1611, 1422.00
1612, 1422.00
1613, 1423.00
1614, 1423.00
1615, 1425.00
1616, 1426.00
1617, 1427.00
1618, 1429.00
1619, 1429.00
1620, 1431.00
1621, 1432.00
1622, 1433.00
1623, 1433.00
1624, 1435.00
1625, 1437.00
1626, 1438.00
1627, 1438.00
1628, 1439.00
1629, 1441.00
1630, 1442.00
1631, 1443.00
1632, 1443.00
1633, 1446.00
1634, 1445.00
1635, 1445.00
1636, 1448.00
1637, 1449.00
1638, 1449.00
1639, 1451.00
1640, 1452.00
1641, 1452.00
1642, 1454.00
1643, 1454.00
1644, 1454.00
1645, 1456.00
1646, 1457.00
1647, 1458.00
1648, 1458.00
1649, 1461.00
1650, 1462.00

1750, 1955.00
1751, 1955.00
1752, 1955.00
1753, 1952.00
1754, 1954.00
1755, 1954.00
1756, 1955.00
1757, 1954.00
1758, 1954.00
1759, 1955.00
1760, 1953.00
1761, 1954.00
1762, 1954.00
1763, 1953.00
1764, 1954.00
1765, 1953.00
1766, 1953.00
1767, 1953.00
1768, 1953.00
1769, 1954.00
1770, 1953.00
1771, 1951.00
1772, 1953.00
1773, 1950.00
1774, 1951.00
1775, 1951.00
1776, 1951.00
1777, 1951.00
1778, 1951.00
1779, 1950.00
1780, 1951.00
1781, 1948.00
1782, 1947.00
1783, 1949.00
1784, 1949.00
1785, 1947.00
1786, 1948.00
1787, 1945.00
1788, 1947.00
1789, 1948.00
1790, 1944.00
1791, 1945.00
1792, 1944.00
1793, 1945.00
1794, 1945.00
1795, 1943.00
1796, 1943.00
1797, 1943.00
1798, 1942.00
1799, 1942.00
1800, 1942.00
1801, 1943.00
1802, 1942.00
1803, 1941.00
1804, 1941.00
1805, 1941.00
1806, 1939.00
1807, 1941.00
1808, 1940.00
1809, 1939.00
1810, 1940.00
1811, 1938.00
1812, 1938.00
1813, 1937.00
1814, 1939.00
1815, 1940.00
1816, 1938.00
1817, 1938.00
1818, 1937.00
1819, 1938.00
1820, 1937.00
1821, 1936.00
1822, 1935.00
1823, 1934.00
1824, 1936.00
1825, 1933.00
1826, 1933.00
1827, 1930.00
1828, 1931.00
1829, 1930.00
1830, 1928.00
1831, 1929.00
1832, 1927.00
1833, 1926.00
1834, 1925.00
1835, 1924.00
1836, 1922.00
1837, 1919.00
1838, 1920.00
1839, 1919.00
1840, 1917.00
1841, 1917.00
1842, 1913.00
1843, 1911.00
1844, 1912.00
1845, 1912.00
1846, 1907.00
1847, 1906.00
1848, 1905.00
1849, 1903.00
1850, 1901.00
1851, 1900.00
1852, 1899.00
1853, 1897.00
1854, 1894.00
1855, 1893.00
1856, 1891.00
1857, 1890.00
1858, 1888.00
1859, 1886.00
1860, 1886.00
1861, 1883.00
1862, 1883.00
1863, 1881.00
1864, 1879.00
1865, 1877.00
1866, 1877.00
1867, 1873.00
1868, 1873.00
1869, 1872.00
1870, 1871.00
1871, 1869.00
1872, 1869.00
1873, 1868.00
1874, 1866.00
1875, 1865.00
1876, 1865.00
1877, 1863.00
1878, 1863.00
1879, 1862.00
1880, 1863.00
1881, 1863.00
1882, 1861.00
1883, 1860.00
1884, 1860.00
1885, 1858.00
1886, 1857.00
1887, 1855.00
1888, 1859.00
1889, 1856.00
1890, 1857.00
1891, 1856.00
1892, 1858.00
1893, 1854.00
1894, 1854.00
1895, 1854.00
1896, 1855.00
1897, 1854.00
1898, 1853.00
1899, 1854.00
1900, 1853.00
1901, 1855.00
1902, 1855.00
1903, 1852.00
1904, 1853.00
1905, 1852.00
1906, 1852.00
1907, 1853.00
1908, 1853.00
1909, 1853.00
1910, 1852.00
1911, 1852.00
1912, 1853.00
1913, 1853.00
1914, 1850.00
1915, 1852.00
1916, 1853.00
1917, 1851.00
1918, 1851.00
1919, 1849.00
1920, 1850.00
1921, 1850.00
1922, 1853.00
1923, 1853.00
1924, 1850.00
1925, 1852.00
1926, 1850.00
1927, 1852.00
1928, 1851.00
1929, 1853.00
1930, 1852.00
1931, 1853.00
1932, 1851.00
1933, 1855.00
1934, 1854.00
1935, 1851.00
1936, 1855.00
1937, 1855.00
1938, 1853.00
1939, 1852.00
1940, 1853.00
1941, 1856.00
1942, 1854.00
1943, 1855.00
1944, 1855.00
1945, 1854.00
1946, 1856.00
1947, 1855.00
1948, 1857.00
1949, 1857.00
1950, 1858.00
1951, 1857.00
1952, 1856.00
1953, 1857.00
1954, 1860.00
1955, 1858.00
1956, 1857.00
1957, 1859.00
1958, 1861.00
1959, 1860.00
1960, 1859.00
1961, 1863.00
1962, 1863.00
1963, 1861.00
1964, 1861.00
1965, 1864.00
1966, 1863.00
1967, 1865.00
1968, 1866.00
1969, 1863.00
1970, 1866.00
1971, 1867.00
1972, 1867.00
1973, 1867.00
1974, 1869.00
1975, 1869.00
1976, 1869.00
1977, 1869.00
1978, 1868.00
1979, 1867.00
1980, 1871.00
1981, 1871.00
1982, 1872.00
1983, 1872.00
1984, 1874.00
1985, 1874.00
1986, 1874.00
1987, 1874.00
1988, 1876.00
1989, 1876.00
1990, 1877.00
1991, 1876.00
1992, 1877.00
1993, 1878.00
1994, 1878.00
1995, 1880.00
1996, 1879.00
1997, 1879.00
1998, 1878.00
1999, 1881.00
2000, 1879.00
2001, 1880.00
2002, 1882.00
2003, 1882.00
2004, 1883.00
2005, 1882.00
2006, 1884.00
2007, 1884.00
2008, 1885.00
2009, 1886.00
2010, 1884.00
2011, 1887.00
2012, 1885.00
2013, 1888.00
2014, 1886.00
2015, 1889.00
2016, 1886.00
2017, 1889.00
2018, 1889.00
2019, 1891.00
2020, 1889.00
2021, 1891.00
2022, 1889.00
2023, 1891.00
2024, 1893.00
2025, 1893.00
2026, 1893.00
2027, 1893.00
2028, 1893.00
2029, 1894.00
2030, 1895.00
2031, 1895.00
2032, 1895.00
2033, 1895.00
2034, 1896.00
2035, 1898.00
2036, 1898.00
2037, 1899.00
2038, 1898.00
2039, 1902.00
2040, 1898.00
2041, 1901.00
2042, 1903.00
2043, 1901.00
2044, 1902.00
2045, 1902.00
2046, 1904.00
2047, 1906.00
2048, 1905.00
2049, 1905.00
2050, 1906.00
2051, 1907.00
2052, 1908.00
2053, 1910.00
2054, 1910.00
2055, 1911.00
2056, 1911.00
2057, 1910.00
2058, 1914.00
2059, 1913.00
2060, 1912.00
2061, 1915.00
2062, 1916.00
2063, 1914.00
2064, 1915.00
2065, 1918.00
2066, 1918.00
2067, 1919.00
2068, 1918.00
2069, 1919.00
2070, 1920.00
2071, 1921.00
2072, 1923.00
2073, 1922.00
2074, 1922.00
2075, 1924.00
2076, 1924.00
2077, 1925.00
2078, 1927.00
2079, 1926.00
2080, 1926.00
2081, 1928.00
2082, 1925.00
2083, 1929.00
2084, 1928.00
2085, 1929.00
2086, 1930.00
2087, 1930.00
2088, 1933.00
2089, 1932.00
2090, 1933.00
2091, 1935.00
2092, 1933.00
2093, 1934.00
2094, 1934.00
2095, 1934.00
2096, 1935.00
2097, 1936.00
2098, 1934.00
2099, 1935.00
2100, 1936.00
2101, 1936.00
2102, 1935.00
2103, 1937.00
2104, 1938.00
2105, 1937.00
2106, 1939.00
2107, 1941.00
2108, 1939.00
2109, 1939.00
2110, 1938.00
2111, 1940.00
2112, 1939.00
2113, 1940.00
2114, 1940.00
2115, 1939.00
2116, 1941.00
2117, 1942.00
2118, 1938.00
2119, 1942.00
2120, 1943.00
2121, 1943.00
2122, 1942.00
2123, 1943.00
2124, 1944.00
2125, 1943.00
2126, 1943.00
2127, 1944.00
2128, 1943.00
2129, 1946.00
2130, 1943.00
2131, 1944.00
2132, 1943.00
2133, 1944.00
2134, 1944.00
2135, 1945.00
2136, 1947.00
2137, 1946.00
2138, 1946.00
2139, 1947.00
2140, 1947.00
2141, 1947.00
2142, 1949.00
2143, 1948.00
2144, 1948.00
2145, 1948.00
2146, 1946.00
2147, 1947.00
2148, 1949.00
2149, 1949.00
2150, 1949.00
