FW version: 24
Log Version: 3.0.3

General Info:
       Command/Macro Performed,            Timestamp,             Device ID, COM Port, UART/I2C, Test Name, Host Major, Host Minor, Host Revision, Host Git Commit
            Single_measurement,  2023_07_04_11_52_15,       Insight2_F4_xxx,    USB-C,      USB,          ,          0,          1,             1,      4031237645

Show Spectrometer Status:
l0_version, f4_version, battery_perc, battery_mVolt, accelerometer_temp, accelerometer_x, accelerometer_y, accelerometer_z, compass_temp, compass_x, compass_y, compass_z, lamp_0, lamp_1, gain_0, gain_1
        17,         24,           37,          1883,               6272,           65524,            2384,           19272,            0,     65533,     65401,     19293,   2457,   2457,      1,      1

Temperature Statistic Info:
NTC AVG [°C], NTC2 AVG [°C]
      38.882,        38.537

Statistic Info:
M1:  num,      min,      max,   median,      AVG,      STD,M2:  num,      min,      max,   median,      AVG,      STD
     301,   994.00,  1120.00,  1024.00,  1035.93,  39.2133,     401,  1480.00,  1555.00,  1519.00,  1517.89,  25.7137,

Measurements:
Wavelength, Data Amplitude
1350, 1007.00
1351, 1007.00
1352, 1007.00
1353, 1006.00
1354, 1005.00
1355, 1006.00
1356, 1006.00
1357, 1005.00
1358, 1006.00
1359, 1006.00
1360, 1005.00
1361, 1005.00
1362, 1004.00
1363, 1003.00
1364, 1003.00
1365, 1003.00
1366, 1003.00
1367, 1003.00
1368, 1002.00
1369, 1002.00
1370, 1002.00
1371, 1002.00
1372, 1001.00
1373, 1000.00
1374, 1001.00
1375, 1000.00
1376, 999.00
1377, 999.00
1378, 998.00
1379, 999.00
1380, 999.00
1381, 998.00
1382, 997.00
1383, 997.00
1384, 997.00
1385, 997.00
1386, 997.00
1387, 996.00
1388, 996.00
1389, 995.00
1390, 997.00
1391, 996.00
1392, 996.00
1393, 996.00
1394, 996.00
1395, 996.00
1396, 995.00
1397, 996.00
1398, 995.00
1399, 995.00
1400, 995.00
1401, 995.00
1402, 995.00
1403, 995.00
1404, 995.00
1405, 994.00
1406, 995.00
1407, 995.00
1408, 994.00
1409, 995.00
1410, 995.00
1411, 995.00
1412, 995.00
1413, 994.00
1414, 995.00
1415, 995.00
1416, 995.00
1417, 995.00
1418, 994.00
1419, 994.00
1420, 996.00
1421, 995.00
1422, 995.00
1423, 995.00
1424, 995.00
1425, 995.00
1426, 995.00
1427, 995.00
1428, 996.00
1429, 996.00
1430, 996.00
1431, 996.00
1432, 997.00
1433, 996.00
1434, 997.00
1435, 998.00
1436, 997.00
1437, 997.00
1438, 998.00
1439, 998.00
1440, 998.00
1441, 999.00
1442, 998.00
1443, 998.00
1444, 999.00
1445, 999.00
1446, 999.00
1447, 1000.00
1448, 1000.00
1449, 1001.00
1450, 1001.00
1451, 1001.00
1452, 1001.00
1453, 1002.00
1454, 1003.00
1455, 1002.00
1456, 1002.00
1457, 1003.00
1458, 1003.00
1459, 1003.00
1460, 1004.00
1461, 1005.00
1462, 1005.00
1463, 1005.00
1464, 1005.00
1465, 1006.00
1466, 1007.00
1467, 1007.00
1468, 1008.00
1469, 1008.00
1470, 1008.00
1471, 1008.00
1472, 1009.00
1473, 1009.00
1474, 1009.00
1475, 1010.00
1476, 1010.00
1477, 1011.00
1478, 1012.00
1479, 1013.00
1480, 1012.00
1481, 1014.00
1482, 1014.00
1483, 1015.00
1484, 1016.00
1485, 1015.00
1486, 1016.00
1487, 1016.00
1488, 1017.00
1489, 1017.00
1490, 1017.00
1491, 1019.00
1492, 1018.00
1493, 1019.00
1494, 1021.00
1495, 1020.00
1496, 1021.00
1497, 1022.00
1498, 1021.00
1499, 1022.00
1500, 1024.00
1501, 1024.00
1502, 1024.00
1503, 1025.00
1504, 1025.00
1505, 1026.00
1506, 1027.00
1507, 1027.00
1508, 1029.00
1509, 1028.00
1510, 1030.00
1511, 1031.00
1512, 1029.00
1513, 1029.00
1514, 1031.00
1515, 1032.00
1516, 1033.00
1517, 1033.00
1518, 1034.00
1519, 1033.00
1520, 1035.00
1521, 1036.00
1522, 1035.00
1523, 1037.00
1524, 1037.00
1525, 1038.00
1526, 1038.00
1527, 1040.00
1528, 1040.00
1529, 1041.00
1530, 1040.00
1531, 1042.00
1532, 1043.00
1533, 1042.00
1534, 1044.00
1535, 1044.00
1536, 1044.00
1537, 1046.00
1538, 1045.00
1539, 1046.00
1540, 1047.00
1541, 1047.00
1542, 1048.00
1543, 1048.00
1544, 1049.00
1545, 1050.00
1546, 1051.00
1547, 1051.00
1548, 1051.00
1549, 1053.00
1550, 1052.00
1551, 1054.00
1552, 1054.00
1553, 1054.00
1554, 1057.00
1555, 1056.00
1556, 1056.00
1557, 1057.00
1558, 1057.00
1559, 1058.00
1560, 1059.00
1561, 1060.00
1562, 1060.00
1563, 1061.00
1564, 1061.00
1565, 1062.00
1566, 1063.00
1567, 1063.00
1568, 1064.00
1569, 1064.00
1570, 1066.00
1571, 1066.00
1572, 1067.00
1573, 1068.00
1574, 1068.00
1575, 1069.00
1576, 1068.00
1577, 1069.00
1578, 1071.00
1579, 1070.00
1580, 1072.00
1581, 1072.00
1582, 1074.00
1583, 1074.00
1584, 1074.00
1585, 1074.00
1586, 1075.00
1587, 1075.00
1588, 1076.00
1589, 1077.00
1590, 1078.00
1591, 1078.00
1592, 1078.00
1593, 1079.00
1594, 1079.00
1595, 1080.00
1596, 1081.00
1597, 1081.00
1598, 1082.00
1599, 1082.00
1600, 1083.00
1601, 1083.00
1602, 1084.00
1603, 1085.00
1604, 1086.00
1605, 1086.00
1606, 1087.00
1607, 1088.00
1608, 1088.00
1609, 1089.00
1610, 1090.00
1611, 1090.00
1612, 1092.00
1613, 1092.00
1614, 1093.00
1615, 1095.00
1616, 1095.00
1617, 1095.00
1618, 1096.00
1619, 1097.00
1620, 1098.00
1621, 1100.00
1622, 1099.00
1623, 1101.00
1624, 1101.00
1625, 1101.00
1626, 1103.00
1627, 1103.00
1628, 1103.00
1629, 1105.00
1630, 1106.00
1631, 1107.00
1632, 1107.00
1633, 1108.00
1634, 1109.00
1635, 1109.00
1636, 1110.00
1637, 1110.00
1638, 1112.00
1639, 1112.00
1640, 1112.00
1641, 1114.00
1642, 1114.00
1643, 1115.00
1644, 1115.00
1645, 1116.00
1646, 1116.00
1647, 1118.00
1648, 1119.00
1649, 1119.00
1650, 1120.00

1750, 1554.00
1751, 1553.00
1752, 1552.00
1753, 1552.00
1754, 1551.00
1755, 1555.00
1756, 1552.00
1757, 1554.00
1758, 1553.00
1759, 1552.00
1760, 1552.00
1761, 1555.00
1762, 1555.00
1763, 1552.00
1764, 1553.00
1765, 1553.00
1766, 1552.00
1767, 1552.00
1768, 1553.00
1769, 1553.00
1770, 1554.00
1771, 1553.00
1772, 1553.00
1773, 1551.00
1774, 1553.00
1775, 1552.00
1776, 1551.00
1777, 1551.00
1778, 1550.00
1779, 1550.00
1780, 1549.00
1781, 1549.00
1782, 1550.00
1783, 1548.00
1784, 1548.00
1785, 1550.00
1786, 1549.00
1787, 1548.00
1788, 1548.00
1789, 1548.00
1790, 1549.00
1791, 1546.00
1792, 1549.00
1793, 1548.00
1794, 1549.00
1795, 1548.00
1796, 1546.00
1797, 1546.00
1798, 1547.00
1799, 1546.00
1800, 1547.00
1801, 1545.00
1802, 1545.00
1803, 1545.00
1804, 1545.00
1805, 1545.00
1806, 1544.00
1807, 1544.00
1808, 1544.00
1809, 1544.00
1810, 1544.00
1811, 1543.00
1812, 1545.00
1813, 1544.00
1814, 1543.00
1815, 1542.00
1816, 1543.00
1817, 1543.00
1818, 1542.00
1819, 1541.00
1820, 1542.00
1821, 1541.00
1822, 1542.00
1823, 1542.00
1824, 1538.00
1825, 1539.00
1826, 1539.00
1827, 1539.00
1828, 1537.00
1829, 1538.00
1830, 1535.00
1831, 1536.00
1832, 1535.00
1833, 1534.00
1834, 1534.00
1835, 1532.00
1836, 1534.00
1837, 1531.00
1838, 1532.00
1839, 1529.00
1840, 1530.00
1841, 1528.00
1842, 1527.00
1843, 1525.00
1844, 1524.00
1845, 1525.00
1846, 1524.00
1847, 1522.00
1848, 1521.00
1849, 1520.00
1850, 1518.00
1851, 1515.00
1852, 1516.00
1853, 1515.00
1854, 1513.00
1855, 1512.00
1856, 1510.00
1857, 1511.00
1858, 1508.00
1859, 1511.00
1860, 1506.00
1861, 1503.00
1862, 1503.00
1863, 1503.00
1864, 1501.00
1865, 1499.00
1866, 1499.00
1867, 1499.00
1868, 1498.00
1869, 1496.00
1870, 1496.00
1871, 1496.00
1872, 1496.00
1873, 1494.00
1874, 1494.00
1875, 1492.00
1876, 1491.00
1877, 1490.00
1878, 1492.00
1879, 1491.00
1880, 1490.00
1881, 1490.00
1882, 1489.00
1883, 1487.00
1884, 1488.00
1885, 1488.00
1886, 1487.00
1887, 1485.00
1888, 1486.00
1889, 1486.00
1890, 1485.00
1891, 1484.00
1892, 1486.00
1893, 1484.00
1894, 1482.00
1895, 1483.00
1896, 1484.00
1897, 1485.00
1898, 1484.00
1899, 1484.00
1900, 1483.00
1901, 1482.00
1902, 1482.00
1903, 1483.00
1904, 1483.00
1905, 1483.00
1906, 1480.00
1907, 1481.00
1908, 1484.00
1909, 1481.00
1910, 1481.00
1911, 1482.00
1912, 1482.00
1913, 1481.00
1914, 1482.00
1915, 1481.00
1916, 1481.00
1917, 1482.00
1918, 1481.00
1919, 1482.00
1920, 1483.00
1921, 1481.00
1922, 1482.00
1923, 1480.00
1924, 1481.00
1925, 1483.00
1926, 1482.00
1927, 1480.00
1928, 1481.00
1929, 1480.00
1930, 1481.00
1931, 1481.00
1932, 1480.00
1933, 1481.00
1934, 1481.00
1935, 1483.00
1936, 1482.00
1937, 1482.00
1938, 1481.00
1939, 1481.00
1940, 1482.00
1941, 1481.00
1942, 1483.00
1943, 1484.00
1944, 1481.00
1945, 1483.00
1946, 1484.00
1947, 1483.00
1948, 1483.00
1949, 1484.00
1950, 1484.00
1951, 1485.00
1952, 1484.00
1953, 1486.00
1954, 1486.00
1955, 1487.00
1956, 1485.00
1957, 1484.00
1958, 1486.00
1959, 1486.00
1960, 1486.00
1961, 1486.00
1962, 1487.00
1963, 1488.00
1964, 1487.00
1965, 1489.00
1966, 1488.00
1967, 1488.00
1968, 1488.00
1969, 1488.00
1970, 1489.00
1971, 1489.00
1972, 1490.00
1973, 1490.00
1974, 1493.00
1975, 1493.00
1976, 1493.00
1977, 1493.00
1978, 1493.00
1979, 1494.00
1980, 1494.00
1981, 1494.00
1982, 1494.00
1983, 1493.00
1984, 1495.00
1985, 1496.00
1986, 1495.00
1987, 1497.00
1988, 1497.00
1989, 1495.00
1990, 1499.00
1991, 1498.00
1992, 1497.00
1993, 1497.00
1994, 1499.00
1995, 1500.00
1996, 1499.00
1997, 1501.00
1998, 1498.00
1999, 1501.00
2000, 1499.00
2001, 1501.00
2002, 1500.00
2003, 1500.00
2004, 1499.00
2005, 1502.00
2006, 1501.00
2007, 1503.00
2008, 1503.00
2009, 1503.00
2010, 1501.00
2011, 1504.00
2012, 1505.00
2013, 1503.00
2014, 1504.00
2015, 1506.00
2016, 1506.00
2017, 1506.00
2018, 1507.00
2019, 1505.00
2020, 1507.00
2021, 1508.00
2022, 1509.00
2023, 1508.00
2024, 1508.00
2025, 1508.00
2026, 1509.00
2027, 1509.00
2028, 1508.00
2029, 1509.00
2030, 1510.00
2031, 1510.00
2032, 1511.00
2033, 1511.00
2034, 1512.00
2035, 1512.00
2036, 1512.00
2037, 1512.00
2038, 1515.00
2039, 1513.00
2040, 1513.00
2041, 1514.00
2042, 1516.00
2043, 1513.00
2044, 1517.00
2045, 1517.00
2046, 1518.00
2047, 1517.00
2048, 1519.00
2049, 1518.00
2050, 1519.00
2051, 1519.00
2052, 1521.00
2053, 1519.00
2054, 1523.00
2055, 1521.00
2056, 1521.00
2057, 1522.00
2058, 1523.00
2059, 1524.00
2060, 1525.00
2061, 1525.00
2062, 1525.00
2063, 1525.00
2064, 1527.00
2065, 1527.00
2066, 1525.00
2067, 1528.00
2068, 1527.00
2069, 1529.00
2070, 1529.00
2071, 1529.00
2072, 1530.00
2073, 1532.00
2074, 1532.00
2075, 1531.00
2076, 1532.00
2077, 1532.00
2078, 1533.00
2079, 1535.00
2080, 1533.00
2081, 1534.00
2082, 1535.00
2083, 1537.00
2084, 1536.00
2085, 1538.00
2086, 1537.00
2087, 1536.00
2088, 1538.00
2089, 1537.00
2090, 1540.00
2091, 1537.00
2092, 1540.00
2093, 1537.00
2094, 1539.00
2095, 1539.00
2096, 1540.00
2097, 1539.00
2098, 1542.00
2099, 1540.00
2100, 1541.00
2101, 1543.00
2102, 1540.00
2103, 1540.00
2104, 1544.00
2105, 1542.00
2106, 1545.00
2107, 1543.00
2108, 1543.00
2109, 1543.00
2110, 1544.00
2111, 1544.00
2112, 1545.00
2113, 1543.00
2114, 1545.00
2115, 1545.00
2116, 1545.00
2117, 1545.00
2118, 1545.00
2119, 1545.00
2120, 1546.00
2121, 1546.00
2122, 1545.00
2123, 1547.00
2124, 1544.00
2125, 1546.00
2126, 1548.00
2127, 1547.00
2128, 1547.00
2129, 1547.00
2130, 1546.00
2131, 1547.00
2132, 1548.00
2133, 1548.00
2134, 1548.00
2135, 1546.00
2136, 1548.00
2137, 1549.00
2138, 1550.00
2139, 1547.00
2140, 1548.00
2141, 1548.00
2142, 1549.00
2143, 1549.00
2144, 1549.00
2145, 1550.00
2146, 1551.00
2147, 1552.00
2148, 1551.00
2149, 1550.00
2150, 1550.00
