FW version: 24
Log Version: 3.0.3

General Info:
       Command/Macro Performed,            Timestamp,             Device ID, COM Port, UART/I2C, Test Name, Host Major, Host Minor, Host Revision, Host Git Commit
            Single_measurement,  2023_07_04_11_53_02,       Insight2_F4_xxx,    USB-C,      USB,          ,          0,          1,             1,      4031237645

Show Spectrometer Status:
l0_version, f4_version, battery_perc, battery_mVolt, accelerometer_temp, accelerometer_x, accelerometer_y, accelerometer_z, compass_temp, compass_x, compass_y, compass_z, lamp_0, lamp_1, gain_0, gain_1
        17,         24,           37,          1884,               6272,           65488,            2432,           19092,            0,     65502,     65446,     19156,   3276,   3276,      1,      1

Temperature Statistic Info:
NTC AVG [°C], NTC2 AVG [°C]
      39.205,        38.825

Statistic Info:
M1:  num,      min,      max,   median,      AVG,      STD,M2:  num,      min,      max,   median,      AVG,      STD
     301,  1720.00,  1920.00,  1765.00,  1786.45,  62.4446,     401,  2373.00,  2493.00,  2433.00,  2431.52,  40.1813,

Measurements:
Wavelength, Data Amplitude
1350, 1745.00
1351, 1745.00
1352, 1743.00
1353, 1744.00
1354, 1744.00
1355, 1743.00
1356, 1742.00
1357, 1742.00
1358, 1743.00
1359, 1741.00
1360, 1741.00
1361, 1741.00
1362, 1741.00
1363, 1739.00
1364, 1737.00
1365, 1738.00
1366, 1737.00
1367, 1737.00
1368, 1735.00
1369, 1735.00
1370, 1735.00
1371, 1735.00
1372, 1732.00
1373, 1732.00
1374, 1732.00
1375, 1731.00
1376, 1730.00
1377, 1731.00
1378, 1729.00
1379, 1728.00
1380, 1728.00
1381, 1728.00
1382, 1728.00
1383, 1726.00
1384, 1727.00
1385, 1725.00
1386, 1726.00
1387, 1725.00
1388, 1725.00
1389, 1724.00
1390, 1723.00
1391, 1723.00
1392, 1723.00
1393, 1723.00
1394, 1723.00
1395, 1723.00
1396, 1723.00
1397, 1722.00
1398, 1721.00
1399, 1722.00
1400, 1722.00
1401, 1721.00
1402, 1721.00
1403, 1721.00
1404, 1722.00
1405, 1722.00
1406, 1722.00
1407, 1720.00
1408, 1721.00
1409, 1721.00
1410, 1722.00
1411, 1720.00
1412, 1720.00
1413, 1721.00
1414, 1720.00
1415, 1720.00
1416, 1720.00
1417, 1720.00
1418, 1721.00
1419, 1721.00
1420, 1722.00
1421, 1721.00
1422, 1720.00
1423, 1721.00
1424, 1721.00
1425, 1721.00
1426, 1722.00
1427, 1721.00
1428, 1723.00
1429, 1722.00
1430, 1722.00
1431, 1723.00
1432, 1723.00
1433, 1725.00
1434, 1723.00
1435, 1724.00
1436, 1724.00
1437, 1724.00
1438, 1725.00
1439, 1725.00
1440, 1726.00
1441, 1725.00
1442, 1726.00
1443, 1727.00
1444, 1727.00
1445, 1727.00
1446, 1727.00
1447, 1729.00
1448, 1730.00
1449, 1730.00
1450, 1730.00
1451, 1731.00
1452, 1731.00
1453, 1732.00
1454, 1732.00
1455, 1732.00
1456, 1733.00
1457, 1733.00
1458, 1734.00
1459, 1735.00
1460, 1735.00
1461, 1735.00
1462, 1736.00
1463, 1737.00
1464, 1736.00
1465, 1737.00
1466, 1739.00
1467, 1739.00
1468, 1740.00
1469, 1741.00
1470, 1741.00
1471, 1742.00
1472, 1741.00
1473, 1743.00
1474, 1743.00
1475, 1745.00
1476, 1746.00
1477, 1746.00
1478, 1748.00
1479, 1748.00
1480, 1749.00
1481, 1749.00
1482, 1751.00
1483, 1751.00
1484, 1752.00
1485, 1753.00
1486, 1754.00
1487, 1755.00
1488, 1756.00
1489, 1756.00
1490, 1756.00
1491, 1758.00
1492, 1759.00
1493, 1759.00
1494, 1761.00
1495, 1762.00
1496, 1762.00
1497, 1762.00
1498, 1763.00
1499, 1765.00
1500, 1765.00
1501, 1767.00
1502, 1766.00
1503, 1768.00
1504, 1769.00
1505, 1770.00
1506, 1770.00
1507, 1770.00
1508, 1772.00
1509, 1773.00
1510, 1774.00
1511, 1775.00
1512, 1775.00
1513, 1776.00
1514, 1778.00
1515, 1778.00
1516, 1779.00
1517, 1781.00
1518, 1781.00
1519, 1782.00
1520, 1783.00
1521, 1784.00
1522, 1784.00
1523, 1786.00
1524, 1786.00
1525, 1788.00
1526, 1787.00
1527, 1790.00
1528, 1790.00
1529, 1791.00
1530, 1791.00
1531, 1793.00
1532, 1793.00
1533, 1796.00
1534, 1796.00
1535, 1796.00
1536, 1798.00
1537, 1799.00
1538, 1800.00
1539, 1801.00
1540, 1801.00
1541, 1803.00
1542, 1803.00
1543, 1804.00
1544, 1806.00
1545, 1807.00
1546, 1808.00
1547, 1808.00
1548, 1809.00
1549, 1811.00
1550, 1811.00
1551, 1813.00
1552, 1814.00
1553, 1814.00
1554, 1816.00
1555, 1816.00
1556, 1818.00
1557, 1817.00
1558, 1820.00
1559, 1821.00
1560, 1822.00
1561, 1824.00
1562, 1824.00
1563, 1826.00
1564, 1826.00
1565, 1827.00
1566, 1829.00
1567, 1829.00
1568, 1830.00
1569, 1832.00
1570, 1832.00
1571, 1833.00
1572, 1836.00
1573, 1836.00
1574, 1837.00
1575, 1838.00
1576, 1839.00
1577, 1841.00
1578, 1841.00
1579, 1842.00
1580, 1843.00
1581, 1844.00
1582, 1845.00
1583, 1847.00
1584, 1847.00
1585, 1848.00
1586, 1849.00
1587, 1850.00
1588, 1851.00
1589, 1851.00
1590, 1852.00
1591, 1852.00
1592, 1855.00
1593, 1856.00
1594, 1856.00
1595, 1857.00
1596, 1859.00
1597, 1859.00
1598, 1861.00
1599, 1861.00
1600, 1863.00
1601, 1863.00
1602, 1864.00
1603, 1865.00
1604, 1867.00
1605, 1868.00
1606, 1869.00
1607, 1870.00
1608, 1871.00
1609, 1874.00
1610, 1873.00
1611, 1875.00
1612, 1876.00
1613, 1877.00
1614, 1878.00
1615, 1879.00
1616, 1881.00
1617, 1881.00
1618, 1885.00
1619, 1885.00
1620, 1886.00
1621, 1887.00
1622, 1888.00
1623, 1890.00
1624, 1890.00
1625, 1893.00
1626, 1894.00
1627, 1894.00
1628, 1896.00
1629, 1897.00
1630, 1899.00
1631, 1899.00
1632, 1900.00
1633, 1902.00
1634, 1903.00
1635, 1904.00
1636, 1906.00
1637, 1907.00
1638, 1907.00
1639, 1910.00
1640, 1911.00
1641, 1910.00
1642, 1911.00
1643, 1913.00
1644, 1914.00
1645, 1915.00
1646, 1916.00
1647, 1917.00
1648, 1918.00
1649, 1919.00
1650, 1920.00

1750, 2490.00
1751, 2491.00
1752, 2492.00
1753, 2488.00
1754, 2490.00
1755, 2493.00
1756, 2491.00
1757, 2491.00
1758, 2491.00
1759, 2491.00
1760, 2491.00
1761, 2490.00
1762, 2491.00
1763, 2491.00
1764, 2490.00
1765, 2490.00
1766, 2490.00
1767, 2489.00
1768, 2489.00
1769, 2491.00
1770, 2489.00
1771, 2490.00
1772, 2489.00
1773, 2488.00
1774, 2488.00
1775, 2487.00
1776, 2487.00
1777, 2486.00
1778, 2486.00
1779, 2486.00
1780, 2486.00
1781, 2486.00
1782, 2485.00
1783, 2483.00
1784, 2486.00
1785, 2484.00
1786, 2483.00
1787, 2483.00
1788, 2481.00
1789, 2482.00
1790, 2483.00
1791, 2481.00
1792, 2480.00
1793, 2480.00
1794, 2480.00
1795, 2480.00
1796, 2479.00
1797, 2479.00
1798, 2478.00
1799, 2479.00
1800, 2479.00
1801, 2479.00
1802, 2475.00
1803, 2476.00
1804, 2477.00
1805, 2474.00
1806, 2476.00
1807, 2475.00
1808, 2475.00
1809, 2474.00
1810, 2475.00
1811, 2474.00
1812, 2473.00
1813, 2473.00
1814, 2473.00
1815, 2474.00
1816, 2471.00
1817, 2472.00
1818, 2472.00
1819, 2472.00
1820, 2469.00
1821, 2469.00
1822, 2469.00
1823, 2469.00
1824, 2468.00
1825, 2469.00
1826, 2466.00
1827, 2465.00
1828, 2463.00
1829, 2464.00
1830, 2463.00
1831, 2461.00
1832, 2460.00
1833, 2459.00
1834, 2457.00
1835, 2457.00
1836, 2456.00
1837, 2453.00
1838, 2453.00
1839, 2452.00
1840, 2449.00
1841, 2448.00
1842, 2446.00
1843, 2446.00
1844, 2443.00
1845, 2441.00
1846, 2440.00
1847, 2439.00
1848, 2435.00
1849, 2435.00
1850, 2433.00
1851, 2430.00
1852, 2429.00
1853, 2428.00
1854, 2425.00
1855, 2423.00
1856, 2421.00
1857, 2419.00
1858, 2417.00
1859, 2417.00
1860, 2415.00
1861, 2410.00
1862, 2409.00
1863, 2407.00
1864, 2407.00
1865, 2404.00
1866, 2405.00
1867, 2400.00
1868, 2400.00
1869, 2398.00
1870, 2398.00
1871, 2398.00
1872, 2397.00
1873, 2393.00
1874, 2394.00
1875, 2392.00
1876, 2391.00
1877, 2389.00
1878, 2390.00
1879, 2389.00
1880, 2388.00
1881, 2386.00
1882, 2387.00
1883, 2385.00
1884, 2386.00
1885, 2383.00
1886, 2384.00
1887, 2383.00
1888, 2381.00
1889, 2381.00
1890, 2381.00
1891, 2382.00
1892, 2381.00
1893, 2379.00
1894, 2380.00
1895, 2380.00
1896, 2381.00
1897, 2378.00
1898, 2378.00
1899, 2380.00
1900, 2377.00
1901, 2377.00
1902, 2379.00
1903, 2377.00
1904, 2376.00
1905, 2377.00
1906, 2377.00
1907, 2377.00
1908, 2377.00
1909, 2376.00
1910, 2377.00
1911, 2375.00
1912, 2375.00
1913, 2376.00
1914, 2376.00
1915, 2373.00
1916, 2376.00
1917, 2376.00
1918, 2374.00
1919, 2375.00
1920, 2375.00
1921, 2376.00
1922, 2375.00
1923, 2374.00
1924, 2373.00
1925, 2374.00
1926, 2375.00
1927, 2373.00
1928, 2374.00
1929, 2373.00
1930, 2375.00
1931, 2373.00
1932, 2376.00
1933, 2376.00
1934, 2374.00
1935, 2377.00
1936, 2376.00
1937, 2375.00
1938, 2376.00
1939, 2375.00
1940, 2377.00
1941, 2378.00
1942, 2378.00
1943, 2377.00
1944, 2378.00
1945, 2377.00
1946, 2376.00
1947, 2377.00
1948, 2378.00
1949, 2379.00
1950, 2379.00
1951, 2379.00
1952, 2379.00
1953, 2379.00
1954, 2378.00
1955, 2382.00
1956, 2381.00
1957, 2380.00
1958, 2383.00
1959, 2382.00
1960, 2384.00
1961, 2382.00
1962, 2384.00
1963, 2385.00
1964, 2384.00
1965, 2385.00
1966, 2385.00
1967, 2386.00
1968, 2387.00
1969, 2389.00
1970, 2385.00
1971, 2387.00
1972, 2389.00
1973, 2390.00
1974, 2390.00
1975, 2391.00
1976, 2391.00
1977, 2392.00
1978, 2392.00
1979, 2392.00
1980, 2391.00
1981, 2392.00
1982, 2393.00
1983, 2396.00
1984, 2395.00
1985, 2396.00
1986, 2396.00
1987, 2396.00
1988, 2397.00
1989, 2399.00
1990, 2399.00
1991, 2398.00
1992, 2399.00
1993, 2400.00
1994, 2399.00
1995, 2400.00
1996, 2401.00
1997, 2402.00
1998, 2404.00
1999, 2402.00
2000, 2403.00
2001, 2405.00
2002, 2405.00
2003, 2403.00
2004, 2405.00
2005, 2406.00
2006, 2408.00
2007, 2408.00
2008, 2408.00
2009, 2409.00
2010, 2407.00
2011, 2409.00
2012, 2410.00
2013, 2411.00
2014, 2411.00
2015, 2412.00
2016, 2412.00
2017, 2413.00
2018, 2412.00
2019, 2415.00
2020, 2413.00
2021, 2413.00
2022, 2413.00
2023, 2416.00
2024, 2415.00
2025, 2417.00
2026, 2417.00
2027, 2417.00
2028, 2420.00
2029, 2420.00
2030, 2419.00
2031, 2421.00
2032, 2419.00
2033, 2419.00
2034, 2421.00
2035, 2422.00
2036, 2423.00
2037, 2422.00
2038, 2424.00
2039, 2423.00
2040, 2425.00
2041, 2426.00
2042, 2426.00
2043, 2426.00
2044, 2429.00
2045, 2427.00
2046, 2428.00
2047, 2431.00
2048, 2430.00
2049, 2433.00
2050, 2431.00
2051, 2431.00
2052, 2433.00
2053, 2435.00
2054, 2435.00
2055, 2435.00
2056, 2435.00
2057, 2437.00
2058, 2437.00
2059, 2439.00
2060, 2439.00
2061, 2440.00
2062, 2441.00
2063, 2440.00
2064, 2445.00
2065, 2444.00
2066, 2444.00
2067, 2444.00
2068, 2445.00
2069, 2447.00
2070, 2448.00
2071, 2448.00
2072, 2448.00
2073, 2449.00
2074, 2450.00
2075, 2451.00
2076, 2451.00
2077, 2451.00
2078, 2453.00
2079, 2454.00
2080, 2453.00
2081, 2456.00
2082, 2454.00
2083, 2456.00
2084, 2455.00
2085, 2457.00
2086, 2457.00
2087, 2461.00
2088, 2460.00
2089, 2460.00
2090, 2459.00
2091, 2459.00
2092, 2462.00
2093, 2463.00
2094, 2465.00
2095, 2464.00
2096, 2462.00
2097, 2464.00
2098, 2463.00
2099, 2464.00
2100, 2465.00
2101, 2468.00
2102, 2465.00
2103, 2467.00
2104, 2468.00
2105, 2468.00
2106, 2467.00
2107, 2468.00
2108, 2467.00
2109, 2467.00
2110, 2470.00
2111, 2469.00
2112, 2469.00
2113, 2469.00
2114, 2470.00
2115, 2471.00
2116, 2468.00
2117, 2470.00
2118, 2471.00
2119, 2470.00
2120, 2471.00
2121, 2471.00
2122, 2471.00
2123, 2472.00
2124, 2471.00
2125, 2474.00
2126, 2473.00
2127, 2472.00
2128, 2473.00
2129, 2474.00
2130, 2473.00
2131, 2475.00
2132, 2475.00
2133, 2475.00
2134, 2475.00
2135, 2475.00
2136, 2476.00
2137, 2475.00
2138, 2476.00
2139, 2475.00
2140, 2477.00
2141, 2476.00
2142, 2476.00
2143, 2476.00
2144, 2476.00
2145, 2478.00
2146, 2478.00
2147, 2479.00
2148, 2478.00
2149, 2478.00
2150, 2477.00
