FW version: 24
Log Version: 3.0.3

General Info:
       Command/Macro Performed,            Timestamp,             Device ID, COM Port, UART/I2C, Test Name, Host Major, Host Minor, Host Revision, Host Git Commit
            Single_measurement,  2023_07_04_11_49_36,       Insight2_F4_xxx,    USB-C,      USB,          ,          0,          1,             1,      4031237645

Show Spectrometer Status:
l0_version, f4_version, battery_perc, battery_mVolt, accelerometer_temp, accelerometer_x, accelerometer_y, accelerometer_z, compass_temp, compass_x, compass_y, compass_z, lamp_0, lamp_1, gain_0, gain_1
        17,         24,           36,          1878,               6224,               0,            2576,           19144,            0,     65399,     65309,     19198,   3276,   3276,      1,      1

Temperature Statistic Info:
NTC AVG [°C], NTC2 AVG [°C]
      39.086,        38.768

Statistic Info:
M1:  num,      min,      max,   median,      AVG,      STD,M2:  num,      min,      max,   median,      AVG,      STD
     301,  1618.00,  1819.00,  1663.00,  1684.52,  62.3632,     401,  2223.00,  2346.00,  2287.00,  2285.88,  41.2885,

Measurements:
Wavelength, Data Amplitude
1350, 1644.00
1351, 1645.00
1352, 1643.00
1353, 1644.00
1354, 1643.00
1355, 1643.00
1356, 1643.00
1357, 1642.00
1358, 1642.00
1359, 1641.00
1360, 1641.00
1361, 1639.00
1362, 1640.00
1363, 1639.00
1364, 1637.00
1365, 1636.00
1366, 1636.00
1367, 1636.00
1368, 1634.00
1369, 1632.00
1370, 1633.00
1371, 1632.00
1372, 1631.00
1373, 1631.00
1374, 1632.00
1375, 1629.00
1376, 1629.00
1377, 1630.00
1378, 1628.00
1379, 1627.00
1380, 1627.00
1381, 1625.00
1382, 1625.00
1383, 1626.00
1384, 1625.00
1385, 1623.00
1386, 1624.00
1387, 1623.00
1388, 1623.00
1389, 1622.00
1390, 1623.00
1391, 1622.00
1392, 1621.00
1393, 1622.00
1394, 1621.00
1395, 1622.00
1396, 1621.00
1397, 1620.00
1398, 1621.00
1399, 1620.00
1400, 1620.00
1401, 1620.00
1402, 1620.00
1403, 1619.00
1404, 1619.00
1405, 1620.00
1406, 1620.00
1407, 1619.00
1408, 1619.00
1409, 1620.00
1410, 1618.00
1411, 1620.00
1412, 1618.00
1413, 1618.00
1414, 1618.00
1415, 1619.00
1416, 1619.00
1417, 1618.00
1418, 1620.00
1419, 1619.00
1420, 1619.00
1421, 1619.00
1422, 1618.00
1423, 1619.00
1424, 1619.00
1425, 1620.00
1426, 1620.00
1427, 1619.00
1428, 1619.00
1429, 1621.00
1430, 1620.00
1431, 1621.00
1432, 1621.00
1433, 1622.00
1434, 1621.00
1435, 1622.00
1436, 1623.00
1437, 1622.00
1438, 1623.00
1439, 1623.00
1440, 1623.00
1441, 1625.00
1442, 1623.00
1443, 1625.00
1444, 1624.00
1445, 1625.00
1446, 1626.00
1447, 1626.00
1448, 1627.00
1449, 1627.00
1450, 1628.00
1451, 1628.00
1452, 1628.00
1453, 1630.00
1454, 1630.00
1455, 1631.00
1456, 1630.00
1457, 1631.00
1458, 1631.00
1459, 1633.00
1460, 1633.00
1461, 1634.00
1462, 1634.00
1463, 1635.00
1464, 1635.00
1465, 1635.00
1466, 1637.00
1467, 1637.00
1468, 1638.00
1469, 1638.00
1470, 1640.00
1471, 1640.00
1472, 1640.00
1473, 1641.00
1474, 1642.00
1475, 1643.00
1476, 1644.00
1477, 1645.00
1478, 1646.00
1479, 1646.00
1480, 1647.00
1481, 1647.00
1482, 1648.00
1483, 1649.00
1484, 1650.00
1485, 1651.00
1486, 1651.00
1487, 1652.00
1488, 1653.00
1489, 1653.00
1490, 1656.00
1491, 1655.00
1492, 1656.00
1493, 1657.00
1494, 1658.00
1495, 1659.00
1496, 1660.00
1497, 1660.00
1498, 1661.00
1499, 1662.00
1500, 1663.00
1501, 1663.00
1502, 1664.00
1503, 1665.00
1504, 1665.00
1505, 1667.00
1506, 1668.00
1507, 1669.00
1508, 1669.00
1509, 1671.00
1510, 1670.00
1511, 1672.00
1512, 1672.00
1513, 1674.00
1514, 1674.00
1515, 1676.00
1516, 1676.00
1517, 1677.00
1518, 1678.00
1519, 1679.00
1520, 1680.00
1521, 1681.00
1522, 1682.00
1523, 1683.00
1524, 1684.00
1525, 1685.00
1526, 1686.00
1527, 1687.00
1528, 1689.00
1529, 1689.00
1530, 1690.00
1531, 1691.00
1532, 1692.00
1533, 1692.00
1534, 1694.00
1535, 1695.00
1536, 1696.00
1537, 1697.00
1538, 1697.00
1539, 1699.00
1540, 1699.00
1541, 1701.00
1542, 1701.00
1543, 1703.00
1544, 1703.00
1545, 1705.00
1546, 1706.00
1547, 1706.00
1548, 1707.00
1549, 1709.00
1550, 1710.00
1551, 1709.00
1552, 1711.00
1553, 1713.00
1554, 1713.00
1555, 1714.00
1556, 1715.00
1557, 1717.00
1558, 1717.00
1559, 1719.00
1560, 1720.00
1561, 1721.00
1562, 1722.00
1563, 1723.00
1564, 1725.00
1565, 1726.00
1566, 1727.00
1567, 1727.00
1568, 1730.00
1569, 1729.00
1570, 1730.00
1571, 1733.00
1572, 1733.00
1573, 1733.00
1574, 1734.00
1575, 1735.00
1576, 1737.00
1577, 1739.00
1578, 1738.00
1579, 1740.00
1580, 1741.00
1581, 1742.00
1582, 1744.00
1583, 1745.00
1584, 1746.00
1585, 1747.00
1586, 1747.00
1587, 1749.00
1588, 1750.00
1589, 1750.00
1590, 1751.00
1591, 1752.00
1592, 1753.00
1593, 1754.00
1594, 1754.00
1595, 1756.00
1596, 1756.00
1597, 1757.00
1598, 1758.00
1599, 1759.00
1600, 1761.00
1601, 1762.00
1602, 1763.00
1603, 1763.00
1604, 1763.00
1605, 1766.00
1606, 1766.00
1607, 1768.00
1608, 1770.00
1609, 1770.00
1610, 1772.00
1611, 1772.00
1612, 1774.00
1613, 1775.00
1614, 1776.00
1615, 1778.00
1616, 1778.00
1617, 1781.00
1618, 1781.00
1619, 1783.00
1620, 1784.00
1621, 1785.00
1622, 1786.00
1623, 1788.00
1624, 1790.00
1625, 1791.00
1626, 1791.00
1627, 1792.00
1628, 1794.00
1629, 1796.00
1630, 1797.00
1631, 1797.00
1632, 1799.00
1633, 1800.00
1634, 1801.00
1635, 1802.00
1636, 1803.00
1637, 1805.00
1638, 1805.00
1639, 1806.00
1640, 1808.00
1641, 1808.00
1642, 1810.00
1643, 1811.00
1644, 1811.00
1645, 1814.00
1646, 1814.00
1647, 1815.00
1648, 1816.00
1649, 1817.00
1650, 1819.00

1750, 2344.00
1751, 2344.00
1752, 2345.00
1753, 2346.00
1754, 2345.00
1755, 2343.00
1756, 2345.00
1757, 2346.00
1758, 2344.00
1759, 2344.00
1760, 2344.00
1761, 2346.00
1762, 2344.00
1763, 2345.00
1764, 2344.00
1765, 2343.00
1766, 2343.00
1767, 2345.00
1768, 2343.00
1769, 2343.00
1770, 2343.00
1771, 2342.00
1772, 2341.00
1773, 2342.00
1774, 2342.00
1775, 2342.00
1776, 2341.00
1777, 2341.00
1778, 2340.00
1779, 2339.00
1780, 2340.00
1781, 2339.00
1782, 2339.00
1783, 2338.00
1784, 2338.00
1785, 2337.00
1786, 2337.00
1787, 2336.00
1788, 2337.00
1789, 2335.00
1790, 2337.00
1791, 2335.00
1792, 2332.00
1793, 2334.00
1794, 2336.00
1795, 2332.00
1796, 2331.00
1797, 2333.00
1798, 2331.00
1799, 2332.00
1800, 2331.00
1801, 2331.00
1802, 2331.00
1803, 2330.00
1804, 2331.00
1805, 2329.00
1806, 2332.00
1807, 2331.00
1808, 2329.00
1809, 2329.00
1810, 2328.00
1811, 2327.00
1812, 2329.00
1813, 2327.00
1814, 2326.00
1815, 2327.00
1816, 2325.00
1817, 2326.00
1818, 2324.00
1819, 2324.00
1820, 2325.00
1821, 2325.00
1822, 2324.00
1823, 2323.00
1824, 2322.00
1825, 2321.00
1826, 2321.00
1827, 2321.00
1828, 2318.00
1829, 2319.00
1830, 2319.00
1831, 2317.00
1832, 2315.00
1833, 2314.00
1834, 2315.00
1835, 2311.00
1836, 2312.00
1837, 2310.00
1838, 2309.00
1839, 2305.00
1840, 2304.00
1841, 2303.00
1842, 2302.00
1843, 2301.00
1844, 2301.00
1845, 2297.00
1846, 2295.00
1847, 2294.00
1848, 2293.00
1849, 2290.00
1850, 2287.00
1851, 2285.00
1852, 2284.00
1853, 2281.00
1854, 2281.00
1855, 2278.00
1856, 2276.00
1857, 2273.00
1858, 2272.00
1859, 2269.00
1860, 2269.00
1861, 2265.00
1862, 2263.00
1863, 2261.00
1864, 2263.00
1865, 2257.00
1866, 2256.00
1867, 2256.00
1868, 2254.00
1869, 2252.00
1870, 2251.00
1871, 2251.00
1872, 2249.00
1873, 2247.00
1874, 2247.00
1875, 2243.00
1876, 2243.00
1877, 2241.00
1878, 2242.00
1879, 2242.00
1880, 2239.00
1881, 2240.00
1882, 2239.00
1883, 2238.00
1884, 2237.00
1885, 2237.00
1886, 2234.00
1887, 2234.00
1888, 2235.00
1889, 2235.00
1890, 2235.00
1891, 2232.00
1892, 2233.00
1893, 2232.00
1894, 2231.00
1895, 2231.00
1896, 2231.00
1897, 2230.00
1898, 2231.00
1899, 2232.00
1900, 2230.00
1901, 2230.00
1902, 2229.00
1903, 2228.00
1904, 2228.00
1905, 2228.00
1906, 2228.00
1907, 2229.00
1908, 2228.00
1909, 2228.00
1910, 2227.00
1911, 2228.00
1912, 2226.00
1913, 2228.00
1914, 2225.00
1915, 2225.00
1916, 2227.00
1917, 2226.00
1918, 2227.00
1919, 2224.00
1920, 2227.00
1921, 2223.00
1922, 2227.00
1923, 2227.00
1924, 2227.00
1925, 2226.00
1926, 2227.00
1927, 2225.00
1928, 2226.00
1929, 2226.00
1930, 2227.00
1931, 2226.00
1932, 2225.00
1933, 2226.00
1934, 2227.00
1935, 2227.00
1936, 2227.00
1937, 2229.00
1938, 2228.00
1939, 2229.00
1940, 2229.00
1941, 2229.00
1942, 2227.00
1943, 2229.00
1944, 2230.00
1945, 2230.00
1946, 2230.00
1947, 2229.00
1948, 2229.00
1949, 2231.00
1950, 2232.00
1951, 2232.00
1952, 2233.00
1953, 2233.00
1954, 2234.00
1955, 2232.00
1956, 2233.00
1957, 2235.00
1958, 2235.00
1959, 2235.00
1960, 2236.00
1961, 2237.00
1962, 2235.00
1963, 2238.00
1964, 2237.00
1965, 2237.00
1966, 2238.00
1967, 2241.00
1968, 2240.00
1969, 2239.00
1970, 2239.00
1971, 2241.00
1972, 2242.00
1973, 2241.00
1974, 2243.00
1975, 2244.00
1976, 2246.00
1977, 2245.00
1978, 2246.00
1979, 2247.00
1980, 2248.00
1981, 2246.00
1982, 2249.00
1983, 2249.00
1984, 2248.00
1985, 2249.00
1986, 2251.00
1987, 2252.00
1988, 2250.00
1989, 2253.00
1990, 2252.00
1991, 2251.00
1992, 2252.00
1993, 2253.00
1994, 2256.00
1995, 2255.00
1996, 2256.00
1997, 2255.00
1998, 2255.00
1999, 2258.00
2000, 2257.00
2001, 2257.00
2002, 2258.00
2003, 2260.00
2004, 2261.00
2005, 2263.00
2006, 2261.00
2007, 2261.00
2008, 2261.00
2009, 2263.00
2010, 2264.00
2011, 2265.00
2012, 2264.00
2013, 2264.00
2014, 2265.00
2015, 2266.00
2016, 2266.00
2017, 2267.00
2018, 2269.00
2019, 2267.00
2020, 2268.00
2021, 2268.00
2022, 2269.00
2023, 2270.00
2024, 2268.00
2025, 2271.00
2026, 2270.00
2027, 2273.00
2028, 2274.00
2029, 2274.00
2030, 2274.00
2031, 2275.00
2032, 2276.00
2033, 2274.00
2034, 2277.00
2035, 2279.00
2036, 2278.00
2037, 2277.00
2038, 2280.00
2039, 2278.00
2040, 2282.00
2041, 2281.00
2042, 2284.00
2043, 2283.00
2044, 2283.00
2045, 2285.00
2046, 2284.00
2047, 2285.00
2048, 2287.00
2049, 2287.00
2050, 2287.00
2051, 2289.00
2052, 2291.00
2053, 2290.00
2054, 2290.00
2055, 2292.00
2056, 2292.00
2057, 2292.00
2058, 2296.00
2059, 2295.00
2060, 2296.00
2061, 2297.00
2062, 2298.00
2063, 2298.00
2064, 2298.00
2065, 2300.00
2066, 2301.00
2067, 2303.00
2068, 2303.00
2069, 2304.00
2070, 2304.00
2071, 2304.00
2072, 2306.00
2073, 2307.00
2074, 2308.00
2075, 2307.00
2076, 2309.00
2077, 2308.00
2078, 2308.00
2079, 2309.00
2080, 2312.00
2081, 2312.00
2082, 2313.00
2083, 2311.00
2084, 2314.00
2085, 2314.00
2086, 2315.00
2087, 2314.00
2088, 2316.00
2089, 2318.00
2090, 2318.00
2091, 2319.00
2092, 2319.00
2093, 2318.00
2094, 2319.00
2095, 2318.00
2096, 2321.00
2097, 2320.00
2098, 2321.00
2099, 2319.00
2100, 2321.00
2101, 2320.00
2102, 2321.00
2103, 2323.00
2104, 2323.00
2105, 2323.00
2106, 2325.00
2107, 2324.00
2108, 2325.00
2109, 2325.00
2110, 2327.00
2111, 2327.00
2112, 2325.00
2113, 2326.00
2114, 2326.00
2115, 2328.00
2116, 2326.00
2117, 2328.00
2118, 2328.00
2119, 2327.00
2120, 2328.00
2121, 2328.00
2122, 2327.00
2123, 2330.00
2124, 2327.00
2125, 2328.00
2126, 2331.00
2127, 2332.00
2128, 2329.00
2129, 2331.00
2130, 2329.00
2131, 2331.00
2132, 2331.00
2133, 2332.00
2134, 2330.00
2135, 2330.00
2136, 2331.00
2137, 2331.00
2138, 2332.00
2139, 2331.00
2140, 2334.00
2141, 2333.00
2142, 2333.00
2143, 2333.00
2144, 2333.00
2145, 2333.00
2146, 2334.00
2147, 2336.00
2148, 2336.00
2149, 2334.00
2150, 2334.00
