FW version: 24
Log Version: 3.0.3

General Info:
       Command/Macro Performed,            Timestamp,             Device ID, COM Port, UART/I2C, Test Name, Host Major, Host Minor, Host Revision, Host Git Commit
            Single_measurement,  2023_07_04_11_49_17,       Insight2_F4_xxx,    USB-C,      USB,          ,          0,          1,             1,      4031237645

Show Spectrometer Status:
l0_version, f4_version, battery_perc, battery_mVolt, accelerometer_temp, accelerometer_x, accelerometer_y, accelerometer_z, compass_temp, compass_x, compass_y, compass_z, lamp_0, lamp_1, gain_0, gain_1
        17,         24,           35,          1880,               6240,              48,            2792,           19120,            0,     65399,     65531,     19191,   2866,   2866,      1,      1

Temperature Statistic Info:
NTC AVG [°C], NTC2 AVG [°C]
      38.997,        38.681

Statistic Info:
M1:  num,      min,      max,   median,      AVG,      STD,M2:  num,      min,      max,   median,      AVG,      STD
     301,  1260.00,  1422.00,  1296.00,  1313.46,  50.3828,     401,  1793.00,  1891.00,  1845.00,  1843.43,  33.6546,

Measurements:
Wavelength, Data Amplitude
1350, 1280.00
1351, 1280.00
1352, 1279.00
1353, 1278.00
1354, 1278.00
1355, 1279.00
1356, 1278.00
1357, 1277.00
1358, 1277.00
1359, 1276.00
1360, 1276.00
1361, 1276.00
1362, 1275.00
1363, 1274.00
1364, 1274.00
1365, 1273.00
1366, 1273.00
1367, 1273.00
1368, 1274.00
1369, 1271.00
1370, 1272.00
1371, 1271.00
1372, 1269.00
1373, 1268.00
1374, 1269.00
1375, 1268.00
1376, 1267.00
1377, 1266.00
1378, 1266.00
1379, 1267.00
1380, 1267.00
1381, 1265.00
1382, 1266.00
1383, 1265.00
1384, 1264.00
1385, 1264.00
1386, 1263.00
1387, 1262.00
1388, 1264.00
1389, 1263.00
1390, 1262.00
1391, 1263.00
1392, 1263.00
1393, 1263.00
1394, 1261.00
1395, 1262.00
1396, 1262.00
1397, 1262.00
1398, 1262.00
1399, 1261.00
1400, 1261.00
1401, 1262.00
1402, 1261.00
1403, 1261.00
1404, 1261.00
1405, 1261.00
1406, 1261.00
1407, 1261.00
1408, 1261.00
1409, 1261.00
1410, 1262.00
1411, 1261.00
1412, 1260.00
1413, 1261.00
1414, 1260.00
1415, 1261.00
1416, 1260.00
1417, 1261.00
1418, 1261.00
1419, 1261.00
1420, 1261.00
1421, 1261.00
1422, 1260.00
1423, 1260.00
1424, 1261.00
1425, 1261.00
1426, 1261.00
1427, 1261.00
1428, 1261.00
1429, 1262.00
1430, 1261.00
1431, 1262.00
1432, 1262.00
1433, 1263.00
1434, 1262.00
1435, 1263.00
1436, 1262.00
1437, 1262.00
1438, 1263.00
1439, 1265.00
1440, 1264.00
1441, 1264.00
1442, 1264.00
1443, 1266.00
1444, 1266.00
1445, 1266.00
1446, 1267.00
1447, 1267.00
1448, 1267.00
1449, 1268.00
1450, 1268.00
1451, 1268.00
1452, 1269.00
1453, 1269.00
1454, 1270.00
1455, 1269.00
1456, 1270.00
1457, 1271.00
1458, 1271.00
1459, 1271.00
1460, 1272.00
1461, 1273.00
1462, 1273.00
1463, 1273.00
1464, 1275.00
1465, 1275.00
1466, 1275.00
1467, 1276.00
1468, 1277.00
1469, 1276.00
1470, 1277.00
1471, 1278.00
1472, 1278.00
1473, 1280.00
1474, 1279.00
1475, 1280.00
1476, 1280.00
1477, 1281.00
1478, 1281.00
1479, 1283.00
1480, 1284.00
1481, 1283.00
1482, 1284.00
1483, 1285.00
1484, 1286.00
1485, 1286.00
1486, 1287.00
1487, 1288.00
1488, 1288.00
1489, 1290.00
1490, 1290.00
1491, 1290.00
1492, 1291.00
1493, 1291.00
1494, 1292.00
1495, 1294.00
1496, 1294.00
1497, 1294.00
1498, 1295.00
1499, 1296.00
1500, 1296.00
1501, 1296.00
1502, 1297.00
1503, 1299.00
1504, 1299.00
1505, 1300.00
1506, 1300.00
1507, 1301.00
1508, 1301.00
1509, 1303.00
1510, 1304.00
1511, 1304.00
1512, 1305.00
1513, 1306.00
1514, 1306.00
1515, 1306.00
1516, 1308.00
1517, 1308.00
1518, 1310.00
1519, 1310.00
1520, 1310.00
1521, 1312.00
1522, 1312.00
1523, 1313.00
1524, 1315.00
1525, 1315.00
1526, 1315.00
1527, 1316.00
1528, 1318.00
1529, 1318.00
1530, 1319.00
1531, 1319.00
1532, 1320.00
1533, 1321.00
1534, 1322.00
1535, 1323.00
1536, 1324.00
1537, 1323.00
1538, 1324.00
1539, 1325.00
1540, 1327.00
1541, 1327.00
1542, 1328.00
1543, 1328.00
1544, 1329.00
1545, 1331.00
1546, 1331.00
1547, 1331.00
1548, 1332.00
1549, 1334.00
1550, 1333.00
1551, 1335.00
1552, 1336.00
1553, 1337.00
1554, 1337.00
1555, 1338.00
1556, 1337.00
1557, 1340.00
1558, 1341.00
1559, 1341.00
1560, 1343.00
1561, 1344.00
1562, 1344.00
1563, 1345.00
1564, 1346.00
1565, 1346.00
1566, 1348.00
1567, 1348.00
1568, 1349.00
1569, 1349.00
1570, 1351.00
1571, 1351.00
1572, 1352.00
1573, 1354.00
1574, 1354.00
1575, 1355.00
1576, 1356.00
1577, 1357.00
1578, 1358.00
1579, 1359.00
1580, 1358.00
1581, 1360.00
1582, 1362.00
1583, 1362.00
1584, 1363.00
1585, 1363.00
1586, 1364.00
1587, 1365.00
1588, 1365.00
1589, 1366.00
1590, 1367.00
1591, 1367.00
1592, 1369.00
1593, 1369.00
1594, 1370.00
1595, 1371.00
1596, 1372.00
1597, 1372.00
1598, 1372.00
1599, 1373.00
1600, 1374.00
1601, 1375.00
1602, 1375.00
1603, 1377.00
1604, 1378.00
1605, 1379.00
1606, 1379.00
1607, 1380.00
1608, 1382.00
1609, 1382.00
1610, 1384.00
1611, 1385.00
1612, 1385.00
1613, 1386.00
1614, 1387.00
1615, 1389.00
1616, 1390.00
1617, 1390.00
1618, 1391.00
1619, 1391.00
1620, 1394.00
1621, 1395.00
1622, 1395.00
1623, 1396.00
1624, 1397.00
1625, 1399.00
1626, 1400.00
1627, 1400.00
1628, 1402.00
1629, 1403.00
1630, 1404.00
1631, 1404.00
1632, 1406.00
1633, 1407.00
1634, 1407.00
1635, 1409.00
1636, 1410.00
1637, 1410.00
1638, 1411.00
1639, 1413.00
1640, 1413.00
1641, 1413.00
1642, 1414.00
1643, 1416.00
1644, 1416.00
1645, 1417.00
1646, 1418.00
1647, 1418.00
1648, 1420.00
1649, 1421.00
1650, 1422.00

1750, 1891.00
1751, 1889.00
1752, 1890.00
1753, 1890.00
1754, 1888.00
1755, 1888.00
1756, 1889.00
1757, 1889.00
1758, 1890.00
1759, 1888.00
1760, 1889.00
1761, 1888.00
1762, 1889.00
1763, 1890.00
1764, 1891.00
1765, 1889.00
1766, 1888.00
1767, 1891.00
1768, 1887.00
1769, 1890.00
1770, 1890.00
1771, 1887.00
1772, 1888.00
1773, 1888.00
1774, 1887.00
1775, 1887.00
1776, 1887.00
1777, 1889.00
1778, 1887.00
1779, 1887.00
1780, 1885.00
1781, 1889.00
1782, 1885.00
1783, 1885.00
1784, 1884.00
1785, 1884.00
1786, 1884.00
1787, 1884.00
1788, 1884.00
1789, 1881.00
1790, 1884.00
1791, 1881.00
1792, 1883.00
1793, 1882.00
1794, 1881.00
1795, 1883.00
1796, 1879.00
1797, 1879.00
1798, 1880.00
1799, 1880.00
1800, 1879.00
1801, 1880.00
1802, 1879.00
1803, 1879.00
1804, 1878.00
1805, 1879.00
1806, 1879.00
1807, 1877.00
1808, 1878.00
1809, 1877.00
1810, 1878.00
1811, 1877.00
1812, 1877.00
1813, 1877.00
1814, 1877.00
1815, 1876.00
1816, 1878.00
1817, 1877.00
1818, 1875.00
1819, 1876.00
1820, 1873.00
1821, 1872.00
1822, 1873.00
1823, 1873.00
1824, 1873.00
1825, 1873.00
1826, 1870.00
1827, 1872.00
1828, 1870.00
1829, 1868.00
1830, 1867.00
1831, 1868.00
1832, 1865.00
1833, 1866.00
1834, 1865.00
1835, 1864.00
1836, 1865.00
1837, 1863.00
1838, 1862.00
1839, 1859.00
1840, 1858.00
1841, 1857.00
1842, 1857.00
1843, 1854.00
1844, 1855.00
1845, 1851.00
1846, 1851.00
1847, 1850.00
1848, 1847.00
1849, 1846.00
1850, 1843.00
1851, 1841.00
1852, 1842.00
1853, 1838.00
1854, 1838.00
1855, 1835.00
1856, 1835.00
1857, 1833.00
1858, 1832.00
1859, 1830.00
1860, 1828.00
1861, 1826.00
1862, 1825.00
1863, 1823.00
1864, 1822.00
1865, 1821.00
1866, 1818.00
1867, 1817.00
1868, 1817.00
1869, 1817.00
1870, 1814.00
1871, 1814.00
1872, 1813.00
1873, 1811.00
1874, 1811.00
1875, 1811.00
1876, 1810.00
1877, 1808.00
1878, 1808.00
1879, 1808.00
1880, 1805.00
1881, 1804.00
1882, 1805.00
1883, 1805.00
1884, 1804.00
1885, 1803.00
1886, 1802.00
1887, 1802.00
1888, 1800.00
1889, 1803.00
1890, 1800.00
1891, 1799.00
1892, 1801.00
1893, 1801.00
1894, 1800.00
1895, 1799.00
1896, 1800.00
1897, 1799.00
1898, 1797.00
1899, 1797.00
1900, 1798.00
1901, 1796.00
1902, 1797.00
1903, 1796.00
1904, 1798.00
1905, 1796.00
1906, 1796.00
1907, 1794.00
1908, 1796.00
1909, 1797.00
1910, 1795.00
1911, 1796.00
1912, 1794.00
1913, 1796.00
1914, 1795.00
1915, 1795.00
1916, 1795.00
1917, 1793.00
1918, 1794.00
1919, 1794.00
1920, 1793.00
1921, 1794.00
1922, 1795.00
1923, 1794.00
1924, 1796.00
1925, 1794.00
1926, 1794.00
1927, 1795.00
1928, 1794.00
1929, 1797.00
1930, 1794.00
1931, 1795.00
1932, 1796.00
1933, 1796.00
1934, 1794.00
1935, 1795.00
1936, 1797.00
1937, 1795.00
1938, 1796.00
1939, 1796.00
1940, 1798.00
1941, 1797.00
1942, 1796.00
1943, 1797.00
1944, 1798.00
1945, 1797.00
1946, 1797.00
1947, 1798.00
1948, 1798.00
1949, 1798.00
1950, 1799.00
1951, 1800.00
1952, 1799.00
1953, 1800.00
1954, 1800.00
1955, 1801.00
1956, 1799.00
1957, 1801.00
1958, 1802.00
1959, 1802.00
1960, 1801.00
1961, 1802.00
1962, 1802.00
1963, 1804.00
1964, 1804.00
1965, 1806.00
1966, 1804.00
1967, 1806.00
1968, 1804.00
1969, 1807.00
1970, 1807.00
1971, 1807.00
1972, 1809.00
1973, 1809.00
1974, 1810.00
1975, 1808.00
1976, 1809.00
1977, 1809.00
1978, 1810.00
1979, 1811.00
1980, 1811.00
1981, 1811.00
1982, 1812.00
1983, 1810.00
1984, 1813.00
1985, 1814.00
1986, 1815.00
1987, 1815.00
1988, 1816.00
1989, 1817.00
1990, 1816.00
1991, 1816.00
1992, 1817.00
1993, 1818.00
1994, 1819.00
1995, 1819.00
1996, 1819.00
1997, 1820.00
1998, 1820.00
1999, 1821.00
2000, 1820.00
2001, 1821.00
2002, 1821.00
2003, 1822.00
2004, 1821.00
2005, 1823.00
2006, 1822.00
2007, 1823.00
2008, 1824.00
2009, 1825.00
2010, 1827.00
2011, 1825.00
2012, 1828.00
2013, 1826.00
2014, 1828.00
2015, 1829.00
2016, 1828.00
2017, 1829.00
2018, 1829.00
2019, 1830.00
2020, 1830.00
2021, 1831.00
2022, 1830.00
2023, 1830.00
2024, 1831.00
2025, 1831.00
2026, 1833.00
2027, 1833.00
2028, 1835.00
2029, 1834.00
2030, 1833.00
2031, 1833.00
2032, 1835.00
2033, 1837.00
2034, 1837.00
2035, 1838.00
2036, 1836.00
2037, 1836.00
2038, 1838.00
2039, 1838.00
2040, 1840.00
2041, 1840.00
2042, 1842.00
2043, 1839.00
2044, 1842.00
2045, 1843.00
2046, 1843.00
2047, 1845.00
2048, 1843.00
2049, 1843.00
2050, 1845.00
2051, 1845.00
2052, 1847.00
2053, 1849.00
2054, 1847.00
2055, 1847.00
2056, 1850.00
2057, 1851.00
2058, 1851.00
2059, 1850.00
2060, 1851.00
2061, 1853.00
2062, 1855.00
2063, 1853.00
2064, 1853.00
2065, 1854.00
2066, 1857.00
2067, 1856.00
2068, 1858.00
2069, 1858.00
2070, 1859.00
2071, 1857.00
2072, 1860.00
2073, 1861.00
2074, 1862.00
2075, 1862.00
2076, 1863.00
2077, 1864.00
2078, 1864.00
2079, 1864.00
2080, 1864.00
2081, 1865.00
2082, 1864.00
2083, 1867.00
2084, 1867.00
2085, 1868.00
2086, 1868.00
2087, 1866.00
2088, 1869.00
2089, 1869.00
2090, 1870.00
2091, 1871.00
2092, 1871.00
2093, 1871.00
2094, 1871.00
2095, 1873.00
2096, 1872.00
2097, 1873.00
2098, 1872.00
2099, 1875.00
2100, 1875.00
2101, 1874.00
2102, 1873.00
2103, 1875.00
2104, 1874.00
2105, 1877.00
2106, 1875.00
2107, 1874.00
2108, 1876.00
2109, 1876.00
2110, 1878.00
2111, 1876.00
2112, 1876.00
2113, 1877.00
2114, 1877.00
2115, 1878.00
2116, 1878.00
2117, 1879.00
2118, 1878.00
2119, 1881.00
2120, 1879.00
2121, 1879.00
2122, 1879.00
2123, 1879.00
2124, 1879.00
2125, 1880.00
2126, 1881.00
2127, 1879.00
2128, 1881.00
2129, 1879.00
2130, 1882.00
2131, 1881.00
2132, 1881.00
2133, 1883.00
2134, 1883.00
2135, 1883.00
2136, 1885.00
2137, 1883.00
2138, 1883.00
2139, 1884.00
2140, 1884.00
2141, 1882.00
2142, 1882.00
2143, 1884.00
2144, 1885.00
2145, 1886.00
2146, 1883.00
2147, 1885.00
2148, 1885.00
2149, 1885.00
2150, 1884.00
