FW version: 24
Log Version: 3.0.3

General Info:
       Command/Macro Performed,            Timestamp,             Device ID, COM Port, UART/I2C, Test Name, Host Major, Host Minor, Host Revision, Host Git Commit
            Single_measurement,  2023_06_27_12_40_28,       Insight2_F4_xxx,    USB-C,      USB,          ,          0,          1,             1,      4031237645

Show Spectrometer Status:
l0_version, f4_version, battery_perc, battery_mVolt, accelerometer_temp, accelerometer_x, accelerometer_y, accelerometer_z, compass_temp, compass_x, compass_y, compass_z, lamp_0, lamp_1, gain_0, gain_1
        17,         24,           95,          2078,               5744,             616,           65208,           18428,            0,     65389,     65533,     65534,   3276,   3276,    1,    1

Temperature Statistic Info:
NTC AVG [°C], NTC2 AVG [°C]
      37.726,        37.439

Statistic Info:
M1:  num,      min,      max,   median,      AVG,      STD,M2:  num,      min,      max,   median,      AVG,      STD
     301,  1940.00,  2194.00,  1997.00,  2023.29,  78.8152,     401,  2700.00,  2853.00,  2783.00,  2779.12,  52.4289,

Measurements:
Wavelength, Data Amplitude
1350, 1967.00
1351, 1967.00
1352, 1966.00
1353, 1967.00
1354, 1966.00
1355, 1966.00
1356, 1966.00
1357, 1963.00
1358, 1965.00
1359, 1963.00
1360, 1964.00
1361, 1962.00
1362, 1962.00
1363, 1961.00
1364, 1961.00
1365, 1960.00
1366, 1959.00
1367, 1960.00
1368, 1957.00
1369, 1957.00
1370, 1956.00
1371, 1956.00
1372, 1955.00
1373, 1954.00
1374, 1953.00
1375, 1951.00
1376, 1951.00
1377, 1949.00
1378, 1949.00
1379, 1949.00
1380, 1949.00
1381, 1948.00
1382, 1947.00
1383, 1946.00
1384, 1947.00
1385, 1945.00
1386, 1945.00
1387, 1945.00
1388, 1944.00
1389, 1944.00
1390, 1944.00
1391, 1944.00
1392, 1944.00
1393, 1943.00
1394, 1943.00
1395, 1942.00
1396, 1942.00
1397, 1942.00
1398, 1942.00
1399, 1942.00
1400, 1941.00
1401, 1941.00
1402, 1942.00
1403, 1941.00
1404, 1941.00
1405, 1942.00
1406, 1941.00
1407, 1941.00
1408, 1941.00
1409, 1941.00
1410, 1940.00
1411, 1941.00
1412, 1941.00
1413, 1940.00
1414, 1940.00
1415, 1941.00
1416, 1941.00
1417, 1940.00
1418, 1941.00
1419, 1941.00
1420, 1941.00
1421, 1941.00
1422, 1941.00
1423, 1941.00
1424, 1941.00
1425, 1942.00
1426, 1943.00
1427, 1941.00
1428, 1942.00
1429, 1942.00
1430, 1943.00
1431, 1944.00
1432, 1944.00
1433, 1945.00
1434, 1946.00
1435, 1945.00
1436, 1946.00
1437, 1948.00
1438, 1947.00
1439, 1946.00
1440, 1947.00
1441, 1947.00
1442, 1949.00
1443, 1949.00
1444, 1949.00
1445, 1951.00
1446, 1951.00
1447, 1951.00
1448, 1951.00
1449, 1952.00
1450, 1954.00
1451, 1954.00
1452, 1954.00
1453, 1955.00
1454, 1956.00
1455, 1956.00
1456, 1957.00
1457, 1957.00
1458, 1958.00
1459, 1959.00
1460, 1959.00
1461, 1960.00
1462, 1961.00
1463, 1963.00
1464, 1962.00
1465, 1963.00
1466, 1964.00
1467, 1965.00
1468, 1965.00
1469, 1965.00
1470, 1967.00
1471, 1968.00
1472, 1969.00
1473, 1970.00
1474, 1971.00
1475, 1973.00
1476, 1974.00
1477, 1973.00
1478, 1975.00
1479, 1976.00
1480, 1976.00
1481, 1978.00
1482, 1979.00
1483, 1980.00
1484, 1981.00
1485, 1982.00
1486, 1983.00
1487, 1985.00
1488, 1984.00
1489, 1986.00
1490, 1987.00
1491, 1989.00
1492, 1988.00
1493, 1992.00
1494, 1991.00
1495, 1993.00
1496, 1993.00
1497, 1995.00
1498, 1995.00
1499, 1997.00
1500, 1997.00
1501, 1998.00
1502, 1999.00
1503, 2001.00
1504, 2001.00
1505, 2002.00
1506, 2002.00
1507, 2004.00
1508, 2006.00
1509, 2007.00
1510, 2008.00
1511, 2008.00
1512, 2010.00
1513, 2011.00
1514, 2012.00
1515, 2013.00
1516, 2014.00
1517, 2015.00
1518, 2017.00
1519, 2017.00
1520, 2019.00
1521, 2019.00
1522, 2021.00
1523, 2022.00
1524, 2023.00
1525, 2024.00
1526, 2026.00
1527, 2027.00
1528, 2027.00
1529, 2029.00
1530, 2029.00
1531, 2031.00
1532, 2032.00
1533, 2033.00
1534, 2034.00
1535, 2035.00
1536, 2037.00
1537, 2039.00
1538, 2039.00
1539, 2040.00
1540, 2042.00
1541, 2042.00
1542, 2045.00
1543, 2045.00
1544, 2046.00
1545, 2048.00
1546, 2049.00
1547, 2050.00
1548, 2051.00
1549, 2053.00
1550, 2054.00
1551, 2055.00
1552, 2057.00
1553, 2057.00
1554, 2059.00
1555, 2060.00
1556, 2061.00
1557, 2064.00
1558, 2066.00
1559, 2066.00
1560, 2067.00
1561, 2068.00
1562, 2071.00
1563, 2072.00
1564, 2073.00
1565, 2075.00
1566, 2077.00
1567, 2079.00
1568, 2079.00
1569, 2080.00
1570, 2082.00
1571, 2083.00
1572, 2084.00
1573, 2087.00
1574, 2087.00
1575, 2089.00
1576, 2089.00
1577, 2091.00
1578, 2093.00
1579, 2095.00
1580, 2094.00
1581, 2096.00
1582, 2097.00
1583, 2099.00
1584, 2100.00
1585, 2101.00
1586, 2102.00
1587, 2103.00
1588, 2104.00
1589, 2106.00
1590, 2106.00
1591, 2107.00
1592, 2109.00
1593, 2111.00
1594, 2112.00
1595, 2113.00
1596, 2114.00
1597, 2116.00
1598, 2118.00
1599, 2117.00
1600, 2119.00
1601, 2121.00
1602, 2121.00
1603, 2123.00
1604, 2126.00
1605, 2126.00
1606, 2126.00
1607, 2128.00
1608, 2129.00
1609, 2132.00
1610, 2133.00
1611, 2135.00
1612, 2137.00
1613, 2137.00
1614, 2139.00
1615, 2141.00
1616, 2143.00
1617, 2145.00
1618, 2146.00
1619, 2148.00
1620, 2150.00
1621, 2151.00
1622, 2152.00
1623, 2154.00
1624, 2156.00
1625, 2157.00
1626, 2159.00
1627, 2160.00
1628, 2162.00
1629, 2164.00
1630, 2166.00
1631, 2167.00
1632, 2168.00
1633, 2169.00
1634, 2170.00
1635, 2173.00
1636, 2173.00
1637, 2175.00
1638, 2175.00
1639, 2177.00
1640, 2178.00
1641, 2179.00
1642, 2181.00
1643, 2183.00
1644, 2184.00
1645, 2186.00
1646, 2186.00
1647, 2189.00
1648, 2190.00
1649, 2191.00
1650, 2194.00

1750, 2852.00
1751, 2851.00
1752, 2853.00
1753, 2853.00
1754, 2851.00
1755, 2853.00
1756, 2851.00
1757, 2851.00
1758, 2851.00
1759, 2850.00
1760, 2852.00
1761, 2850.00
1762, 2851.00
1763, 2851.00
1764, 2852.00
1765, 2852.00
1766, 2848.00
1767, 2849.00
1768, 2849.00
1769, 2851.00
1770, 2850.00
1771, 2850.00
1772, 2847.00
1773, 2848.00
1774, 2848.00
1775, 2847.00
1776, 2846.00
1777, 2846.00
1778, 2845.00
1779, 2846.00
1780, 2843.00
1781, 2845.00
1782, 2846.00
1783, 2843.00
1784, 2843.00
1785, 2840.00
1786, 2841.00
1787, 2840.00
1788, 2838.00
1789, 2839.00
1790, 2839.00
1791, 2837.00
1792, 2839.00
1793, 2836.00
1794, 2836.00
1795, 2836.00
1796, 2838.00
1797, 2835.00
1798, 2835.00
1799, 2835.00
1800, 2834.00
1801, 2832.00
1802, 2835.00
1803, 2833.00
1804, 2833.00
1805, 2833.00
1806, 2832.00
1807, 2831.00
1808, 2831.00
1809, 2832.00
1810, 2830.00
1811, 2830.00
1812, 2829.00
1813, 2830.00
1814, 2830.00
1815, 2830.00
1816, 2830.00
1817, 2829.00
1818, 2827.00
1819, 2826.00
1820, 2825.00
1821, 2825.00
1822, 2825.00
1823, 2824.00
1824, 2825.00
1825, 2823.00
1826, 2823.00
1827, 2820.00
1828, 2822.00
1829, 2820.00
1830, 2818.00
1831, 2818.00
1832, 2815.00
1833, 2814.00
1834, 2814.00
1835, 2813.00
1836, 2810.00
1837, 2811.00
1838, 2807.00
1839, 2805.00
1840, 2806.00
1841, 2803.00
1842, 2800.00
1843, 2797.00
1844, 2797.00
1845, 2796.00
1846, 2791.00
1847, 2788.00
1848, 2789.00
1849, 2787.00
1850, 2781.00
1851, 2780.00
1852, 2778.00
1853, 2774.00
1854, 2771.00
1855, 2770.00
1856, 2765.00
1857, 2765.00
1858, 2760.00
1859, 2760.00
1860, 2759.00
1861, 2752.00
1862, 2752.00
1863, 2750.00
1864, 2748.00
1865, 2745.00
1866, 2743.00
1867, 2739.00
1868, 2739.00
1869, 2737.00
1870, 2736.00
1871, 2734.00
1872, 2729.00
1873, 2728.00
1874, 2728.00
1875, 2725.00
1876, 2726.00
1877, 2723.00
1878, 2722.00
1879, 2720.00
1880, 2721.00
1881, 2719.00
1882, 2717.00
1883, 2716.00
1884, 2716.00
1885, 2713.00
1886, 2714.00
1887, 2713.00
1888, 2711.00
1889, 2712.00
1890, 2709.00
1891, 2712.00
1892, 2709.00
1893, 2710.00
1894, 2706.00
1895, 2707.00
1896, 2707.00
1897, 2707.00
1898, 2707.00
1899, 2707.00
1900, 2705.00
1901, 2704.00
1902, 2704.00
1903, 2705.00
1904, 2704.00
1905, 2704.00
1906, 2703.00
1907, 2703.00
1908, 2704.00
1909, 2705.00
1910, 2701.00
1911, 2701.00
1912, 2703.00
1913, 2702.00
1914, 2703.00
1915, 2700.00
1916, 2701.00
1917, 2702.00
1918, 2701.00
1919, 2702.00
1920, 2702.00
1921, 2703.00
1922, 2702.00
1923, 2702.00
1924, 2702.00
1925, 2703.00
1926, 2702.00
1927, 2701.00
1928, 2703.00
1929, 2703.00
1930, 2703.00
1931, 2703.00
1932, 2703.00
1933, 2703.00
1934, 2705.00
1935, 2703.00
1936, 2704.00
1937, 2705.00
1938, 2703.00
1939, 2705.00
1940, 2705.00
1941, 2705.00
1942, 2707.00
1943, 2707.00
1944, 2706.00
1945, 2706.00
1946, 2708.00
1947, 2707.00
1948, 2708.00
1949, 2709.00
1950, 2709.00
1951, 2710.00
1952, 2709.00
1953, 2709.00
1954, 2711.00
1955, 2713.00
1956, 2712.00
1957, 2713.00
1958, 2714.00
1959, 2713.00
1960, 2716.00
1961, 2716.00
1962, 2719.00
1963, 2716.00
1964, 2717.00
1965, 2720.00
1966, 2717.00
1967, 2719.00
1968, 2722.00
1969, 2720.00
1970, 2722.00
1971, 2722.00
1972, 2725.00
1973, 2723.00
1974, 2724.00
1975, 2725.00
1976, 2726.00
1977, 2729.00
1978, 2729.00
1979, 2729.00
1980, 2729.00
1981, 2731.00
1982, 2731.00
1983, 2731.00
1984, 2731.00
1985, 2734.00
1986, 2735.00
1987, 2735.00
1988, 2736.00
1989, 2736.00
1990, 2738.00
1991, 2737.00
1992, 2739.00
1993, 2740.00
1994, 2739.00
1995, 2742.00
1996, 2742.00
1997, 2742.00
1998, 2743.00
1999, 2744.00
2000, 2745.00
2001, 2746.00
2002, 2746.00
2003, 2747.00
2004, 2747.00
2005, 2749.00
2006, 2748.00
2007, 2749.00
2008, 2751.00
2009, 2751.00
2010, 2750.00
2011, 2753.00
2012, 2754.00
2013, 2753.00
2014, 2754.00
2015, 2757.00
2016, 2755.00
2017, 2759.00
2018, 2757.00
2019, 2760.00
2020, 2758.00
2021, 2762.00
2022, 2760.00
2023, 2761.00
2024, 2764.00
2025, 2763.00
2026, 2764.00
2027, 2764.00
2028, 2766.00
2029, 2766.00
2030, 2765.00
2031, 2767.00
2032, 2769.00
2033, 2769.00
2034, 2771.00
2035, 2771.00
2036, 2772.00
2037, 2771.00
2038, 2773.00
2039, 2773.00
2040, 2775.00
2041, 2774.00
2042, 2777.00
2043, 2776.00
2044, 2779.00
2045, 2778.00
2046, 2781.00
2047, 2780.00
2048, 2783.00
2049, 2782.00
2050, 2783.00
2051, 2783.00
2052, 2786.00
2053, 2789.00
2054, 2787.00
2055, 2791.00
2056, 2789.00
2057, 2791.00
2058, 2791.00
2059, 2793.00
2060, 2794.00
2061, 2795.00
2062, 2797.00
2063, 2797.00
2064, 2800.00
2065, 2799.00
2066, 2801.00
2067, 2801.00
2068, 2802.00
2069, 2804.00
2070, 2804.00
2071, 2806.00
2072, 2808.00
2073, 2807.00
2074, 2811.00
2075, 2810.00
2076, 2809.00
2077, 2811.00
2078, 2813.00
2079, 2813.00
2080, 2812.00
2081, 2814.00
2082, 2815.00
2083, 2817.00
2084, 2817.00
2085, 2817.00
2086, 2818.00
2087, 2818.00
2088, 2821.00
2089, 2820.00
2090, 2820.00
2091, 2820.00
2092, 2822.00
2093, 2823.00
2094, 2824.00
2095, 2824.00
2096, 2823.00
2097, 2825.00
2098, 2825.00
2099, 2825.00
2100, 2828.00
2101, 2828.00
2102, 2830.00
2103, 2828.00
2104, 2827.00
2105, 2829.00
2106, 2831.00
2107, 2830.00
2108, 2831.00
2109, 2831.00
2110, 2831.00
2111, 2832.00
2112, 2831.00
2113, 2832.00
2114, 2831.00
2115, 2832.00
2116, 2832.00
2117, 2833.00
2118, 2832.00
2119, 2833.00
2120, 2835.00
2121, 2834.00
2122, 2833.00
2123, 2833.00
2124, 2834.00
2125, 2835.00
2126, 2835.00
2127, 2836.00
2128, 2837.00
2129, 2837.00
2130, 2837.00
2131, 2835.00
2132, 2838.00
2133, 2837.00
2134, 2837.00
2135, 2838.00
2136, 2837.00
2137, 2839.00
2138, 2839.00
2139, 2837.00
2140, 2838.00
2141, 2840.00
2142, 2839.00
2143, 2839.00
2144, 2840.00
2145, 2839.00
2146, 2839.00
2147, 2841.00
2148, 2840.00
2149, 2840.00
2150, 2840.00
