FW version: 24
Log Version: 3.0.3

General Info:
       Command/Macro Performed,            Timestamp,             Device ID, COM Port, UART/I2C, Test Name, Host Major, Host Minor, Host Revision, Host Git Commit
            Single_measurement,  2023_06_27_12_40_25,       Insight2_F4_xxx,    USB-C,      USB,          ,          0,          1,             1,      4031237645

Show Spectrometer Status:
l0_version, f4_version, battery_perc, battery_mVolt, accelerometer_temp, accelerometer_x, accelerometer_y, accelerometer_z, compass_temp, compass_x, compass_y, compass_z, lamp_0, lamp_1, gain_0, gain_1
        17,         24,           95,          2078,               5760,             604,           65220,           18452,            0,     65407,     65485,     65398,   3276,   3276,    1,    1

Temperature Statistic Info:
NTC AVG [°C], NTC2 AVG [°C]
      37.669,        37.411

Statistic Info:
M1:  num,      min,      max,   median,      AVG,      STD,M2:  num,      min,      max,   median,      AVG,      STD
     301,  1940.00,  2193.00,  1997.00,  2024.01,  78.8103,     401,  2701.00,  2854.00,  2785.00,  2779.81,  52.4172,

Measurements:
Wavelength, Data Amplitude
1350, 1967.00
1351, 1967.00
1352, 1967.00
1353, 1968.00
1354, 1966.00
1355, 1967.00
1356, 1967.00
1357, 1965.00
1358, 1965.00
1359, 1964.00
1360, 1965.00
1361, 1963.00
1362, 1963.00
1363, 1962.00
1364, 1961.00
1365, 1960.00
1366, 1961.00
1367, 1960.00
1368, 1958.00
1369, 1958.00
1370, 1957.00
1371, 1957.00
1372, 1955.00
1373, 1955.00
1374, 1954.00
1375, 1953.00
1376, 1951.00
1377, 1951.00
1378, 1951.00
1379, 1950.00
1380, 1950.00
1381, 1950.00
1382, 1948.00
1383, 1949.00
1384, 1947.00
1385, 1946.00
1386, 1945.00
1387, 1946.00
1388, 1945.00
1389, 1945.00
1390, 1945.00
1391, 1944.00
1392, 1945.00
1393, 1944.00
1394, 1943.00
1395, 1942.00
1396, 1943.00
1397, 1944.00
1398, 1943.00
1399, 1943.00
1400, 1943.00
1401, 1943.00
1402, 1943.00
1403, 1942.00
1404, 1942.00
1405, 1942.00
1406, 1942.00
1407, 1942.00
1408, 1941.00
1409, 1942.00
1410, 1941.00
1411, 1942.00
1412, 1941.00
1413, 1941.00
1414, 1940.00
1415, 1941.00
1416, 1941.00
1417, 1942.00
1418, 1940.00
1419, 1941.00
1420, 1942.00
1421, 1942.00
1422, 1941.00
1423, 1942.00
1424, 1942.00
1425, 1942.00
1426, 1943.00
1427, 1943.00
1428, 1943.00
1429, 1943.00
1430, 1945.00
1431, 1944.00
1432, 1944.00
1433, 1945.00
1434, 1945.00
1435, 1945.00
1436, 1947.00
1437, 1946.00
1438, 1947.00
1439, 1948.00
1440, 1949.00
1441, 1949.00
1442, 1949.00
1443, 1949.00
1444, 1950.00
1445, 1951.00
1446, 1952.00
1447, 1953.00
1448, 1952.00
1449, 1953.00
1450, 1955.00
1451, 1953.00
1452, 1955.00
1453, 1956.00
1454, 1957.00
1455, 1956.00
1456, 1957.00
1457, 1958.00
1458, 1959.00
1459, 1959.00
1460, 1960.00
1461, 1960.00
1462, 1962.00
1463, 1962.00
1464, 1963.00
1465, 1964.00
1466, 1966.00
1467, 1965.00
1468, 1967.00
1469, 1967.00
1470, 1968.00
1471, 1969.00
1472, 1969.00
1473, 1970.00
1474, 1971.00
1475, 1972.00
1476, 1973.00
1477, 1975.00
1478, 1975.00
1479, 1977.00
1480, 1978.00
1481, 1979.00
1482, 1980.00
1483, 1981.00
1484, 1981.00
1485, 1983.00
1486, 1984.00
1487, 1985.00
1488, 1986.00
1489, 1987.00
1490, 1989.00
1491, 1989.00
1492, 1990.00
1493, 1990.00
1494, 1991.00
1495, 1993.00
1496, 1994.00
1497, 1995.00
1498, 1995.00
1499, 1996.00
1500, 1997.00
1501, 1999.00
1502, 1999.00
1503, 2001.00
1504, 2002.00
1505, 2003.00
1506, 2005.00
1507, 2005.00
1508, 2005.00
1509, 2007.00
1510, 2008.00
1511, 2009.00
1512, 2011.00
1513, 2012.00
1514, 2012.00
1515, 2014.00
1516, 2015.00
1517, 2015.00
1518, 2018.00
1519, 2019.00
1520, 2019.00
1521, 2020.00
1522, 2021.00
1523, 2022.00
1524, 2023.00
1525, 2024.00
1526, 2027.00
1527, 2027.00
1528, 2027.00
1529, 2029.00
1530, 2031.00
1531, 2031.00
1532, 2033.00
1533, 2034.00
1534, 2036.00
1535, 2037.00
1536, 2038.00
1537, 2039.00
1538, 2041.00
1539, 2041.00
1540, 2043.00
1541, 2044.00
1542, 2044.00
1543, 2046.00
1544, 2048.00
1545, 2049.00
1546, 2049.00
1547, 2051.00
1548, 2053.00
1549, 2054.00
1550, 2055.00
1551, 2056.00
1552, 2058.00
1553, 2059.00
1554, 2059.00
1555, 2061.00
1556, 2062.00
1557, 2066.00
1558, 2066.00
1559, 2066.00
1560, 2067.00
1561, 2069.00
1562, 2071.00
1563, 2073.00
1564, 2074.00
1565, 2074.00
1566, 2077.00
1567, 2078.00
1568, 2079.00
1569, 2082.00
1570, 2083.00
1571, 2083.00
1572, 2086.00
1573, 2087.00
1574, 2087.00
1575, 2089.00
1576, 2090.00
1577, 2092.00
1578, 2094.00
1579, 2093.00
1580, 2096.00
1581, 2096.00
1582, 2097.00
1583, 2099.00
1584, 2101.00
1585, 2101.00
1586, 2103.00
1587, 2104.00
1588, 2104.00
1589, 2106.00
1590, 2107.00
1591, 2109.00
1592, 2110.00
1593, 2110.00
1594, 2112.00
1595, 2115.00
1596, 2115.00
1597, 2116.00
1598, 2118.00
1599, 2120.00
1600, 2121.00
1601, 2121.00
1602, 2123.00
1603, 2124.00
1604, 2125.00
1605, 2127.00
1606, 2128.00
1607, 2130.00
1608, 2131.00
1609, 2132.00
1610, 2134.00
1611, 2136.00
1612, 2138.00
1613, 2138.00
1614, 2140.00
1615, 2143.00
1616, 2144.00
1617, 2145.00
1618, 2147.00
1619, 2149.00
1620, 2150.00
1621, 2152.00
1622, 2154.00
1623, 2156.00
1624, 2157.00
1625, 2157.00
1626, 2159.00
1627, 2161.00
1628, 2162.00
1629, 2165.00
1630, 2165.00
1631, 2167.00
1632, 2168.00
1633, 2170.00
1634, 2171.00
1635, 2173.00
1636, 2173.00
1637, 2176.00
1638, 2177.00
1639, 2178.00
1640, 2180.00
1641, 2181.00
1642, 2182.00
1643, 2184.00
1644, 2184.00
1645, 2187.00
1646, 2188.00
1647, 2188.00
1648, 2190.00
1649, 2191.00
1650, 2193.00

1750, 2851.00
1751, 2850.00
1752, 2851.00
1753, 2852.00
1754, 2854.00
1755, 2851.00
1756, 2851.00
1757, 2851.00
1758, 2851.00
1759, 2851.00
1760, 2853.00
1761, 2853.00
1762, 2851.00
1763, 2850.00
1764, 2852.00
1765, 2852.00
1766, 2850.00
1767, 2852.00
1768, 2850.00
1769, 2851.00
1770, 2851.00
1771, 2849.00
1772, 2851.00
1773, 2851.00
1774, 2849.00
1775, 2849.00
1776, 2849.00
1777, 2847.00
1778, 2846.00
1779, 2845.00
1780, 2845.00
1781, 2846.00
1782, 2844.00
1783, 2842.00
1784, 2844.00
1785, 2844.00
1786, 2842.00
1787, 2843.00
1788, 2841.00
1789, 2840.00
1790, 2838.00
1791, 2839.00
1792, 2840.00
1793, 2838.00
1794, 2836.00
1795, 2837.00
1796, 2836.00
1797, 2838.00
1798, 2836.00
1799, 2835.00
1800, 2836.00
1801, 2834.00
1802, 2835.00
1803, 2835.00
1804, 2834.00
1805, 2833.00
1806, 2833.00
1807, 2834.00
1808, 2833.00
1809, 2832.00
1810, 2832.00
1811, 2832.00
1812, 2831.00
1813, 2831.00
1814, 2832.00
1815, 2831.00
1816, 2829.00
1817, 2828.00
1818, 2829.00
1819, 2828.00
1820, 2828.00
1821, 2826.00
1822, 2826.00
1823, 2824.00
1824, 2823.00
1825, 2823.00
1826, 2824.00
1827, 2823.00
1828, 2820.00
1829, 2819.00
1830, 2819.00
1831, 2817.00
1832, 2817.00
1833, 2815.00
1834, 2815.00
1835, 2813.00
1836, 2812.00
1837, 2810.00
1838, 2807.00
1839, 2807.00
1840, 2807.00
1841, 2802.00
1842, 2801.00
1843, 2797.00
1844, 2797.00
1845, 2795.00
1846, 2793.00
1847, 2791.00
1848, 2788.00
1849, 2785.00
1850, 2785.00
1851, 2779.00
1852, 2778.00
1853, 2775.00
1854, 2774.00
1855, 2771.00
1856, 2769.00
1857, 2765.00
1858, 2761.00
1859, 2760.00
1860, 2758.00
1861, 2757.00
1862, 2752.00
1863, 2750.00
1864, 2748.00
1865, 2745.00
1866, 2743.00
1867, 2742.00
1868, 2738.00
1869, 2737.00
1870, 2735.00
1871, 2733.00
1872, 2732.00
1873, 2731.00
1874, 2728.00
1875, 2727.00
1876, 2727.00
1877, 2723.00
1878, 2724.00
1879, 2722.00
1880, 2719.00
1881, 2717.00
1882, 2717.00
1883, 2716.00
1884, 2717.00
1885, 2717.00
1886, 2714.00
1887, 2715.00
1888, 2711.00
1889, 2713.00
1890, 2712.00
1891, 2711.00
1892, 2711.00
1893, 2711.00
1894, 2709.00
1895, 2708.00
1896, 2707.00
1897, 2709.00
1898, 2708.00
1899, 2705.00
1900, 2707.00
1901, 2707.00
1902, 2706.00
1903, 2706.00
1904, 2704.00
1905, 2705.00
1906, 2705.00
1907, 2703.00
1908, 2703.00
1909, 2704.00
1910, 2703.00
1911, 2703.00
1912, 2704.00
1913, 2704.00
1914, 2704.00
1915, 2701.00
1916, 2703.00
1917, 2703.00
1918, 2703.00
1919, 2702.00
1920, 2702.00
1921, 2703.00
1922, 2703.00
1923, 2703.00
1924, 2702.00
1925, 2702.00
1926, 2704.00
1927, 2703.00
1928, 2703.00
1929, 2703.00
1930, 2705.00
1931, 2704.00
1932, 2704.00
1933, 2705.00
1934, 2703.00
1935, 2704.00
1936, 2703.00
1937, 2707.00
1938, 2704.00
1939, 2704.00
1940, 2706.00
1941, 2706.00
1942, 2706.00
1943, 2708.00
1944, 2707.00
1945, 2707.00
1946, 2708.00
1947, 2709.00
1948, 2709.00
1949, 2709.00
1950, 2710.00
1951, 2710.00
1952, 2712.00
1953, 2710.00
1954, 2712.00
1955, 2711.00
1956, 2712.00
1957, 2713.00
1958, 2714.00
1959, 2715.00
1960, 2715.00
1961, 2716.00
1962, 2717.00
1963, 2719.00
1964, 2719.00
1965, 2719.00
1966, 2720.00
1967, 2721.00
1968, 2720.00
1969, 2722.00
1970, 2722.00
1971, 2723.00
1972, 2724.00
1973, 2725.00
1974, 2725.00
1975, 2727.00
1976, 2728.00
1977, 2729.00
1978, 2728.00
1979, 2729.00
1980, 2732.00
1981, 2732.00
1982, 2732.00
1983, 2731.00
1984, 2734.00
1985, 2735.00
1986, 2736.00
1987, 2734.00
1988, 2735.00
1989, 2739.00
1990, 2739.00
1991, 2738.00
1992, 2739.00
1993, 2741.00
1994, 2740.00
1995, 2742.00
1996, 2742.00
1997, 2743.00
1998, 2743.00
1999, 2744.00
2000, 2745.00
2001, 2745.00
2002, 2747.00
2003, 2748.00
2004, 2748.00
2005, 2749.00
2006, 2749.00
2007, 2748.00
2008, 2751.00
2009, 2752.00
2010, 2752.00
2011, 2754.00
2012, 2753.00
2013, 2756.00
2014, 2755.00
2015, 2756.00
2016, 2756.00
2017, 2757.00
2018, 2759.00
2019, 2759.00
2020, 2760.00
2021, 2759.00
2022, 2761.00
2023, 2763.00
2024, 2764.00
2025, 2762.00
2026, 2763.00
2027, 2765.00
2028, 2763.00
2029, 2765.00
2030, 2767.00
2031, 2768.00
2032, 2767.00
2033, 2769.00
2034, 2770.00
2035, 2772.00
2036, 2772.00
2037, 2773.00
2038, 2772.00
2039, 2776.00
2040, 2775.00
2041, 2777.00
2042, 2777.00
2043, 2778.00
2044, 2780.00
2045, 2780.00
2046, 2781.00
2047, 2781.00
2048, 2782.00
2049, 2784.00
2050, 2786.00
2051, 2787.00
2052, 2788.00
2053, 2789.00
2054, 2787.00
2055, 2789.00
2056, 2791.00
2057, 2793.00
2058, 2793.00
2059, 2793.00
2060, 2795.00
2061, 2795.00
2062, 2798.00
2063, 2798.00
2064, 2798.00
2065, 2800.00
2066, 2801.00
2067, 2802.00
2068, 2803.00
2069, 2806.00
2070, 2805.00
2071, 2807.00
2072, 2807.00
2073, 2808.00
2074, 2808.00
2075, 2812.00
2076, 2810.00
2077, 2812.00
2078, 2812.00
2079, 2812.00
2080, 2815.00
2081, 2815.00
2082, 2813.00
2083, 2815.00
2084, 2817.00
2085, 2818.00
2086, 2820.00
2087, 2819.00
2088, 2819.00
2089, 2820.00
2090, 2822.00
2091, 2822.00
2092, 2822.00
2093, 2823.00
2094, 2823.00
2095, 2824.00
2096, 2827.00
2097, 2827.00
2098, 2826.00
2099, 2826.00
2100, 2829.00
2101, 2828.00
2102, 2828.00
2103, 2828.00
2104, 2829.00
2105, 2830.00
2106, 2830.00
2107, 2830.00
2108, 2831.00
2109, 2832.00
2110, 2831.00
2111, 2831.00
2112, 2833.00
2113, 2832.00
2114, 2833.00
2115, 2833.00
2116, 2834.00
2117, 2834.00
2118, 2835.00
2119, 2833.00
2120, 2833.00
2121, 2834.00
2122, 2834.00
2123, 2834.00
2124, 2836.00
2125, 2835.00
2126, 2836.00
2127, 2837.00
2128, 2835.00
2129, 2836.00
2130, 2837.00
2131, 2838.00
2132, 2839.00
2133, 2838.00
2134, 2839.00
2135, 2839.00
2136, 2838.00
2137, 2838.00
2138, 2839.00
2139, 2839.00
2140, 2839.00
2141, 2839.00
2142, 2841.00
2143, 2840.00
2144, 2840.00
2145, 2839.00
2146, 2841.00
2147, 2840.00
2148, 2841.00
2149, 2839.00
2150, 2841.00
