FW version: 24
Log Version: 3.0.3

General Info:
       Command/Macro Performed,            Timestamp,             Device ID, COM Port, UART/I2C, Test Name, Host Major, Host Minor, Host Revision, Host Git Commit
            Single_measurement,  2023_06_27_12_40_19,       Insight2_F4_xxx,    USB-C,      USB,          ,          0,          1,             1,      4031237645

Show Spectrometer Status:
l0_version, f4_version, battery_perc, battery_mVolt, accelerometer_temp, accelerometer_x, accelerometer_y, accelerometer_z, compass_temp, compass_x, compass_y, compass_z, lamp_0, lamp_1, gain_0, gain_1
        17,         24,           95,          2079,               5744,             624,           65228,           18504,            0,     65395,     65533,     65484,   2866,   2866,    1,    1

Temperature Statistic Info:
NTC AVG [°C], NTC2 AVG [°C]
      37.583,        37.324

Statistic Info:
M1:  num,      min,      max,   median,      AVG,      STD,M2:  num,      min,      max,   median,      AVG,      STD
     301,  1510.00,  1715.00,  1558.00,  1578.07,  63.5364,     401,  2177.00,  2301.00,  2247.00,  2241.90,  42.7873,

Measurements:
Wavelength, Data Amplitude
1350, 1532.00
1351, 1532.00
1352, 1531.00
1353, 1530.00
1354, 1530.00
1355, 1530.00
1356, 1529.00
1357, 1529.00
1358, 1529.00
1359, 1529.00
1360, 1529.00
1361, 1527.00
1362, 1528.00
1363, 1527.00
1364, 1526.00
1365, 1526.00
1366, 1526.00
1367, 1525.00
1368, 1524.00
1369, 1523.00
1370, 1523.00
1371, 1524.00
1372, 1522.00
1373, 1521.00
1374, 1520.00
1375, 1520.00
1376, 1519.00
1377, 1519.00
1378, 1518.00
1379, 1516.00
1380, 1518.00
1381, 1517.00
1382, 1517.00
1383, 1515.00
1384, 1515.00
1385, 1515.00
1386, 1514.00
1387, 1514.00
1388, 1515.00
1389, 1514.00
1390, 1514.00
1391, 1513.00
1392, 1512.00
1393, 1513.00
1394, 1514.00
1395, 1512.00
1396, 1513.00
1397, 1513.00
1398, 1512.00
1399, 1511.00
1400, 1513.00
1401, 1512.00
1402, 1512.00
1403, 1511.00
1404, 1511.00
1405, 1512.00
1406, 1512.00
1407, 1512.00
1408, 1511.00
1409, 1512.00
1410, 1511.00
1411, 1511.00
1412, 1513.00
1413, 1511.00
1414, 1511.00
1415, 1512.00
1416, 1511.00
1417, 1512.00
1418, 1512.00
1419, 1510.00
1420, 1512.00
1421, 1512.00
1422, 1511.00
1423, 1512.00
1424, 1511.00
1425, 1513.00
1426, 1512.00
1427, 1513.00
1428, 1513.00
1429, 1513.00
1430, 1513.00
1431, 1514.00
1432, 1514.00
1433, 1515.00
1434, 1515.00
1435, 1515.00
1436, 1515.00
1437, 1517.00
1438, 1515.00
1439, 1518.00
1440, 1517.00
1441, 1517.00
1442, 1518.00
1443, 1518.00
1444, 1519.00
1445, 1519.00
1446, 1520.00
1447, 1520.00
1448, 1521.00
1449, 1521.00
1450, 1522.00
1451, 1523.00
1452, 1523.00
1453, 1523.00
1454, 1524.00
1455, 1524.00
1456, 1524.00
1457, 1525.00
1458, 1526.00
1459, 1526.00
1460, 1527.00
1461, 1528.00
1462, 1527.00
1463, 1529.00
1464, 1529.00
1465, 1530.00
1466, 1531.00
1467, 1531.00
1468, 1532.00
1469, 1533.00
1470, 1533.00
1471, 1534.00
1472, 1535.00
1473, 1535.00
1474, 1536.00
1475, 1537.00
1476, 1538.00
1477, 1538.00
1478, 1540.00
1479, 1541.00
1480, 1542.00
1481, 1542.00
1482, 1544.00
1483, 1544.00
1484, 1545.00
1485, 1546.00
1486, 1547.00
1487, 1547.00
1488, 1549.00
1489, 1550.00
1490, 1550.00
1491, 1551.00
1492, 1552.00
1493, 1552.00
1494, 1553.00
1495, 1553.00
1496, 1555.00
1497, 1555.00
1498, 1557.00
1499, 1557.00
1500, 1558.00
1501, 1558.00
1502, 1560.00
1503, 1560.00
1504, 1560.00
1505, 1561.00
1506, 1562.00
1507, 1564.00
1508, 1564.00
1509, 1564.00
1510, 1566.00
1511, 1566.00
1512, 1568.00
1513, 1568.00
1514, 1570.00
1515, 1571.00
1516, 1571.00
1517, 1573.00
1518, 1573.00
1519, 1573.00
1520, 1575.00
1521, 1575.00
1522, 1576.00
1523, 1578.00
1524, 1579.00
1525, 1579.00
1526, 1581.00
1527, 1583.00
1528, 1583.00
1529, 1584.00
1530, 1584.00
1531, 1585.00
1532, 1586.00
1533, 1587.00
1534, 1589.00
1535, 1590.00
1536, 1590.00
1537, 1591.00
1538, 1591.00
1539, 1593.00
1540, 1593.00
1541, 1595.00
1542, 1595.00
1543, 1596.00
1544, 1598.00
1545, 1598.00
1546, 1599.00
1547, 1600.00
1548, 1601.00
1549, 1602.00
1550, 1603.00
1551, 1604.00
1552, 1604.00
1553, 1606.00
1554, 1608.00
1555, 1607.00
1556, 1609.00
1557, 1610.00
1558, 1611.00
1559, 1613.00
1560, 1613.00
1561, 1614.00
1562, 1616.00
1563, 1617.00
1564, 1618.00
1565, 1620.00
1566, 1621.00
1567, 1621.00
1568, 1623.00
1569, 1624.00
1570, 1625.00
1571, 1625.00
1572, 1627.00
1573, 1629.00
1574, 1629.00
1575, 1629.00
1576, 1632.00
1577, 1633.00
1578, 1633.00
1579, 1635.00
1580, 1636.00
1581, 1636.00
1582, 1637.00
1583, 1638.00
1584, 1639.00
1585, 1640.00
1586, 1642.00
1587, 1642.00
1588, 1643.00
1589, 1643.00
1590, 1645.00
1591, 1646.00
1592, 1648.00
1593, 1647.00
1594, 1649.00
1595, 1650.00
1596, 1651.00
1597, 1652.00
1598, 1653.00
1599, 1654.00
1600, 1656.00
1601, 1656.00
1602, 1657.00
1603, 1657.00
1604, 1660.00
1605, 1661.00
1606, 1661.00
1607, 1663.00
1608, 1664.00
1609, 1664.00
1610, 1666.00
1611, 1668.00
1612, 1669.00
1613, 1671.00
1614, 1672.00
1615, 1673.00
1616, 1673.00
1617, 1675.00
1618, 1677.00
1619, 1677.00
1620, 1679.00
1621, 1680.00
1622, 1682.00
1623, 1683.00
1624, 1685.00
1625, 1686.00
1626, 1687.00
1627, 1689.00
1628, 1691.00
1629, 1691.00
1630, 1692.00
1631, 1694.00
1632, 1695.00
1633, 1696.00
1634, 1698.00
1635, 1698.00
1636, 1699.00
1637, 1701.00
1638, 1702.00
1639, 1703.00
1640, 1703.00
1641, 1704.00
1642, 1704.00
1643, 1707.00
1644, 1708.00
1645, 1709.00
1646, 1710.00
1647, 1711.00
1648, 1712.00
1649, 1714.00
1650, 1715.00

1750, 2297.00
1751, 2298.00
1752, 2300.00
1753, 2300.00
1754, 2299.00
1755, 2299.00
1756, 2301.00
1757, 2299.00
1758, 2297.00
1759, 2299.00
1760, 2297.00
1761, 2299.00
1762, 2299.00
1763, 2297.00
1764, 2299.00
1765, 2296.00
1766, 2298.00
1767, 2297.00
1768, 2299.00
1769, 2297.00
1770, 2296.00
1771, 2297.00
1772, 2297.00
1773, 2296.00
1774, 2297.00
1775, 2295.00
1776, 2294.00
1777, 2293.00
1778, 2295.00
1779, 2295.00
1780, 2293.00
1781, 2293.00
1782, 2293.00
1783, 2293.00
1784, 2292.00
1785, 2290.00
1786, 2289.00
1787, 2292.00
1788, 2291.00
1789, 2289.00
1790, 2288.00
1791, 2291.00
1792, 2287.00
1793, 2290.00
1794, 2287.00
1795, 2289.00
1796, 2288.00
1797, 2287.00
1798, 2284.00
1799, 2285.00
1800, 2286.00
1801, 2285.00
1802, 2285.00
1803, 2283.00
1804, 2284.00
1805, 2283.00
1806, 2283.00
1807, 2284.00
1808, 2285.00
1809, 2284.00
1810, 2282.00
1811, 2284.00
1812, 2282.00
1813, 2282.00
1814, 2283.00
1815, 2280.00
1816, 2280.00
1817, 2281.00
1818, 2280.00
1819, 2278.00
1820, 2279.00
1821, 2279.00
1822, 2279.00
1823, 2278.00
1824, 2277.00
1825, 2277.00
1826, 2278.00
1827, 2276.00
1828, 2276.00
1829, 2274.00
1830, 2274.00
1831, 2271.00
1832, 2272.00
1833, 2270.00
1834, 2268.00
1835, 2266.00
1836, 2267.00
1837, 2265.00
1838, 2264.00
1839, 2261.00
1840, 2259.00
1841, 2261.00
1842, 2258.00
1843, 2256.00
1844, 2254.00
1845, 2252.00
1846, 2251.00
1847, 2253.00
1848, 2249.00
1849, 2245.00
1850, 2245.00
1851, 2241.00
1852, 2240.00
1853, 2239.00
1854, 2235.00
1855, 2233.00
1856, 2233.00
1857, 2229.00
1858, 2225.00
1859, 2225.00
1860, 2225.00
1861, 2220.00
1862, 2216.00
1863, 2219.00
1864, 2215.00
1865, 2212.00
1866, 2212.00
1867, 2210.00
1868, 2208.00
1869, 2206.00
1870, 2206.00
1871, 2206.00
1872, 2202.00
1873, 2199.00
1874, 2198.00
1875, 2198.00
1876, 2197.00
1877, 2196.00
1878, 2195.00
1879, 2194.00
1880, 2192.00
1881, 2192.00
1882, 2191.00
1883, 2189.00
1884, 2189.00
1885, 2188.00
1886, 2188.00
1887, 2188.00
1888, 2187.00
1889, 2187.00
1890, 2185.00
1891, 2185.00
1892, 2184.00
1893, 2185.00
1894, 2182.00
1895, 2183.00
1896, 2182.00
1897, 2184.00
1898, 2182.00
1899, 2182.00
1900, 2181.00
1901, 2180.00
1902, 2181.00
1903, 2179.00
1904, 2180.00
1905, 2181.00
1906, 2180.00
1907, 2181.00
1908, 2180.00
1909, 2179.00
1910, 2180.00
1911, 2179.00
1912, 2179.00
1913, 2178.00
1914, 2179.00
1915, 2179.00
1916, 2179.00
1917, 2179.00
1918, 2177.00
1919, 2178.00
1920, 2178.00
1921, 2178.00
1922, 2179.00
1923, 2179.00
1924, 2180.00
1925, 2180.00
1926, 2177.00
1927, 2179.00
1928, 2180.00
1929, 2180.00
1930, 2179.00
1931, 2178.00
1932, 2180.00
1933, 2179.00
1934, 2180.00
1935, 2181.00
1936, 2181.00
1937, 2180.00
1938, 2180.00
1939, 2181.00
1940, 2183.00
1941, 2181.00
1942, 2182.00
1943, 2181.00
1944, 2181.00
1945, 2183.00
1946, 2185.00
1947, 2182.00
1948, 2185.00
1949, 2184.00
1950, 2186.00
1951, 2186.00
1952, 2186.00
1953, 2186.00
1954, 2185.00
1955, 2187.00
1956, 2188.00
1957, 2188.00
1958, 2190.00
1959, 2189.00
1960, 2190.00
1961, 2188.00
1962, 2191.00
1963, 2190.00
1964, 2191.00
1965, 2192.00
1966, 2193.00
1967, 2193.00
1968, 2193.00
1969, 2195.00
1970, 2195.00
1971, 2196.00
1972, 2197.00
1973, 2199.00
1974, 2199.00
1975, 2198.00
1976, 2199.00
1977, 2199.00
1978, 2201.00
1979, 2201.00
1980, 2201.00
1981, 2204.00
1982, 2203.00
1983, 2203.00
1984, 2202.00
1985, 2206.00
1986, 2205.00
1987, 2205.00
1988, 2208.00
1989, 2208.00
1990, 2209.00
1991, 2211.00
1992, 2209.00
1993, 2210.00
1994, 2211.00
1995, 2212.00
1996, 2212.00
1997, 2211.00
1998, 2212.00
1999, 2215.00
2000, 2215.00
2001, 2214.00
2002, 2213.00
2003, 2216.00
2004, 2218.00
2005, 2217.00
2006, 2217.00
2007, 2218.00
2008, 2219.00
2009, 2219.00
2010, 2221.00
2011, 2222.00
2012, 2220.00
2013, 2222.00
2014, 2222.00
2015, 2224.00
2016, 2223.00
2017, 2225.00
2018, 2225.00
2019, 2226.00
2020, 2226.00
2021, 2226.00
2022, 2226.00
2023, 2229.00
2024, 2227.00
2025, 2229.00
2026, 2230.00
2027, 2229.00
2028, 2231.00
2029, 2231.00
2030, 2233.00
2031, 2233.00
2032, 2234.00
2033, 2235.00
2034, 2234.00
2035, 2234.00
2036, 2238.00
2037, 2237.00
2038, 2237.00
2039, 2239.00
2040, 2239.00
2041, 2240.00
2042, 2240.00
2043, 2243.00
2044, 2241.00
2045, 2243.00
2046, 2245.00
2047, 2246.00
2048, 2246.00
2049, 2249.00
2050, 2247.00
2051, 2247.00
2052, 2249.00
2053, 2249.00
2054, 2250.00
2055, 2253.00
2056, 2253.00
2057, 2252.00
2058, 2254.00
2059, 2255.00
2060, 2257.00
2061, 2256.00
2062, 2255.00
2063, 2257.00
2064, 2258.00
2065, 2259.00
2066, 2261.00
2067, 2262.00
2068, 2260.00
2069, 2262.00
2070, 2263.00
2071, 2263.00
2072, 2265.00
2073, 2264.00
2074, 2268.00
2075, 2266.00
2076, 2270.00
2077, 2270.00
2078, 2271.00
2079, 2269.00
2080, 2271.00
2081, 2273.00
2082, 2273.00
2083, 2274.00
2084, 2273.00
2085, 2276.00
2086, 2275.00
2087, 2275.00
2088, 2276.00
2089, 2275.00
2090, 2276.00
2091, 2278.00
2092, 2279.00
2093, 2279.00
2094, 2280.00
2095, 2281.00
2096, 2279.00
2097, 2280.00
2098, 2280.00
2099, 2281.00
2100, 2281.00
2101, 2284.00
2102, 2284.00
2103, 2283.00
2104, 2284.00
2105, 2285.00
2106, 2284.00
2107, 2284.00
2108, 2284.00
2109, 2285.00
2110, 2286.00
2111, 2285.00
2112, 2287.00
2113, 2286.00
2114, 2286.00
2115, 2288.00
2116, 2287.00
2117, 2287.00
2118, 2288.00
2119, 2287.00
2120, 2289.00
2121, 2288.00
2122, 2290.00
2123, 2289.00
2124, 2291.00
2125, 2289.00
2126, 2290.00
2127, 2289.00
2128, 2289.00
2129, 2290.00
2130, 2291.00
2131, 2290.00
2132, 2292.00
2133, 2291.00
2134, 2292.00
2135, 2292.00
2136, 2292.00
2137, 2292.00
2138, 2292.00
2139, 2293.00
2140, 2292.00
2141, 2293.00
2142, 2294.00
2143, 2293.00
2144, 2294.00
2145, 2293.00
2146, 2295.00
2147, 2293.00
2148, 2293.00
2149, 2294.00
2150, 2295.00
