FW version: 24
Log Version: 3.0.3

General Info:
       Command/Macro Performed,            Timestamp,             Device ID, COM Port, UART/I2C, Test Name, Host Major, Host Minor, Host Revision, Host Git Commit
            Single_measurement,  2023_06_27_12_39_42,       Insight2_F4_xxx,    USB-C,      USB,          ,          0,          1,             1,      4031237645

Show Spectrometer Status:
l0_version, f4_version, battery_perc, battery_mVolt, accelerometer_temp, accelerometer_x, accelerometer_y, accelerometer_z, compass_temp, compass_x, compass_y, compass_z, lamp_0, lamp_1, gain_0, gain_1
        17,         24,           95,          2078,               5696,             636,           65180,           18380,            0,     65407,     65503,     65534,   3276,   3276,    0,    0

Temperature Statistic Info:
NTC AVG [°C], NTC2 AVG [°C]
      37.295,        37.033

Statistic Info:
M1:  num,      min,      max,   median,      AVG,      STD,M2:  num,      min,      max,   median,      AVG,      STD
     301,   670.00,   758.00,   690.00,   698.96,  27.0711,     401,   934.00,   987.00,   963.00,   961.19,  18.1613,

Measurements:
Wavelength, Data Amplitude
1350, 680.00
1351, 680.00
1352, 680.00
1353, 680.00
1354, 680.00
1355, 679.00
1356, 679.00
1357, 679.00
1358, 679.00
1359, 678.00
1360, 678.00
1361, 678.00
1362, 678.00
1363, 678.00
1364, 677.00
1365, 677.00
1366, 677.00
1367, 677.00
1368, 677.00
1369, 676.00
1370, 676.00
1371, 676.00
1372, 676.00
1373, 675.00
1374, 675.00
1375, 675.00
1376, 674.00
1377, 674.00
1378, 674.00
1379, 673.00
1380, 673.00
1381, 674.00
1382, 673.00
1383, 673.00
1384, 673.00
1385, 672.00
1386, 673.00
1387, 672.00
1388, 672.00
1389, 672.00
1390, 672.00
1391, 672.00
1392, 672.00
1393, 672.00
1394, 672.00
1395, 671.00
1396, 671.00
1397, 671.00
1398, 671.00
1399, 672.00
1400, 671.00
1401, 671.00
1402, 671.00
1403, 670.00
1404, 671.00
1405, 671.00
1406, 671.00
1407, 671.00
1408, 670.00
1409, 671.00
1410, 671.00
1411, 670.00
1412, 671.00
1413, 670.00
1414, 670.00
1415, 671.00
1416, 670.00
1417, 671.00
1418, 671.00
1419, 671.00
1420, 670.00
1421, 670.00
1422, 671.00
1423, 671.00
1424, 670.00
1425, 671.00
1426, 671.00
1427, 671.00
1428, 671.00
1429, 672.00
1430, 672.00
1431, 672.00
1432, 672.00
1433, 672.00
1434, 672.00
1435, 672.00
1436, 672.00
1437, 673.00
1438, 673.00
1439, 672.00
1440, 673.00
1441, 673.00
1442, 673.00
1443, 673.00
1444, 673.00
1445, 674.00
1446, 674.00
1447, 674.00
1448, 674.00
1449, 674.00
1450, 675.00
1451, 675.00
1452, 675.00
1453, 675.00
1454, 676.00
1455, 676.00
1456, 676.00
1457, 676.00
1458, 676.00
1459, 677.00
1460, 677.00
1461, 677.00
1462, 678.00
1463, 678.00
1464, 678.00
1465, 678.00
1466, 679.00
1467, 679.00
1468, 680.00
1469, 680.00
1470, 679.00
1471, 680.00
1472, 680.00
1473, 680.00
1474, 681.00
1475, 681.00
1476, 681.00
1477, 682.00
1478, 682.00
1479, 683.00
1480, 683.00
1481, 683.00
1482, 684.00
1483, 684.00
1484, 684.00
1485, 685.00
1486, 685.00
1487, 685.00
1488, 686.00
1489, 686.00
1490, 687.00
1491, 687.00
1492, 686.00
1493, 687.00
1494, 687.00
1495, 688.00
1496, 689.00
1497, 689.00
1498, 689.00
1499, 689.00
1500, 690.00
1501, 690.00
1502, 690.00
1503, 691.00
1504, 692.00
1505, 692.00
1506, 692.00
1507, 693.00
1508, 693.00
1509, 693.00
1510, 694.00
1511, 694.00
1512, 694.00
1513, 695.00
1514, 695.00
1515, 695.00
1516, 695.00
1517, 696.00
1518, 696.00
1519, 696.00
1520, 697.00
1521, 698.00
1522, 699.00
1523, 699.00
1524, 699.00
1525, 700.00
1526, 700.00
1527, 700.00
1528, 700.00
1529, 701.00
1530, 701.00
1531, 702.00
1532, 702.00
1533, 702.00
1534, 703.00
1535, 703.00
1536, 704.00
1537, 704.00
1538, 705.00
1539, 705.00
1540, 705.00
1541, 706.00
1542, 706.00
1543, 706.00
1544, 707.00
1545, 708.00
1546, 708.00
1547, 709.00
1548, 708.00
1549, 709.00
1550, 710.00
1551, 710.00
1552, 710.00
1553, 711.00
1554, 711.00
1555, 712.00
1556, 712.00
1557, 713.00
1558, 713.00
1559, 714.00
1560, 714.00
1561, 714.00
1562, 715.00
1563, 716.00
1564, 716.00
1565, 716.00
1566, 717.00
1567, 717.00
1568, 718.00
1569, 719.00
1570, 719.00
1571, 719.00
1572, 720.00
1573, 720.00
1574, 721.00
1575, 721.00
1576, 721.00
1577, 722.00
1578, 722.00
1579, 723.00
1580, 723.00
1581, 724.00
1582, 724.00
1583, 725.00
1584, 725.00
1585, 726.00
1586, 726.00
1587, 727.00
1588, 727.00
1589, 727.00
1590, 727.00
1591, 728.00
1592, 728.00
1593, 729.00
1594, 729.00
1595, 729.00
1596, 731.00
1597, 730.00
1598, 731.00
1599, 731.00
1600, 732.00
1601, 732.00
1602, 733.00
1603, 733.00
1604, 733.00
1605, 734.00
1606, 734.00
1607, 735.00
1608, 736.00
1609, 736.00
1610, 737.00
1611, 737.00
1612, 738.00
1613, 739.00
1614, 739.00
1615, 740.00
1616, 740.00
1617, 741.00
1618, 741.00
1619, 742.00
1620, 742.00
1621, 743.00
1622, 744.00
1623, 744.00
1624, 745.00
1625, 745.00
1626, 746.00
1627, 746.00
1628, 747.00
1629, 747.00
1630, 747.00
1631, 748.00
1632, 749.00
1633, 749.00
1634, 750.00
1635, 750.00
1636, 751.00
1637, 751.00
1638, 751.00
1639, 752.00
1640, 752.00
1641, 753.00
1642, 753.00
1643, 754.00
1644, 755.00
1645, 755.00
1646, 755.00
1647, 756.00
1648, 756.00
1649, 757.00
1650, 758.00

1750, 986.00
1751, 986.00
1752, 987.00
1753, 986.00
1754, 986.00
1755, 986.00
1756, 987.00
1757, 986.00
1758, 987.00
1759, 986.00
1760, 986.00
1761, 986.00
1762, 986.00
1763, 986.00
1764, 986.00
1765, 986.00
1766, 986.00
1767, 986.00
1768, 986.00
1769, 987.00
1770, 985.00
1771, 985.00
1772, 985.00
1773, 985.00
1774, 985.00
1775, 985.00
1776, 984.00
1777, 985.00
1778, 984.00
1779, 984.00
1780, 984.00
1781, 984.00
1782, 984.00
1783, 984.00
1784, 983.00
1785, 983.00
1786, 983.00
1787, 982.00
1788, 983.00
1789, 982.00
1790, 982.00
1791, 982.00
1792, 982.00
1793, 981.00
1794, 981.00
1795, 981.00
1796, 981.00
1797, 981.00
1798, 981.00
1799, 980.00
1800, 980.00
1801, 981.00
1802, 980.00
1803, 980.00
1804, 980.00
1805, 979.00
1806, 980.00
1807, 979.00
1808, 980.00
1809, 980.00
1810, 979.00
1811, 979.00
1812, 980.00
1813, 979.00
1814, 979.00
1815, 979.00
1816, 977.00
1817, 978.00
1818, 979.00
1819, 978.00
1820, 978.00
1821, 977.00
1822, 978.00
1823, 977.00
1824, 977.00
1825, 977.00
1826, 976.00
1827, 976.00
1828, 976.00
1829, 975.00
1830, 976.00
1831, 974.00
1832, 974.00
1833, 973.00
1834, 973.00
1835, 973.00
1836, 972.00
1837, 972.00
1838, 971.00
1839, 970.00
1840, 970.00
1841, 969.00
1842, 969.00
1843, 968.00
1844, 968.00
1845, 966.00
1846, 965.00
1847, 965.00
1848, 965.00
1849, 963.00
1850, 962.00
1851, 962.00
1852, 961.00
1853, 960.00
1854, 959.00
1855, 958.00
1856, 957.00
1857, 956.00
1858, 955.00
1859, 955.00
1860, 954.00
1861, 952.00
1862, 952.00
1863, 951.00
1864, 951.00
1865, 950.00
1866, 949.00
1867, 948.00
1868, 947.00
1869, 947.00
1870, 946.00
1871, 945.00
1872, 944.00
1873, 944.00
1874, 944.00
1875, 943.00
1876, 942.00
1877, 942.00
1878, 942.00
1879, 941.00
1880, 941.00
1881, 941.00
1882, 940.00
1883, 939.00
1884, 939.00
1885, 939.00
1886, 939.00
1887, 938.00
1888, 938.00
1889, 938.00
1890, 937.00
1891, 937.00
1892, 938.00
1893, 938.00
1894, 936.00
1895, 937.00
1896, 936.00
1897, 936.00
1898, 937.00
1899, 936.00
1900, 936.00
1901, 936.00
1902, 936.00
1903, 936.00
1904, 935.00
1905, 936.00
1906, 935.00
1907, 935.00
1908, 935.00
1909, 935.00
1910, 935.00
1911, 934.00
1912, 935.00
1913, 935.00
1914, 934.00
1915, 934.00
1916, 934.00
1917, 934.00
1918, 934.00
1919, 934.00
1920, 935.00
1921, 935.00
1922, 935.00
1923, 935.00
1924, 934.00
1925, 935.00
1926, 934.00
1927, 934.00
1928, 935.00
1929, 935.00
1930, 934.00
1931, 934.00
1932, 935.00
1933, 935.00
1934, 935.00
1935, 935.00
1936, 935.00
1937, 935.00
1938, 936.00
1939, 936.00
1940, 935.00
1941, 936.00
1942, 935.00
1943, 935.00
1944, 936.00
1945, 937.00
1946, 937.00
1947, 936.00
1948, 936.00
1949, 937.00
1950, 937.00
1951, 937.00
1952, 937.00
1953, 937.00
1954, 937.00
1955, 938.00
1956, 938.00
1957, 938.00
1958, 938.00
1959, 939.00
1960, 939.00
1961, 939.00
1962, 939.00
1963, 939.00
1964, 940.00
1965, 940.00
1966, 940.00
1967, 941.00
1968, 941.00
1969, 942.00
1970, 942.00
1971, 942.00
1972, 942.00
1973, 942.00
1974, 942.00
1975, 943.00
1976, 943.00
1977, 944.00
1978, 944.00
1979, 943.00
1980, 945.00
1981, 944.00
1982, 944.00
1983, 945.00
1984, 945.00
1985, 945.00
1986, 946.00
1987, 946.00
1988, 946.00
1989, 946.00
1990, 947.00
1991, 947.00
1992, 947.00
1993, 947.00
1994, 948.00
1995, 947.00
1996, 948.00
1997, 949.00
1998, 949.00
1999, 949.00
2000, 949.00
2001, 949.00
2002, 950.00
2003, 950.00
2004, 950.00
2005, 950.00
2006, 951.00
2007, 951.00
2008, 951.00
2009, 951.00
2010, 951.00
2011, 952.00
2012, 952.00
2013, 953.00
2014, 953.00
2015, 953.00
2016, 952.00
2017, 953.00
2018, 954.00
2019, 954.00
2020, 954.00
2021, 954.00
2022, 954.00
2023, 954.00
2024, 955.00
2025, 956.00
2026, 955.00
2027, 956.00
2028, 956.00
2029, 956.00
2030, 957.00
2031, 957.00
2032, 957.00
2033, 957.00
2034, 958.00
2035, 958.00
2036, 958.00
2037, 958.00
2038, 959.00
2039, 959.00
2040, 959.00
2041, 960.00
2042, 959.00
2043, 961.00
2044, 960.00
2045, 961.00
2046, 962.00
2047, 962.00
2048, 962.00
2049, 962.00
2050, 963.00
2051, 963.00
2052, 963.00
2053, 964.00
2054, 964.00
2055, 964.00
2056, 965.00
2057, 965.00
2058, 965.00
2059, 966.00
2060, 967.00
2061, 967.00
2062, 967.00
2063, 967.00
2064, 968.00
2065, 968.00
2066, 969.00
2067, 969.00
2068, 969.00
2069, 969.00
2070, 970.00
2071, 971.00
2072, 971.00
2073, 971.00
2074, 971.00
2075, 971.00
2076, 971.00
2077, 972.00
2078, 972.00
2079, 973.00
2080, 973.00
2081, 974.00
2082, 974.00
2083, 974.00
2084, 974.00
2085, 975.00
2086, 974.00
2087, 975.00
2088, 975.00
2089, 975.00
2090, 976.00
2091, 975.00
2092, 977.00
2093, 977.00
2094, 977.00
2095, 976.00
2096, 977.00
2097, 977.00
2098, 977.00
2099, 977.00
2100, 978.00
2101, 978.00
2102, 977.00
2103, 977.00
2104, 978.00
2105, 979.00
2106, 978.00
2107, 978.00
2108, 978.00
2109, 979.00
2110, 979.00
2111, 979.00
2112, 979.00
2113, 980.00
2114, 979.00
2115, 979.00
2116, 980.00
2117, 980.00
2118, 980.00
2119, 980.00
2120, 980.00
2121, 980.00
2122, 980.00
2123, 981.00
2124, 980.00
2125, 981.00
2126, 981.00
2127, 981.00
2128, 981.00
2129, 981.00
2130, 981.00
2131, 981.00
2132, 981.00
2133, 981.00
2134, 981.00
2135, 981.00
2136, 981.00
2137, 981.00
2138, 982.00
2139, 982.00
2140, 982.00
2141, 981.00
2142, 982.00
2143, 983.00
2144, 982.00
2145, 982.00
2146, 982.00
2147, 983.00
2148, 982.00
2149, 982.00
2150, 982.00
