FW version: 24
Log Version: 3.0.3

General Info:
       Command/Macro Performed,            Timestamp,             Device ID, COM Port, UART/I2C, Test Name, Host Major, Host Minor, Host Revision, Host Git Commit
            Single_measurement,  2023_06_27_12_39_52,       Insight2_F4_xxx,    USB-C,      USB,          ,          0,          1,             1,      4031237645

Show Spectrometer Status:
l0_version, f4_version, battery_perc, battery_mVolt, accelerometer_temp, accelerometer_x, accelerometer_y, accelerometer_z, compass_temp, compass_x, compass_y, compass_z, lamp_0, lamp_1, gain_0, gain_1
        17,         24,           95,          2078,               5712,             612,           65148,           18488,            0,     65383,     65535,     65401,   2047,   2047,    1,    1

Temperature Statistic Info:
NTC AVG [°C], NTC2 AVG [°C]
      37.353,        37.063

Statistic Info:
M1:  num,      min,      max,   median,      AVG,      STD,M2:  num,      min,      max,   median,      AVG,      STD
     301,   776.00,   893.00,   804.00,   814.71,  36.1094,     401,  1225.00,  1298.00,  1267.00,  1263.75,  24.9404,

Measurements:
Wavelength, Data Amplitude
1350, 785.00
1351, 785.00
1352, 785.00
1353, 785.00
1354, 784.00
1355, 785.00
1356, 784.00
1357, 785.00
1358, 784.00
1359, 784.00
1360, 784.00
1361, 784.00
1362, 783.00
1363, 783.00
1364, 783.00
1365, 783.00
1366, 782.00
1367, 783.00
1368, 782.00
1369, 782.00
1370, 781.00
1371, 781.00
1372, 781.00
1373, 780.00
1374, 780.00
1375, 780.00
1376, 780.00
1377, 779.00
1378, 779.00
1379, 779.00
1380, 778.00
1381, 778.00
1382, 778.00
1383, 778.00
1384, 778.00
1385, 778.00
1386, 778.00
1387, 778.00
1388, 778.00
1389, 778.00
1390, 777.00
1391, 777.00
1392, 778.00
1393, 777.00
1394, 776.00
1395, 777.00
1396, 776.00
1397, 777.00
1398, 776.00
1399, 777.00
1400, 776.00
1401, 777.00
1402, 776.00
1403, 776.00
1404, 776.00
1405, 777.00
1406, 776.00
1407, 777.00
1408, 776.00
1409, 777.00
1410, 777.00
1411, 776.00
1412, 778.00
1413, 777.00
1414, 776.00
1415, 777.00
1416, 777.00
1417, 777.00
1418, 776.00
1419, 777.00
1420, 777.00
1421, 777.00
1422, 777.00
1423, 777.00
1424, 777.00
1425, 778.00
1426, 778.00
1427, 778.00
1428, 778.00
1429, 779.00
1430, 778.00
1431, 779.00
1432, 778.00
1433, 779.00
1434, 779.00
1435, 779.00
1436, 780.00
1437, 780.00
1438, 781.00
1439, 781.00
1440, 781.00
1441, 781.00
1442, 781.00
1443, 782.00
1444, 782.00
1445, 781.00
1446, 782.00
1447, 784.00
1448, 783.00
1449, 783.00
1450, 784.00
1451, 783.00
1452, 784.00
1453, 784.00
1454, 784.00
1455, 784.00
1456, 785.00
1457, 785.00
1458, 785.00
1459, 786.00
1460, 787.00
1461, 787.00
1462, 788.00
1463, 788.00
1464, 788.00
1465, 789.00
1466, 788.00
1467, 789.00
1468, 789.00
1469, 790.00
1470, 789.00
1471, 790.00
1472, 790.00
1473, 791.00
1474, 792.00
1475, 792.00
1476, 793.00
1477, 793.00
1478, 793.00
1479, 795.00
1480, 794.00
1481, 795.00
1482, 796.00
1483, 796.00
1484, 795.00
1485, 797.00
1486, 796.00
1487, 798.00
1488, 798.00
1489, 800.00
1490, 799.00
1491, 800.00
1492, 800.00
1493, 801.00
1494, 801.00
1495, 803.00
1496, 802.00
1497, 803.00
1498, 804.00
1499, 804.00
1500, 804.00
1501, 805.00
1502, 805.00
1503, 806.00
1504, 807.00
1505, 806.00
1506, 808.00
1507, 809.00
1508, 808.00
1509, 809.00
1510, 810.00
1511, 810.00
1512, 810.00
1513, 812.00
1514, 811.00
1515, 812.00
1516, 813.00
1517, 813.00
1518, 814.00
1519, 815.00
1520, 815.00
1521, 815.00
1522, 815.00
1523, 816.00
1524, 816.00
1525, 817.00
1526, 817.00
1527, 819.00
1528, 818.00
1529, 819.00
1530, 819.00
1531, 820.00
1532, 820.00
1533, 822.00
1534, 822.00
1535, 822.00
1536, 823.00
1537, 823.00
1538, 824.00
1539, 825.00
1540, 825.00
1541, 825.00
1542, 825.00
1543, 826.00
1544, 826.00
1545, 827.00
1546, 827.00
1547, 829.00
1548, 829.00
1549, 829.00
1550, 830.00
1551, 830.00
1552, 831.00
1553, 831.00
1554, 832.00
1555, 832.00
1556, 833.00
1557, 834.00
1558, 834.00
1559, 834.00
1560, 835.00
1561, 836.00
1562, 837.00
1563, 837.00
1564, 837.00
1565, 838.00
1566, 839.00
1567, 839.00
1568, 840.00
1569, 841.00
1570, 843.00
1571, 841.00
1572, 842.00
1573, 843.00
1574, 843.00
1575, 843.00
1576, 845.00
1577, 845.00
1578, 846.00
1579, 846.00
1580, 847.00
1581, 848.00
1582, 848.00
1583, 849.00
1584, 849.00
1585, 851.00
1586, 850.00
1587, 852.00
1588, 852.00
1589, 851.00
1590, 852.00
1591, 853.00
1592, 853.00
1593, 855.00
1594, 855.00
1595, 855.00
1596, 856.00
1597, 857.00
1598, 858.00
1599, 857.00
1600, 858.00
1601, 858.00
1602, 859.00
1603, 859.00
1604, 860.00
1605, 861.00
1606, 862.00
1607, 862.00
1608, 863.00
1609, 863.00
1610, 864.00
1611, 866.00
1612, 865.00
1613, 867.00
1614, 868.00
1615, 868.00
1616, 870.00
1617, 869.00
1618, 871.00
1619, 872.00
1620, 871.00
1621, 873.00
1622, 874.00
1623, 875.00
1624, 874.00
1625, 875.00
1626, 876.00
1627, 877.00
1628, 878.00
1629, 878.00
1630, 879.00
1631, 880.00
1632, 881.00
1633, 881.00
1634, 882.00
1635, 882.00
1636, 883.00
1637, 883.00
1638, 885.00
1639, 885.00
1640, 886.00
1641, 885.00
1642, 887.00
1643, 887.00
1644, 888.00
1645, 889.00
1646, 889.00
1647, 889.00
1648, 889.00
1649, 890.00
1650, 893.00

1750, 1292.00
1751, 1293.00
1752, 1291.00
1753, 1291.00
1754, 1294.00
1755, 1294.00
1756, 1294.00
1757, 1294.00
1758, 1293.00
1759, 1292.00
1760, 1294.00
1761, 1294.00
1762, 1293.00
1763, 1293.00
1764, 1293.00
1765, 1294.00
1766, 1292.00
1767, 1293.00
1768, 1294.00
1769, 1293.00
1770, 1292.00
1771, 1292.00
1772, 1292.00
1773, 1292.00
1774, 1292.00
1775, 1293.00
1776, 1291.00
1777, 1292.00
1778, 1292.00
1779, 1292.00
1780, 1289.00
1781, 1290.00
1782, 1292.00
1783, 1290.00
1784, 1290.00
1785, 1289.00
1786, 1290.00
1787, 1289.00
1788, 1288.00
1789, 1290.00
1790, 1289.00
1791, 1289.00
1792, 1287.00
1793, 1289.00
1794, 1288.00
1795, 1289.00
1796, 1288.00
1797, 1287.00
1798, 1288.00
1799, 1285.00
1800, 1286.00
1801, 1287.00
1802, 1288.00
1803, 1286.00
1804, 1287.00
1805, 1287.00
1806, 1286.00
1807, 1288.00
1808, 1288.00
1809, 1284.00
1810, 1287.00
1811, 1286.00
1812, 1287.00
1813, 1285.00
1814, 1285.00
1815, 1286.00
1816, 1284.00
1817, 1285.00
1818, 1284.00
1819, 1284.00
1820, 1285.00
1821, 1284.00
1822, 1282.00
1823, 1284.00
1824, 1282.00
1825, 1283.00
1826, 1282.00
1827, 1282.00
1828, 1281.00
1829, 1282.00
1830, 1280.00
1831, 1280.00
1832, 1279.00
1833, 1279.00
1834, 1278.00
1835, 1277.00
1836, 1276.00
1837, 1276.00
1838, 1276.00
1839, 1275.00
1840, 1273.00
1841, 1272.00
1842, 1271.00
1843, 1272.00
1844, 1272.00
1845, 1269.00
1846, 1269.00
1847, 1268.00
1848, 1268.00
1849, 1265.00
1850, 1263.00
1851, 1261.00
1852, 1261.00
1853, 1262.00
1854, 1261.00
1855, 1258.00
1856, 1257.00
1857, 1255.00
1858, 1256.00
1859, 1254.00
1860, 1252.00
1861, 1252.00
1862, 1249.00
1863, 1250.00
1864, 1249.00
1865, 1248.00
1866, 1246.00
1867, 1243.00
1868, 1242.00
1869, 1243.00
1870, 1243.00
1871, 1241.00
1872, 1239.00
1873, 1239.00
1874, 1239.00
1875, 1238.00
1876, 1238.00
1877, 1238.00
1878, 1236.00
1879, 1235.00
1880, 1235.00
1881, 1233.00
1882, 1234.00
1883, 1234.00
1884, 1234.00
1885, 1232.00
1886, 1231.00
1887, 1234.00
1888, 1231.00
1889, 1232.00
1890, 1232.00
1891, 1232.00
1892, 1229.00
1893, 1231.00
1894, 1230.00
1895, 1230.00
1896, 1230.00
1897, 1229.00
1898, 1228.00
1899, 1229.00
1900, 1229.00
1901, 1229.00
1902, 1229.00
1903, 1228.00
1904, 1229.00
1905, 1227.00
1906, 1227.00
1907, 1228.00
1908, 1226.00
1909, 1227.00
1910, 1227.00
1911, 1227.00
1912, 1227.00
1913, 1226.00
1914, 1228.00
1915, 1225.00
1916, 1227.00
1917, 1226.00
1918, 1227.00
1919, 1227.00
1920, 1227.00
1921, 1225.00
1922, 1226.00
1923, 1228.00
1924, 1226.00
1925, 1227.00
1926, 1226.00
1927, 1227.00
1928, 1227.00
1929, 1227.00
1930, 1226.00
1931, 1228.00
1932, 1227.00
1933, 1227.00
1934, 1226.00
1935, 1227.00
1936, 1228.00
1937, 1229.00
1938, 1229.00
1939, 1227.00
1940, 1229.00
1941, 1229.00
1942, 1230.00
1943, 1229.00
1944, 1227.00
1945, 1229.00
1946, 1228.00
1947, 1229.00
1948, 1229.00
1949, 1230.00
1950, 1230.00
1951, 1231.00
1952, 1231.00
1953, 1231.00
1954, 1230.00
1955, 1232.00
1956, 1232.00
1957, 1233.00
1958, 1233.00
1959, 1231.00
1960, 1234.00
1961, 1233.00
1962, 1233.00
1963, 1235.00
1964, 1236.00
1965, 1235.00
1966, 1236.00
1967, 1235.00
1968, 1236.00
1969, 1237.00
1970, 1237.00
1971, 1238.00
1972, 1238.00
1973, 1236.00
1974, 1239.00
1975, 1238.00
1976, 1239.00
1977, 1239.00
1978, 1240.00
1979, 1241.00
1980, 1239.00
1981, 1242.00
1982, 1240.00
1983, 1242.00
1984, 1242.00
1985, 1243.00
1986, 1244.00
1987, 1242.00
1988, 1243.00
1989, 1243.00
1990, 1244.00
1991, 1245.00
1992, 1244.00
1993, 1245.00
1994, 1247.00
1995, 1247.00
1996, 1244.00
1997, 1248.00
1998, 1248.00
1999, 1246.00
2000, 1247.00
2001, 1249.00
2002, 1247.00
2003, 1249.00
2004, 1249.00
2005, 1249.00
2006, 1249.00
2007, 1249.00
2008, 1250.00
2009, 1251.00
2010, 1251.00
2011, 1252.00
2012, 1252.00
2013, 1253.00
2014, 1254.00
2015, 1253.00
2016, 1254.00
2017, 1254.00
2018, 1255.00
2019, 1256.00
2020, 1257.00
2021, 1255.00
2022, 1254.00
2023, 1255.00
2024, 1257.00
2025, 1257.00
2026, 1258.00
2027, 1257.00
2028, 1257.00
2029, 1259.00
2030, 1257.00
2031, 1259.00
2032, 1258.00
2033, 1261.00
2034, 1259.00
2035, 1262.00
2036, 1260.00
2037, 1263.00
2038, 1262.00
2039, 1262.00
2040, 1262.00
2041, 1262.00
2042, 1265.00
2043, 1263.00
2044, 1266.00
2045, 1265.00
2046, 1263.00
2047, 1266.00
2048, 1267.00
2049, 1265.00
2050, 1267.00
2051, 1269.00
2052, 1270.00
2053, 1269.00
2054, 1268.00
2055, 1268.00
2056, 1271.00
2057, 1271.00
2058, 1272.00
2059, 1271.00
2060, 1271.00
2061, 1275.00
2062, 1273.00
2063, 1274.00
2064, 1276.00
2065, 1275.00
2066, 1275.00
2067, 1278.00
2068, 1275.00
2069, 1277.00
2070, 1278.00
2071, 1279.00
2072, 1278.00
2073, 1279.00
2074, 1281.00
2075, 1280.00
2076, 1282.00
2077, 1282.00
2078, 1280.00
2079, 1282.00
2080, 1284.00
2081, 1284.00
2082, 1284.00
2083, 1283.00
2084, 1284.00
2085, 1284.00
2086, 1286.00
2087, 1285.00
2088, 1286.00
2089, 1288.00
2090, 1286.00
2091, 1288.00
2092, 1287.00
2093, 1288.00
2094, 1287.00
2095, 1288.00
2096, 1288.00
2097, 1289.00
2098, 1288.00
2099, 1288.00
2100, 1290.00
2101, 1289.00
2102, 1290.00
2103, 1290.00
2104, 1291.00
2105, 1292.00
2106, 1291.00
2107, 1292.00
2108, 1292.00
2109, 1292.00
2110, 1292.00
2111, 1293.00
2112, 1293.00
2113, 1293.00
2114, 1292.00
2115, 1293.00
2116, 1292.00
2117, 1293.00
2118, 1293.00
2119, 1293.00
2120, 1294.00
2121, 1293.00
2122, 1293.00
2123, 1294.00
2124, 1293.00
2125, 1294.00
2126, 1294.00
2127, 1293.00
2128, 1296.00
2129, 1295.00
2130, 1296.00
2131, 1295.00
2132, 1296.00
2133, 1297.00
2134, 1295.00
2135, 1297.00
2136, 1295.00
2137, 1296.00
2138, 1297.00
2139, 1296.00
2140, 1296.00
2141, 1297.00
2142, 1298.00
2143, 1298.00
2144, 1295.00
2145, 1297.00
2146, 1296.00
2147, 1298.00
2148, 1296.00
2149, 1297.00
2150, 1296.00
