FW version: 24
Log Version: 3.0.3

General Info:
       Command/Macro Performed,            Timestamp,             Device ID, COM Port, UART/I2C, Test Name, Host Major, Host Minor, Host Revision, Host Git Commit
            Single_measurement,  2023_06_30_11_44_43,       Insight2_F4_xxx,    USB-C,      USB,          ,          0,          1,             1,      4031237645

Show Spectrometer Status:
l0_version, f4_version, battery_perc, battery_mVolt, accelerometer_temp, accelerometer_x, accelerometer_y, accelerometer_z, compass_temp, compass_x, compass_y, compass_z, lamp_0, lamp_1, gain_0, gain_1
        17,         24,           95,          2079,               5936,              28,             332,           18376,            0,     65343,     65375,     65533,   2457,   2457,      1,      1

Temperature Statistic Info:
NTC AVG [°C], NTC2 AVG [°C]
      38.391,        38.099

Statistic Info:
M1:  num,      min,      max,   median,      AVG,      STD,M2:  num,      min,      max,   median,      AVG,      STD
     301,  1089.00,  1254.00,  1123.00,  1142.27,  50.9659,     401,  1537.00,  1639.00,  1582.00,  1584.27,  33.8179,

Measurements:
Wavelength, Data Amplitude
1350, 1113.00
1351, 1114.00
1352, 1113.00
1353, 1113.00
1354, 1113.00
1355, 1111.00
1356, 1111.00
1357, 1110.00
1358, 1110.00
1359, 1110.00
1360, 1110.00
1361, 1108.00
1362, 1108.00
1363, 1106.00
1364, 1107.00
1365, 1106.00
1366, 1106.00
1367, 1105.00
1368, 1104.00
1369, 1103.00
1370, 1102.00
1371, 1101.00
1372, 1101.00
1373, 1101.00
1374, 1099.00
1375, 1099.00
1376, 1098.00
1377, 1098.00
1378, 1098.00
1379, 1098.00
1380, 1095.00
1381, 1096.00
1382, 1095.00
1383, 1094.00
1384, 1095.00
1385, 1094.00
1386, 1094.00
1387, 1093.00
1388, 1092.00
1389, 1093.00
1390, 1091.00
1391, 1092.00
1392, 1092.00
1393, 1092.00
1394, 1091.00
1395, 1091.00
1396, 1091.00
1397, 1092.00
1398, 1091.00
1399, 1090.00
1400, 1090.00
1401, 1089.00
1402, 1090.00
1403, 1090.00
1404, 1091.00
1405, 1090.00
1406, 1089.00
1407, 1091.00
1408, 1089.00
1409, 1090.00
1410, 1089.00
1411, 1089.00
1412, 1089.00
1413, 1089.00
1414, 1089.00
1415, 1089.00
1416, 1089.00
1417, 1089.00
1418, 1089.00
1419, 1089.00
1420, 1089.00
1421, 1089.00
1422, 1089.00
1423, 1090.00
1424, 1090.00
1425, 1090.00
1426, 1089.00
1427, 1089.00
1428, 1089.00
1429, 1090.00
1430, 1090.00
1431, 1089.00
1432, 1090.00
1433, 1090.00
1434, 1090.00
1435, 1091.00
1436, 1092.00
1437, 1092.00
1438, 1091.00
1439, 1092.00
1440, 1092.00
1441, 1092.00
1442, 1093.00
1443, 1093.00
1444, 1093.00
1445, 1093.00
1446, 1093.00
1447, 1094.00
1448, 1095.00
1449, 1095.00
1450, 1095.00
1451, 1096.00
1452, 1096.00
1453, 1095.00
1454, 1097.00
1455, 1095.00
1456, 1096.00
1457, 1097.00
1458, 1097.00
1459, 1099.00
1460, 1100.00
1461, 1100.00
1462, 1100.00
1463, 1101.00
1464, 1101.00
1465, 1101.00
1466, 1102.00
1467, 1101.00
1468, 1103.00
1469, 1102.00
1470, 1104.00
1471, 1104.00
1472, 1104.00
1473, 1106.00
1474, 1106.00
1475, 1107.00
1476, 1107.00
1477, 1108.00
1478, 1109.00
1479, 1109.00
1480, 1110.00
1481, 1111.00
1482, 1111.00
1483, 1112.00
1484, 1112.00
1485, 1113.00
1486, 1113.00
1487, 1114.00
1488, 1114.00
1489, 1116.00
1490, 1116.00
1491, 1117.00
1492, 1118.00
1493, 1118.00
1494, 1119.00
1495, 1120.00
1496, 1121.00
1497, 1120.00
1498, 1122.00
1499, 1123.00
1500, 1123.00
1501, 1124.00
1502, 1125.00
1503, 1125.00
1504, 1126.00
1505, 1127.00
1506, 1127.00
1507, 1128.00
1508, 1129.00
1509, 1129.00
1510, 1130.00
1511, 1131.00
1512, 1132.00
1513, 1133.00
1514, 1133.00
1515, 1135.00
1516, 1135.00
1517, 1136.00
1518, 1136.00
1519, 1137.00
1520, 1138.00
1521, 1138.00
1522, 1140.00
1523, 1141.00
1524, 1142.00
1525, 1142.00
1526, 1143.00
1527, 1144.00
1528, 1145.00
1529, 1144.00
1530, 1146.00
1531, 1147.00
1532, 1148.00
1533, 1148.00
1534, 1149.00
1535, 1150.00
1536, 1151.00
1537, 1151.00
1538, 1152.00
1539, 1153.00
1540, 1154.00
1541, 1155.00
1542, 1156.00
1543, 1155.00
1544, 1157.00
1545, 1158.00
1546, 1159.00
1547, 1160.00
1548, 1159.00
1549, 1161.00
1550, 1163.00
1551, 1162.00
1552, 1163.00
1553, 1164.00
1554, 1165.00
1555, 1166.00
1556, 1168.00
1557, 1168.00
1558, 1168.00
1559, 1169.00
1560, 1171.00
1561, 1172.00
1562, 1172.00
1563, 1173.00
1564, 1175.00
1565, 1175.00
1566, 1176.00
1567, 1176.00
1568, 1178.00
1569, 1178.00
1570, 1179.00
1571, 1180.00
1572, 1181.00
1573, 1182.00
1574, 1184.00
1575, 1184.00
1576, 1185.00
1577, 1186.00
1578, 1186.00
1579, 1187.00
1580, 1189.00
1581, 1190.00
1582, 1189.00
1583, 1191.00
1584, 1191.00
1585, 1192.00
1586, 1194.00
1587, 1193.00
1588, 1195.00
1589, 1195.00
1590, 1197.00
1591, 1197.00
1592, 1198.00
1593, 1198.00
1594, 1199.00
1595, 1201.00
1596, 1201.00
1597, 1201.00
1598, 1202.00
1599, 1203.00
1600, 1204.00
1601, 1206.00
1602, 1206.00
1603, 1208.00
1604, 1209.00
1605, 1208.00
1606, 1210.00
1607, 1210.00
1608, 1212.00
1609, 1213.00
1610, 1214.00
1611, 1214.00
1612, 1216.00
1613, 1217.00
1614, 1218.00
1615, 1219.00
1616, 1220.00
1617, 1220.00
1618, 1222.00
1619, 1223.00
1620, 1224.00
1621, 1225.00
1622, 1227.00
1623, 1228.00
1624, 1229.00
1625, 1229.00
1626, 1230.00
1627, 1231.00
1628, 1233.00
1629, 1233.00
1630, 1235.00
1631, 1236.00
1632, 1237.00
1633, 1238.00
1634, 1238.00
1635, 1239.00
1636, 1239.00
1637, 1241.00
1638, 1242.00
1639, 1242.00
1640, 1244.00
1641, 1245.00
1642, 1246.00
1643, 1246.00
1644, 1247.00
1645, 1247.00
1646, 1248.00
1647, 1249.00
1648, 1250.00
1649, 1251.00
1650, 1254.00

1750, 1637.00
1751, 1639.00
1752, 1638.00
1753, 1638.00
1754, 1639.00
1755, 1639.00
1756, 1638.00
1757, 1639.00
1758, 1638.00
1759, 1637.00
1760, 1638.00
1761, 1638.00
1762, 1638.00
1763, 1637.00
1764, 1637.00
1765, 1636.00
1766, 1639.00
1767, 1635.00
1768, 1636.00
1769, 1638.00
1770, 1637.00
1771, 1637.00
1772, 1636.00
1773, 1636.00
1774, 1636.00
1775, 1636.00
1776, 1635.00
1777, 1636.00
1778, 1635.00
1779, 1633.00
1780, 1635.00
1781, 1634.00
1782, 1634.00
1783, 1633.00
1784, 1634.00
1785, 1633.00
1786, 1633.00
1787, 1630.00
1788, 1633.00
1789, 1632.00
1790, 1632.00
1791, 1630.00
1792, 1631.00
1793, 1629.00
1794, 1629.00
1795, 1630.00
1796, 1629.00
1797, 1629.00
1798, 1629.00
1799, 1629.00
1800, 1631.00
1801, 1628.00
1802, 1628.00
1803, 1626.00
1804, 1625.00
1805, 1627.00
1806, 1627.00
1807, 1625.00
1808, 1625.00
1809, 1625.00
1810, 1625.00
1811, 1624.00
1812, 1624.00
1813, 1624.00
1814, 1623.00
1815, 1622.00
1816, 1622.00
1817, 1621.00
1818, 1621.00
1819, 1620.00
1820, 1621.00
1821, 1619.00
1822, 1620.00
1823, 1619.00
1824, 1618.00
1825, 1618.00
1826, 1616.00
1827, 1614.00
1828, 1616.00
1829, 1612.00
1830, 1613.00
1831, 1612.00
1832, 1610.00
1833, 1609.00
1834, 1610.00
1835, 1605.00
1836, 1607.00
1837, 1604.00
1838, 1602.00
1839, 1602.00
1840, 1602.00
1841, 1601.00
1842, 1597.00
1843, 1597.00
1844, 1594.00
1845, 1594.00
1846, 1591.00
1847, 1589.00
1848, 1588.00
1849, 1585.00
1850, 1586.00
1851, 1583.00
1852, 1582.00
1853, 1582.00
1854, 1577.00
1855, 1576.00
1856, 1578.00
1857, 1572.00
1858, 1572.00
1859, 1571.00
1860, 1569.00
1861, 1568.00
1862, 1568.00
1863, 1564.00
1864, 1564.00
1865, 1562.00
1866, 1562.00
1867, 1560.00
1868, 1560.00
1869, 1558.00
1870, 1557.00
1871, 1555.00
1872, 1555.00
1873, 1554.00
1874, 1554.00
1875, 1553.00
1876, 1552.00
1877, 1549.00
1878, 1548.00
1879, 1551.00
1880, 1551.00
1881, 1549.00
1882, 1550.00
1883, 1548.00
1884, 1548.00
1885, 1547.00
1886, 1548.00
1887, 1547.00
1888, 1547.00
1889, 1545.00
1890, 1546.00
1891, 1545.00
1892, 1545.00
1893, 1544.00
1894, 1542.00
1895, 1543.00
1896, 1544.00
1897, 1543.00
1898, 1542.00
1899, 1542.00
1900, 1542.00
1901, 1542.00
1902, 1541.00
1903, 1540.00
1904, 1540.00
1905, 1541.00
1906, 1541.00
1907, 1541.00
1908, 1540.00
1909, 1542.00
1910, 1539.00
1911, 1540.00
1912, 1540.00
1913, 1540.00
1914, 1540.00
1915, 1540.00
1916, 1538.00
1917, 1540.00
1918, 1537.00
1919, 1540.00
1920, 1539.00
1921, 1540.00
1922, 1539.00
1923, 1539.00
1924, 1538.00
1925, 1539.00
1926, 1539.00
1927, 1538.00
1928, 1539.00
1929, 1539.00
1930, 1540.00
1931, 1539.00
1932, 1538.00
1933, 1539.00
1934, 1540.00
1935, 1541.00
1936, 1540.00
1937, 1539.00
1938, 1539.00
1939, 1539.00
1940, 1540.00
1941, 1541.00
1942, 1540.00
1943, 1540.00
1944, 1541.00
1945, 1542.00
1946, 1540.00
1947, 1541.00
1948, 1542.00
1949, 1541.00
1950, 1542.00
1951, 1543.00
1952, 1542.00
1953, 1543.00
1954, 1542.00
1955, 1542.00
1956, 1542.00
1957, 1543.00
1958, 1545.00
1959, 1545.00
1960, 1543.00
1961, 1543.00
1962, 1545.00
1963, 1547.00
1964, 1545.00
1965, 1546.00
1966, 1546.00
1967, 1547.00
1968, 1548.00
1969, 1546.00
1970, 1547.00
1971, 1548.00
1972, 1549.00
1973, 1549.00
1974, 1549.00
1975, 1550.00
1976, 1549.00
1977, 1550.00
1978, 1550.00
1979, 1552.00
1980, 1552.00
1981, 1552.00
1982, 1549.00
1983, 1551.00
1984, 1552.00
1985, 1553.00
1986, 1553.00
1987, 1554.00
1988, 1554.00
1989, 1554.00
1990, 1554.00
1991, 1555.00
1992, 1556.00
1993, 1556.00
1994, 1554.00
1995, 1556.00
1996, 1557.00
1997, 1556.00
1998, 1560.00
1999, 1559.00
2000, 1559.00
2001, 1560.00
2002, 1559.00
2003, 1559.00
2004, 1560.00
2005, 1560.00
2006, 1561.00
2007, 1560.00
2008, 1562.00
2009, 1560.00
2010, 1562.00
2011, 1563.00
2012, 1563.00
2013, 1563.00
2014, 1562.00
2015, 1563.00
2016, 1565.00
2017, 1566.00
2018, 1566.00
2019, 1567.00
2020, 1568.00
2021, 1567.00
2022, 1568.00
2023, 1568.00
2024, 1568.00
2025, 1568.00
2026, 1569.00
2027, 1570.00
2028, 1568.00
2029, 1571.00
2030, 1571.00
2031, 1572.00
2032, 1570.00
2033, 1573.00
2034, 1571.00
2035, 1573.00
2036, 1572.00
2037, 1574.00
2038, 1574.00
2039, 1576.00
2040, 1576.00
2041, 1575.00
2042, 1576.00
2043, 1576.00
2044, 1576.00
2045, 1579.00
2046, 1579.00
2047, 1580.00
2048, 1581.00
2049, 1579.00
2050, 1580.00
2051, 1578.00
2052, 1583.00
2053, 1581.00
2054, 1584.00
2055, 1584.00
2056, 1583.00
2057, 1584.00
2058, 1586.00
2059, 1586.00
2060, 1587.00
2061, 1587.00
2062, 1588.00
2063, 1589.00
2064, 1590.00
2065, 1588.00
2066, 1591.00
2067, 1590.00
2068, 1590.00
2069, 1594.00
2070, 1595.00
2071, 1592.00
2072, 1596.00
2073, 1595.00
2074, 1595.00
2075, 1596.00
2076, 1596.00
2077, 1598.00
2078, 1596.00
2079, 1600.00
2080, 1599.00
2081, 1600.00
2082, 1602.00
2083, 1600.00
2084, 1601.00
2085, 1601.00
2086, 1601.00
2087, 1602.00
2088, 1603.00
2089, 1604.00
2090, 1603.00
2091, 1604.00
2092, 1604.00
2093, 1605.00
2094, 1608.00
2095, 1608.00
2096, 1607.00
2097, 1608.00
2098, 1606.00
2099, 1608.00
2100, 1607.00
2101, 1608.00
2102, 1608.00
2103, 1608.00
2104, 1610.00
2105, 1609.00
2106, 1610.00
2107, 1612.00
2108, 1613.00
2109, 1612.00
2110, 1612.00
2111, 1611.00
2112, 1612.00
2113, 1612.00
2114, 1613.00
2115, 1613.00
2116, 1612.00
2117, 1613.00
2118, 1613.00
2119, 1614.00
2120, 1613.00
2121, 1613.00
2122, 1614.00
2123, 1616.00
2124, 1615.00
2125, 1616.00
2126, 1616.00
2127, 1615.00
2128, 1618.00
2129, 1617.00
2130, 1618.00
2131, 1618.00
2132, 1616.00
2133, 1617.00
2134, 1618.00
2135, 1618.00
2136, 1618.00
2137, 1618.00
2138, 1619.00
2139, 1619.00
2140, 1619.00
2141, 1618.00
2142, 1620.00
2143, 1620.00
2144, 1620.00
2145, 1619.00
2146, 1620.00
2147, 1621.00
2148, 1620.00
2149, 1620.00
2150, 1621.00
