FW version: 24
Log Version: 3.0.3

General Info:
       Command/Macro Performed,            Timestamp,             Device ID, COM Port, UART/I2C, Test Name, Host Major, Host Minor, Host Revision, Host Git Commit
            Single_measurement,  2023_06_30_11_44_16,       Insight2_F4_xxx,    USB-C,      USB,          ,          0,          1,             1,      4031237645

Show Spectrometer Status:
l0_version, f4_version, battery_perc, battery_mVolt, accelerometer_temp, accelerometer_x, accelerometer_y, accelerometer_z, compass_temp, compass_x, compass_y, compass_z, lamp_0, lamp_1, gain_0, gain_1
        17,         24,           95,          2079,               5920,           65512,             320,           18412,            0,     65518,     65361,     65533,   2047,   2047,      1,      1

Temperature Statistic Info:
NTC AVG [°C], NTC2 AVG [°C]
      38.245,        37.954

Statistic Info:
M1:  num,      min,      max,   median,      AVG,      STD,M2:  num,      min,      max,   median,      AVG,      STD
     301,   751.00,   867.00,   778.00,   790.68,  36.6299,     401,  1117.00,  1192.00,  1151.00,  1152.15,  24.8468,

Measurements:
Wavelength, Data Amplitude
1350, 768.00
1351, 769.00
1352, 768.00
1353, 768.00
1354, 767.00
1355, 767.00
1356, 767.00
1357, 767.00
1358, 766.00
1359, 765.00
1360, 766.00
1361, 765.00
1362, 765.00
1363, 763.00
1364, 763.00
1365, 763.00
1366, 763.00
1367, 763.00
1368, 762.00
1369, 761.00
1370, 761.00
1371, 761.00
1372, 759.00
1373, 759.00
1374, 759.00
1375, 759.00
1376, 758.00
1377, 757.00
1378, 757.00
1379, 757.00
1380, 756.00
1381, 756.00
1382, 756.00
1383, 756.00
1384, 755.00
1385, 755.00
1386, 755.00
1387, 755.00
1388, 754.00
1389, 755.00
1390, 755.00
1391, 754.00
1392, 753.00
1393, 753.00
1394, 754.00
1395, 753.00
1396, 753.00
1397, 753.00
1398, 754.00
1399, 752.00
1400, 753.00
1401, 753.00
1402, 753.00
1403, 753.00
1404, 752.00
1405, 753.00
1406, 752.00
1407, 753.00
1408, 752.00
1409, 752.00
1410, 754.00
1411, 753.00
1412, 752.00
1413, 752.00
1414, 752.00
1415, 752.00
1416, 751.00
1417, 752.00
1418, 752.00
1419, 752.00
1420, 751.00
1421, 751.00
1422, 752.00
1423, 752.00
1424, 753.00
1425, 752.00
1426, 752.00
1427, 752.00
1428, 753.00
1429, 753.00
1430, 753.00
1431, 753.00
1432, 753.00
1433, 753.00
1434, 754.00
1435, 754.00
1436, 754.00
1437, 754.00
1438, 755.00
1439, 754.00
1440, 754.00
1441, 754.00
1442, 755.00
1443, 755.00
1444, 755.00
1445, 755.00
1446, 756.00
1447, 756.00
1448, 756.00
1449, 756.00
1450, 757.00
1451, 757.00
1452, 757.00
1453, 759.00
1454, 758.00
1455, 758.00
1456, 759.00
1457, 759.00
1458, 759.00
1459, 760.00
1460, 760.00
1461, 760.00
1462, 760.00
1463, 761.00
1464, 761.00
1465, 761.00
1466, 761.00
1467, 763.00
1468, 763.00
1469, 762.00
1470, 763.00
1471, 763.00
1472, 763.00
1473, 764.00
1474, 764.00
1475, 765.00
1476, 765.00
1477, 767.00
1478, 767.00
1479, 767.00
1480, 767.00
1481, 769.00
1482, 769.00
1483, 769.00
1484, 770.00
1485, 770.00
1486, 770.00
1487, 771.00
1488, 772.00
1489, 773.00
1490, 773.00
1491, 773.00
1492, 774.00
1493, 774.00
1494, 775.00
1495, 775.00
1496, 775.00
1497, 776.00
1498, 776.00
1499, 778.00
1500, 778.00
1501, 778.00
1502, 779.00
1503, 779.00
1504, 780.00
1505, 780.00
1506, 781.00
1507, 781.00
1508, 782.00
1509, 782.00
1510, 783.00
1511, 783.00
1512, 784.00
1513, 785.00
1514, 785.00
1515, 786.00
1516, 787.00
1517, 787.00
1518, 787.00
1519, 788.00
1520, 789.00
1521, 789.00
1522, 790.00
1523, 790.00
1524, 792.00
1525, 791.00
1526, 793.00
1527, 793.00
1528, 793.00
1529, 795.00
1530, 795.00
1531, 795.00
1532, 796.00
1533, 796.00
1534, 797.00
1535, 797.00
1536, 799.00
1537, 799.00
1538, 800.00
1539, 800.00
1540, 801.00
1541, 801.00
1542, 802.00
1543, 801.00
1544, 803.00
1545, 803.00
1546, 804.00
1547, 804.00
1548, 804.00
1549, 805.00
1550, 806.00
1551, 807.00
1552, 807.00
1553, 808.00
1554, 808.00
1555, 809.00
1556, 809.00
1557, 809.00
1558, 811.00
1559, 812.00
1560, 811.00
1561, 813.00
1562, 813.00
1563, 814.00
1564, 814.00
1565, 816.00
1566, 817.00
1567, 816.00
1568, 817.00
1569, 817.00
1570, 818.00
1571, 818.00
1572, 820.00
1573, 820.00
1574, 821.00
1575, 820.00
1576, 822.00
1577, 823.00
1578, 824.00
1579, 823.00
1580, 824.00
1581, 824.00
1582, 826.00
1583, 826.00
1584, 826.00
1585, 826.00
1586, 828.00
1587, 828.00
1588, 828.00
1589, 829.00
1590, 830.00
1591, 830.00
1592, 831.00
1593, 832.00
1594, 832.00
1595, 833.00
1596, 833.00
1597, 833.00
1598, 834.00
1599, 836.00
1600, 835.00
1601, 836.00
1602, 837.00
1603, 837.00
1604, 838.00
1605, 838.00
1606, 839.00
1607, 840.00
1608, 842.00
1609, 841.00
1610, 842.00
1611, 842.00
1612, 844.00
1613, 845.00
1614, 845.00
1615, 845.00
1616, 846.00
1617, 847.00
1618, 848.00
1619, 848.00
1620, 849.00
1621, 850.00
1622, 851.00
1623, 852.00
1624, 852.00
1625, 853.00
1626, 854.00
1627, 855.00
1628, 856.00
1629, 855.00
1630, 856.00
1631, 857.00
1632, 858.00
1633, 858.00
1634, 859.00
1635, 859.00
1636, 860.00
1637, 860.00
1638, 861.00
1639, 861.00
1640, 862.00
1641, 862.00
1642, 863.00
1643, 864.00
1644, 864.00
1645, 864.00
1646, 865.00
1647, 866.00
1648, 866.00
1649, 867.00
1650, 867.00

1750, 1191.00
1751, 1190.00
1752, 1189.00
1753, 1191.00
1754, 1192.00
1755, 1190.00
1756, 1191.00
1757, 1191.00
1758, 1190.00
1759, 1190.00
1760, 1192.00
1761, 1188.00
1762, 1191.00
1763, 1191.00
1764, 1192.00
1765, 1191.00
1766, 1189.00
1767, 1189.00
1768, 1189.00
1769, 1190.00
1770, 1190.00
1771, 1190.00
1772, 1190.00
1773, 1189.00
1774, 1188.00
1775, 1189.00
1776, 1187.00
1777, 1188.00
1778, 1187.00
1779, 1189.00
1780, 1187.00
1781, 1188.00
1782, 1188.00
1783, 1188.00
1784, 1188.00
1785, 1187.00
1786, 1187.00
1787, 1188.00
1788, 1186.00
1789, 1185.00
1790, 1187.00
1791, 1185.00
1792, 1186.00
1793, 1186.00
1794, 1185.00
1795, 1184.00
1796, 1184.00
1797, 1184.00
1798, 1183.00
1799, 1185.00
1800, 1181.00
1801, 1183.00
1802, 1183.00
1803, 1182.00
1804, 1182.00
1805, 1181.00
1806, 1182.00
1807, 1183.00
1808, 1183.00
1809, 1182.00
1810, 1181.00
1811, 1180.00
1812, 1180.00
1813, 1179.00
1814, 1182.00
1815, 1180.00
1816, 1179.00
1817, 1178.00
1818, 1179.00
1819, 1179.00
1820, 1178.00
1821, 1178.00
1822, 1178.00
1823, 1175.00
1824, 1175.00
1825, 1175.00
1826, 1175.00
1827, 1174.00
1828, 1173.00
1829, 1174.00
1830, 1175.00
1831, 1173.00
1832, 1170.00
1833, 1168.00
1834, 1169.00
1835, 1168.00
1836, 1169.00
1837, 1168.00
1838, 1164.00
1839, 1165.00
1840, 1164.00
1841, 1161.00
1842, 1163.00
1843, 1161.00
1844, 1159.00
1845, 1157.00
1846, 1158.00
1847, 1156.00
1848, 1155.00
1849, 1154.00
1850, 1152.00
1851, 1150.00
1852, 1151.00
1853, 1149.00
1854, 1147.00
1855, 1147.00
1856, 1147.00
1857, 1145.00
1858, 1143.00
1859, 1144.00
1860, 1140.00
1861, 1139.00
1862, 1138.00
1863, 1138.00
1864, 1139.00
1865, 1137.00
1866, 1136.00
1867, 1135.00
1868, 1135.00
1869, 1133.00
1870, 1133.00
1871, 1130.00
1872, 1131.00
1873, 1131.00
1874, 1131.00
1875, 1130.00
1876, 1127.00
1877, 1129.00
1878, 1127.00
1879, 1126.00
1880, 1127.00
1881, 1127.00
1882, 1125.00
1883, 1125.00
1884, 1126.00
1885, 1124.00
1886, 1124.00
1887, 1123.00
1888, 1124.00
1889, 1124.00
1890, 1124.00
1891, 1123.00
1892, 1123.00
1893, 1122.00
1894, 1122.00
1895, 1122.00
1896, 1121.00
1897, 1121.00
1898, 1121.00
1899, 1120.00
1900, 1120.00
1901, 1120.00
1902, 1121.00
1903, 1119.00
1904, 1121.00
1905, 1120.00
1906, 1121.00
1907, 1120.00
1908, 1121.00
1909, 1119.00
1910, 1119.00
1911, 1119.00
1912, 1118.00
1913, 1120.00
1914, 1119.00
1915, 1118.00
1916, 1118.00
1917, 1119.00
1918, 1117.00
1919, 1120.00
1920, 1118.00
1921, 1117.00
1922, 1118.00
1923, 1117.00
1924, 1118.00
1925, 1119.00
1926, 1119.00
1927, 1119.00
1928, 1118.00
1929, 1119.00
1930, 1119.00
1931, 1119.00
1932, 1118.00
1933, 1118.00
1934, 1118.00
1935, 1118.00
1936, 1119.00
1937, 1119.00
1938, 1118.00
1939, 1119.00
1940, 1117.00
1941, 1119.00
1942, 1120.00
1943, 1121.00
1944, 1120.00
1945, 1120.00
1946, 1119.00
1947, 1120.00
1948, 1121.00
1949, 1121.00
1950, 1120.00
1951, 1121.00
1952, 1121.00
1953, 1121.00
1954, 1121.00
1955, 1122.00
1956, 1121.00
1957, 1123.00
1958, 1123.00
1959, 1122.00
1960, 1122.00
1961, 1124.00
1962, 1124.00
1963, 1123.00
1964, 1122.00
1965, 1124.00
1966, 1124.00
1967, 1125.00
1968, 1125.00
1969, 1126.00
1970, 1126.00
1971, 1126.00
1972, 1127.00
1973, 1125.00
1974, 1126.00
1975, 1126.00
1976, 1127.00
1977, 1127.00
1978, 1126.00
1979, 1128.00
1980, 1128.00
1981, 1128.00
1982, 1127.00
1983, 1128.00
1984, 1130.00
1985, 1132.00
1986, 1128.00
1987, 1129.00
1988, 1130.00
1989, 1130.00
1990, 1131.00
1991, 1131.00
1992, 1131.00
1993, 1132.00
1994, 1130.00
1995, 1132.00
1996, 1132.00
1997, 1133.00
1998, 1132.00
1999, 1131.00
2000, 1134.00
2001, 1135.00
2002, 1133.00
2003, 1133.00
2004, 1135.00
2005, 1135.00
2006, 1135.00
2007, 1135.00
2008, 1135.00
2009, 1135.00
2010, 1135.00
2011, 1136.00
2012, 1138.00
2013, 1137.00
2014, 1137.00
2015, 1136.00
2016, 1137.00
2017, 1138.00
2018, 1138.00
2019, 1140.00
2020, 1139.00
2021, 1138.00
2022, 1141.00
2023, 1140.00
2024, 1137.00
2025, 1141.00
2026, 1142.00
2027, 1142.00
2028, 1142.00
2029, 1143.00
2030, 1142.00
2031, 1142.00
2032, 1143.00
2033, 1144.00
2034, 1144.00
2035, 1144.00
2036, 1144.00
2037, 1145.00
2038, 1148.00
2039, 1145.00
2040, 1146.00
2041, 1147.00
2042, 1146.00
2043, 1147.00
2044, 1147.00
2045, 1148.00
2046, 1148.00
2047, 1148.00
2048, 1150.00
2049, 1151.00
2050, 1149.00
2051, 1149.00
2052, 1152.00
2053, 1152.00
2054, 1149.00
2055, 1153.00
2056, 1153.00
2057, 1154.00
2058, 1154.00
2059, 1154.00
2060, 1154.00
2061, 1155.00
2062, 1156.00
2063, 1157.00
2064, 1157.00
2065, 1157.00
2066, 1157.00
2067, 1157.00
2068, 1159.00
2069, 1158.00
2070, 1160.00
2071, 1160.00
2072, 1160.00
2073, 1162.00
2074, 1162.00
2075, 1159.00
2076, 1163.00
2077, 1163.00
2078, 1161.00
2079, 1162.00
2080, 1163.00
2081, 1164.00
2082, 1165.00
2083, 1164.00
2084, 1165.00
2085, 1167.00
2086, 1168.00
2087, 1168.00
2088, 1168.00
2089, 1169.00
2090, 1167.00
2091, 1168.00
2092, 1169.00
2093, 1168.00
2094, 1168.00
2095, 1169.00
2096, 1171.00
2097, 1170.00
2098, 1170.00
2099, 1170.00
2100, 1171.00
2101, 1171.00
2102, 1171.00
2103, 1172.00
2104, 1172.00
2105, 1172.00
2106, 1171.00
2107, 1171.00
2108, 1173.00
2109, 1174.00
2110, 1172.00
2111, 1173.00
2112, 1173.00
2113, 1175.00
2114, 1173.00
2115, 1174.00
2116, 1174.00
2117, 1174.00
2118, 1174.00
2119, 1175.00
2120, 1176.00
2121, 1176.00
2122, 1176.00
2123, 1175.00
2124, 1177.00
2125, 1176.00
2126, 1177.00
2127, 1176.00
2128, 1177.00
2129, 1178.00
2130, 1177.00
2131, 1177.00
2132, 1177.00
2133, 1177.00
2134, 1178.00
2135, 1180.00
2136, 1177.00
2137, 1179.00
2138, 1178.00
2139, 1180.00
2140, 1178.00
2141, 1180.00
2142, 1180.00
2143, 1179.00
2144, 1178.00
2145, 1179.00
2146, 1180.00
2147, 1180.00
2148, 1179.00
2149, 1181.00
2150, 1180.00
