FW version: 24
Log Version: 3.0.3

General Info:
       Command/Macro Performed,            Timestamp,             Device ID, COM Port, UART/I2C, Test Name, Host Major, Host Minor, Host Revision, Host Git Commit
            Single_measurement,  2023_06_30_11_45_22,       Insight2_F4_xxx,    USB-C,      USB,          ,          0,          1,             1,      4031237645

Show Spectrometer Status:
l0_version, f4_version, battery_perc, battery_mVolt, accelerometer_temp, accelerometer_x, accelerometer_y, accelerometer_z, compass_temp, compass_x, compass_y, compass_z, lamp_0, lamp_1, gain_0, gain_1
        17,         24,           95,          2079,               5968,           65528,             388,           18396,            0,     65534,     65495,     65532,   3276,   3276,      1,      1

Temperature Statistic Info:
NTC AVG [°C], NTC2 AVG [°C]
      38.595,        38.362

Statistic Info:
M1:  num,      min,      max,   median,      AVG,      STD,M2:  num,      min,      max,   median,      AVG,      STD
     301,  1885.00,  2150.00,  1940.00,  1972.61,  82.0339,     401,  2468.00,  2633.00,  2537.00,  2540.39,  53.5138,

Measurements:
Wavelength, Data Amplitude
1350, 1934.00
1351, 1933.00
1352, 1932.00
1353, 1932.00
1354, 1930.00
1355, 1929.00
1356, 1928.00
1357, 1927.00
1358, 1927.00
1359, 1925.00
1360, 1925.00
1361, 1924.00
1362, 1923.00
1363, 1922.00
1364, 1920.00
1365, 1919.00
1366, 1917.00
1367, 1917.00
1368, 1914.00
1369, 1914.00
1370, 1912.00
1371, 1911.00
1372, 1909.00
1373, 1909.00
1374, 1909.00
1375, 1906.00
1376, 1905.00
1377, 1903.00
1378, 1903.00
1379, 1902.00
1380, 1900.00
1381, 1900.00
1382, 1899.00
1383, 1899.00
1384, 1897.00
1385, 1897.00
1386, 1897.00
1387, 1897.00
1388, 1894.00
1389, 1893.00
1390, 1893.00
1391, 1893.00
1392, 1893.00
1393, 1892.00
1394, 1892.00
1395, 1891.00
1396, 1891.00
1397, 1890.00
1398, 1890.00
1399, 1889.00
1400, 1889.00
1401, 1890.00
1402, 1889.00
1403, 1889.00
1404, 1888.00
1405, 1888.00
1406, 1887.00
1407, 1887.00
1408, 1887.00
1409, 1887.00
1410, 1888.00
1411, 1887.00
1412, 1887.00
1413, 1887.00
1414, 1886.00
1415, 1887.00
1416, 1886.00
1417, 1887.00
1418, 1885.00
1419, 1886.00
1420, 1887.00
1421, 1886.00
1422, 1886.00
1423, 1887.00
1424, 1886.00
1425, 1886.00
1426, 1886.00
1427, 1887.00
1428, 1887.00
1429, 1888.00
1430, 1887.00
1431, 1888.00
1432, 1887.00
1433, 1887.00
1434, 1889.00
1435, 1889.00
1436, 1889.00
1437, 1890.00
1438, 1891.00
1439, 1890.00
1440, 1891.00
1441, 1892.00
1442, 1891.00
1443, 1891.00
1444, 1892.00
1445, 1893.00
1446, 1894.00
1447, 1894.00
1448, 1895.00
1449, 1895.00
1450, 1895.00
1451, 1896.00
1452, 1897.00
1453, 1896.00
1454, 1898.00
1455, 1898.00
1456, 1899.00
1457, 1899.00
1458, 1901.00
1459, 1901.00
1460, 1901.00
1461, 1901.00
1462, 1903.00
1463, 1903.00
1464, 1904.00
1465, 1906.00
1466, 1907.00
1467, 1907.00
1468, 1907.00
1469, 1908.00
1470, 1909.00
1471, 1910.00
1472, 1911.00
1473, 1913.00
1474, 1914.00
1475, 1914.00
1476, 1915.00
1477, 1916.00
1478, 1917.00
1479, 1918.00
1480, 1919.00
1481, 1919.00
1482, 1921.00
1483, 1922.00
1484, 1923.00
1485, 1924.00
1486, 1925.00
1487, 1926.00
1488, 1928.00
1489, 1927.00
1490, 1930.00
1491, 1931.00
1492, 1931.00
1493, 1932.00
1494, 1934.00
1495, 1935.00
1496, 1936.00
1497, 1937.00
1498, 1937.00
1499, 1939.00
1500, 1940.00
1501, 1941.00
1502, 1942.00
1503, 1944.00
1504, 1945.00
1505, 1947.00
1506, 1947.00
1507, 1947.00
1508, 1949.00
1509, 1950.00
1510, 1951.00
1511, 1952.00
1512, 1954.00
1513, 1956.00
1514, 1956.00
1515, 1957.00
1516, 1958.00
1517, 1959.00
1518, 1961.00
1519, 1962.00
1520, 1963.00
1521, 1965.00
1522, 1966.00
1523, 1967.00
1524, 1969.00
1525, 1970.00
1526, 1970.00
1527, 1973.00
1528, 1974.00
1529, 1975.00
1530, 1977.00
1531, 1977.00
1532, 1978.00
1533, 1980.00
1534, 1983.00
1535, 1983.00
1536, 1985.00
1537, 1987.00
1538, 1986.00
1539, 1990.00
1540, 1990.00
1541, 1992.00
1542, 1993.00
1543, 1993.00
1544, 1995.00
1545, 1997.00
1546, 1997.00
1547, 1999.00
1548, 2001.00
1549, 2002.00
1550, 2003.00
1551, 2004.00
1552, 2007.00
1553, 2008.00
1554, 2008.00
1555, 2011.00
1556, 2011.00
1557, 2013.00
1558, 2014.00
1559, 2016.00
1560, 2018.00
1561, 2019.00
1562, 2020.00
1563, 2022.00
1564, 2023.00
1565, 2025.00
1566, 2025.00
1567, 2029.00
1568, 2029.00
1569, 2031.00
1570, 2031.00
1571, 2032.00
1572, 2036.00
1573, 2037.00
1574, 2038.00
1575, 2040.00
1576, 2042.00
1577, 2043.00
1578, 2044.00
1579, 2047.00
1580, 2046.00
1581, 2047.00
1582, 2051.00
1583, 2051.00
1584, 2052.00
1585, 2054.00
1586, 2054.00
1587, 2057.00
1588, 2058.00
1589, 2058.00
1590, 2060.00
1591, 2060.00
1592, 2063.00
1593, 2064.00
1594, 2067.00
1595, 2068.00
1596, 2068.00
1597, 2069.00
1598, 2071.00
1599, 2072.00
1600, 2074.00
1601, 2075.00
1602, 2075.00
1603, 2078.00
1604, 2080.00
1605, 2080.00
1606, 2083.00
1607, 2084.00
1608, 2086.00
1609, 2087.00
1610, 2088.00
1611, 2090.00
1612, 2092.00
1613, 2093.00
1614, 2095.00
1615, 2097.00
1616, 2099.00
1617, 2100.00
1618, 2101.00
1619, 2104.00
1620, 2105.00
1621, 2107.00
1622, 2108.00
1623, 2110.00
1624, 2112.00
1625, 2114.00
1626, 2115.00
1627, 2116.00
1628, 2118.00
1629, 2120.00
1630, 2122.00
1631, 2123.00
1632, 2125.00
1633, 2125.00
1634, 2127.00
1635, 2128.00
1636, 2129.00
1637, 2131.00
1638, 2131.00
1639, 2135.00
1640, 2136.00
1641, 2137.00
1642, 2139.00
1643, 2141.00
1644, 2141.00
1645, 2141.00
1646, 2144.00
1647, 2145.00
1648, 2147.00
1649, 2147.00
1650, 2150.00

1750, 2629.00
1751, 2630.00
1752, 2629.00
1753, 2629.00
1754, 2629.00
1755, 2630.00
1756, 2633.00
1757, 2629.00
1758, 2630.00
1759, 2630.00
1760, 2629.00
1761, 2629.00
1762, 2629.00
1763, 2628.00
1764, 2629.00
1765, 2629.00
1766, 2629.00
1767, 2628.00
1768, 2629.00
1769, 2628.00
1770, 2628.00
1771, 2628.00
1772, 2627.00
1773, 2628.00
1774, 2623.00
1775, 2626.00
1776, 2626.00
1777, 2625.00
1778, 2624.00
1779, 2624.00
1780, 2623.00
1781, 2623.00
1782, 2621.00
1783, 2622.00
1784, 2621.00
1785, 2620.00
1786, 2618.00
1787, 2619.00
1788, 2620.00
1789, 2618.00
1790, 2617.00
1791, 2617.00
1792, 2617.00
1793, 2615.00
1794, 2615.00
1795, 2615.00
1796, 2611.00
1797, 2614.00
1798, 2614.00
1799, 2612.00
1800, 2611.00
1801, 2612.00
1802, 2611.00
1803, 2611.00
1804, 2610.00
1805, 2610.00
1806, 2609.00
1807, 2608.00
1808, 2606.00
1809, 2607.00
1810, 2609.00
1811, 2606.00
1812, 2607.00
1813, 2605.00
1814, 2603.00
1815, 2603.00
1816, 2602.00
1817, 2602.00
1818, 2601.00
1819, 2600.00
1820, 2599.00
1821, 2598.00
1822, 2597.00
1823, 2597.00
1824, 2596.00
1825, 2594.00
1826, 2592.00
1827, 2592.00
1828, 2590.00
1829, 2589.00
1830, 2585.00
1831, 2584.00
1832, 2583.00
1833, 2582.00
1834, 2580.00
1835, 2577.00
1836, 2576.00
1837, 2574.00
1838, 2574.00
1839, 2570.00
1840, 2568.00
1841, 2564.00
1842, 2565.00
1843, 2560.00
1844, 2559.00
1845, 2555.00
1846, 2554.00
1847, 2552.00
1848, 2549.00
1849, 2544.00
1850, 2541.00
1851, 2541.00
1852, 2537.00
1853, 2535.00
1854, 2532.00
1855, 2531.00
1856, 2529.00
1857, 2526.00
1858, 2521.00
1859, 2521.00
1860, 2519.00
1861, 2516.00
1862, 2514.00
1863, 2512.00
1864, 2511.00
1865, 2508.00
1866, 2507.00
1867, 2506.00
1868, 2503.00
1869, 2498.00
1870, 2500.00
1871, 2499.00
1872, 2497.00
1873, 2496.00
1874, 2493.00
1875, 2492.00
1876, 2492.00
1877, 2488.00
1878, 2490.00
1879, 2488.00
1880, 2488.00
1881, 2485.00
1882, 2483.00
1883, 2485.00
1884, 2484.00
1885, 2482.00
1886, 2483.00
1887, 2481.00
1888, 2481.00
1889, 2482.00
1890, 2480.00
1891, 2477.00
1892, 2478.00
1893, 2475.00
1894, 2475.00
1895, 2477.00
1896, 2476.00
1897, 2475.00
1898, 2476.00
1899, 2474.00
1900, 2476.00
1901, 2473.00
1902, 2474.00
1903, 2473.00
1904, 2473.00
1905, 2473.00
1906, 2473.00
1907, 2472.00
1908, 2471.00
1909, 2469.00
1910, 2472.00
1911, 2471.00
1912, 2471.00
1913, 2472.00
1914, 2473.00
1915, 2470.00
1916, 2469.00
1917, 2471.00
1918, 2469.00
1919, 2470.00
1920, 2470.00
1921, 2471.00
1922, 2470.00
1923, 2469.00
1924, 2470.00
1925, 2468.00
1926, 2469.00
1927, 2470.00
1928, 2470.00
1929, 2469.00
1930, 2471.00
1931, 2470.00
1932, 2469.00
1933, 2470.00
1934, 2471.00
1935, 2470.00
1936, 2471.00
1937, 2469.00
1938, 2469.00
1939, 2470.00
1940, 2473.00
1941, 2470.00
1942, 2471.00
1943, 2472.00
1944, 2472.00
1945, 2472.00
1946, 2472.00
1947, 2473.00
1948, 2473.00
1949, 2474.00
1950, 2473.00
1951, 2473.00
1952, 2474.00
1953, 2474.00
1954, 2474.00
1955, 2475.00
1956, 2475.00
1957, 2475.00
1958, 2475.00
1959, 2478.00
1960, 2479.00
1961, 2476.00
1962, 2478.00
1963, 2478.00
1964, 2478.00
1965, 2481.00
1966, 2478.00
1967, 2481.00
1968, 2481.00
1969, 2480.00
1970, 2482.00
1971, 2483.00
1972, 2484.00
1973, 2483.00
1974, 2485.00
1975, 2486.00
1976, 2486.00
1977, 2488.00
1978, 2488.00
1979, 2487.00
1980, 2490.00
1981, 2487.00
1982, 2489.00
1983, 2491.00
1984, 2490.00
1985, 2489.00
1986, 2490.00
1987, 2492.00
1988, 2492.00
1989, 2493.00
1990, 2493.00
1991, 2496.00
1992, 2494.00
1993, 2495.00
1994, 2498.00
1995, 2496.00
1996, 2498.00
1997, 2499.00
1998, 2496.00
1999, 2499.00
2000, 2499.00
2001, 2500.00
2002, 2501.00
2003, 2502.00
2004, 2504.00
2005, 2503.00
2006, 2505.00
2007, 2505.00
2008, 2505.00
2009, 2506.00
2010, 2506.00
2011, 2505.00
2012, 2509.00
2013, 2507.00
2014, 2508.00
2015, 2509.00
2016, 2509.00
2017, 2509.00
2018, 2509.00
2019, 2512.00
2020, 2509.00
2021, 2514.00
2022, 2513.00
2023, 2513.00
2024, 2515.00
2025, 2515.00
2026, 2515.00
2027, 2515.00
2028, 2516.00
2029, 2517.00
2030, 2519.00
2031, 2520.00
2032, 2519.00
2033, 2520.00
2034, 2518.00
2035, 2520.00
2036, 2522.00
2037, 2523.00
2038, 2525.00
2039, 2524.00
2040, 2526.00
2041, 2525.00
2042, 2526.00
2043, 2525.00
2044, 2527.00
2045, 2529.00
2046, 2530.00
2047, 2532.00
2048, 2531.00
2049, 2533.00
2050, 2534.00
2051, 2533.00
2052, 2535.00
2053, 2537.00
2054, 2539.00
2055, 2539.00
2056, 2537.00
2057, 2539.00
2058, 2542.00
2059, 2543.00
2060, 2542.00
2061, 2545.00
2062, 2544.00
2063, 2545.00
2064, 2546.00
2065, 2547.00
2066, 2548.00
2067, 2549.00
2068, 2552.00
2069, 2551.00
2070, 2552.00
2071, 2554.00
2072, 2553.00
2073, 2555.00
2074, 2557.00
2075, 2555.00
2076, 2555.00
2077, 2559.00
2078, 2559.00
2079, 2559.00
2080, 2561.00
2081, 2563.00
2082, 2561.00
2083, 2563.00
2084, 2564.00
2085, 2564.00
2086, 2565.00
2087, 2567.00
2088, 2565.00
2089, 2568.00
2090, 2569.00
2091, 2568.00
2092, 2568.00
2093, 2571.00
2094, 2570.00
2095, 2570.00
2096, 2573.00
2097, 2573.00
2098, 2574.00
2099, 2575.00
2100, 2573.00
2101, 2574.00
2102, 2577.00
2103, 2576.00
2104, 2578.00
2105, 2577.00
2106, 2576.00
2107, 2579.00
2108, 2578.00
2109, 2578.00
2110, 2577.00
2111, 2579.00
2112, 2580.00
2113, 2582.00
2114, 2581.00
2115, 2580.00
2116, 2579.00
2117, 2579.00
2118, 2581.00
2119, 2582.00
2120, 2583.00
2121, 2584.00
2122, 2583.00
2123, 2584.00
2124, 2585.00
2125, 2585.00
2126, 2585.00
2127, 2587.00
2128, 2587.00
2129, 2586.00
2130, 2588.00
2131, 2587.00
2132, 2589.00
2133, 2587.00
2134, 2588.00
2135, 2588.00
2136, 2590.00
2137, 2592.00
2138, 2591.00
2139, 2589.00
2140, 2588.00
2141, 2591.00
2142, 2592.00
2143, 2591.00
2144, 2590.00
2145, 2592.00
2146, 2592.00
2147, 2593.00
2148, 2593.00
2149, 2593.00
2150, 2593.00
