FW version: 24
Log Version: 3.0.3

General Info:
       Command/Macro Performed,            Timestamp,             Device ID, COM Port, UART/I2C, Test Name, Host Major, Host Minor, Host Revision, Host Git Commit
            Single_measurement,  2023_07_11_10_35_15,       Insight2_F4_xxx,    USB-C,      USB,          ,          0,          1,             1,      4031237645

Show Spectrometer Status:
l0_version, f4_version, battery_perc, battery_mVolt, accelerometer_temp, accelerometer_x, accelerometer_y, accelerometer_z, compass_temp, compass_x, compass_y, compass_z, lamp_0, lamp_1, gain_0, gain_1
        17,         24,           49,          1905,               5584,           65216,             780,           18708,            0,     65487,     65388,     18782,   2457,   2457,      1,      1

Temperature Statistic Info:
NTC AVG [°C], NTC2 AVG [°C]
      35.668,        35.328

Statistic Info:
M1:  num,      min,      max,   median,      AVG,      STD,M2:  num,      min,      max,   median,      AVG,      STD
     301,  1283.00,  1494.00,  1327.00,  1352.27,  65.7741,     401,  1785.00,  1912.00,  1837.00,  1841.19,  41.8985,

Measurements:
Wavelength, Data Amplitude
1350, 1320.00
1351, 1319.00
1352, 1317.00
1353, 1317.00
1354, 1316.00
1355, 1316.00
1356, 1316.00
1357, 1314.00
1358, 1314.00
1359, 1313.00
1360, 1313.00
1361, 1312.00
1362, 1311.00
1363, 1311.00
1364, 1309.00
1365, 1308.00
1366, 1307.00
1367, 1307.00
1368, 1306.00
1369, 1304.00
1370, 1303.00
1371, 1302.00
1372, 1301.00
1373, 1300.00
1374, 1299.00
1375, 1299.00
1376, 1298.00
1377, 1295.00
1378, 1296.00
1379, 1296.00
1380, 1295.00
1381, 1293.00
1382, 1293.00
1383, 1292.00
1384, 1292.00
1385, 1291.00
1386, 1290.00
1387, 1290.00
1388, 1289.00
1389, 1289.00
1390, 1290.00
1391, 1289.00
1392, 1288.00
1393, 1289.00
1394, 1286.00
1395, 1287.00
1396, 1286.00
1397, 1286.00
1398, 1287.00
1399, 1286.00
1400, 1287.00
1401, 1285.00
1402, 1285.00
1403, 1284.00
1404, 1285.00
1405, 1286.00
1406, 1285.00
1407, 1285.00
1408, 1285.00
1409, 1284.00
1410, 1284.00
1411, 1284.00
1412, 1284.00
1413, 1284.00
1414, 1283.00
1415, 1284.00
1416, 1283.00
1417, 1284.00
1418, 1284.00
1419, 1284.00
1420, 1284.00
1421, 1283.00
1422, 1284.00
1423, 1284.00
1424, 1283.00
1425, 1283.00
1426, 1283.00
1427, 1285.00
1428, 1284.00
1429, 1285.00
1430, 1285.00
1431, 1285.00
1432, 1285.00
1433, 1285.00
1434, 1285.00
1435, 1286.00
1436, 1285.00
1437, 1286.00
1438, 1286.00
1439, 1287.00
1440, 1288.00
1441, 1288.00
1442, 1289.00
1443, 1288.00
1444, 1289.00
1445, 1288.00
1446, 1290.00
1447, 1289.00
1448, 1290.00
1449, 1290.00
1450, 1291.00
1451, 1291.00
1452, 1292.00
1453, 1292.00
1454, 1293.00
1455, 1293.00
1456, 1293.00
1457, 1294.00
1458, 1294.00
1459, 1295.00
1460, 1296.00
1461, 1296.00
1462, 1298.00
1463, 1297.00
1464, 1297.00
1465, 1298.00
1466, 1299.00
1467, 1300.00
1468, 1302.00
1469, 1301.00
1470, 1302.00
1471, 1302.00
1472, 1303.00
1473, 1304.00
1474, 1304.00
1475, 1305.00
1476, 1307.00
1477, 1307.00
1478, 1308.00
1479, 1308.00
1480, 1310.00
1481, 1311.00
1482, 1311.00
1483, 1312.00
1484, 1312.00
1485, 1313.00
1486, 1314.00
1487, 1315.00
1488, 1316.00
1489, 1317.00
1490, 1317.00
1491, 1318.00
1492, 1319.00
1493, 1320.00
1494, 1321.00
1495, 1322.00
1496, 1322.00
1497, 1323.00
1498, 1324.00
1499, 1325.00
1500, 1327.00
1501, 1327.00
1502, 1327.00
1503, 1329.00
1504, 1329.00
1505, 1331.00
1506, 1330.00
1507, 1332.00
1508, 1333.00
1509, 1334.00
1510, 1335.00
1511, 1336.00
1512, 1336.00
1513, 1339.00
1514, 1338.00
1515, 1340.00
1516, 1340.00
1517, 1342.00
1518, 1343.00
1519, 1345.00
1520, 1345.00
1521, 1347.00
1522, 1348.00
1523, 1348.00
1524, 1349.00
1525, 1350.00
1526, 1351.00
1527, 1352.00
1528, 1354.00
1529, 1354.00
1530, 1356.00
1531, 1356.00
1532, 1358.00
1533, 1359.00
1534, 1359.00
1535, 1361.00
1536, 1362.00
1537, 1364.00
1538, 1364.00
1539, 1366.00
1540, 1366.00
1541, 1367.00
1542, 1368.00
1543, 1369.00
1544, 1370.00
1545, 1372.00
1546, 1373.00
1547, 1373.00
1548, 1375.00
1549, 1375.00
1550, 1377.00
1551, 1378.00
1552, 1379.00
1553, 1381.00
1554, 1381.00
1555, 1383.00
1556, 1383.00
1557, 1384.00
1558, 1386.00
1559, 1387.00
1560, 1388.00
1561, 1389.00
1562, 1391.00
1563, 1392.00
1564, 1392.00
1565, 1395.00
1566, 1396.00
1567, 1397.00
1568, 1398.00
1569, 1399.00
1570, 1400.00
1571, 1401.00
1572, 1402.00
1573, 1404.00
1574, 1405.00
1575, 1405.00
1576, 1407.00
1577, 1407.00
1578, 1410.00
1579, 1410.00
1580, 1411.00
1581, 1411.00
1582, 1413.00
1583, 1415.00
1584, 1416.00
1585, 1416.00
1586, 1418.00
1587, 1418.00
1588, 1420.00
1589, 1421.00
1590, 1423.00
1591, 1423.00
1592, 1424.00
1593, 1425.00
1594, 1427.00
1595, 1427.00
1596, 1428.00
1597, 1428.00
1598, 1430.00
1599, 1431.00
1600, 1433.00
1601, 1434.00
1602, 1435.00
1603, 1436.00
1604, 1439.00
1605, 1438.00
1606, 1440.00
1607, 1441.00
1608, 1442.00
1609, 1444.00
1610, 1445.00
1611, 1446.00
1612, 1449.00
1613, 1450.00
1614, 1450.00
1615, 1452.00
1616, 1453.00
1617, 1454.00
1618, 1455.00
1619, 1457.00
1620, 1458.00
1621, 1460.00
1622, 1461.00
1623, 1463.00
1624, 1465.00
1625, 1465.00
1626, 1467.00
1627, 1468.00
1628, 1469.00
1629, 1471.00
1630, 1472.00
1631, 1473.00
1632, 1474.00
1633, 1476.00
1634, 1476.00
1635, 1478.00
1636, 1479.00
1637, 1481.00
1638, 1482.00
1639, 1483.00
1640, 1484.00
1641, 1484.00
1642, 1486.00
1643, 1488.00
1644, 1488.00
1645, 1489.00
1646, 1491.00
1647, 1491.00
1648, 1492.00
1649, 1493.00
1650, 1494.00

1750, 1911.00
1751, 1911.00
1752, 1912.00
1753, 1911.00
1754, 1911.00
1755, 1911.00
1756, 1911.00
1757, 1910.00
1758, 1911.00
1759, 1912.00
1760, 1912.00
1761, 1911.00
1762, 1911.00
1763, 1911.00
1764, 1911.00
1765, 1911.00
1766, 1910.00
1767, 1910.00
1768, 1911.00
1769, 1910.00
1770, 1909.00
1771, 1909.00
1772, 1911.00
1773, 1910.00
1774, 1909.00
1775, 1909.00
1776, 1908.00
1777, 1909.00
1778, 1907.00
1779, 1909.00
1780, 1907.00
1781, 1905.00
1782, 1907.00
1783, 1907.00
1784, 1905.00
1785, 1906.00
1786, 1906.00
1787, 1904.00
1788, 1903.00
1789, 1904.00
1790, 1902.00
1791, 1902.00
1792, 1901.00
1793, 1901.00
1794, 1900.00
1795, 1902.00
1796, 1901.00
1797, 1901.00
1798, 1899.00
1799, 1899.00
1800, 1899.00
1801, 1898.00
1802, 1900.00
1803, 1897.00
1804, 1896.00
1805, 1897.00
1806, 1896.00
1807, 1896.00
1808, 1897.00
1809, 1896.00
1810, 1896.00
1811, 1896.00
1812, 1893.00
1813, 1892.00
1814, 1892.00
1815, 1892.00
1816, 1892.00
1817, 1891.00
1818, 1891.00
1819, 1889.00
1820, 1888.00
1821, 1890.00
1822, 1887.00
1823, 1886.00
1824, 1886.00
1825, 1887.00
1826, 1883.00
1827, 1882.00
1828, 1881.00
1829, 1880.00
1830, 1880.00
1831, 1879.00
1832, 1876.00
1833, 1877.00
1834, 1874.00
1835, 1871.00
1836, 1871.00
1837, 1872.00
1838, 1867.00
1839, 1866.00
1840, 1866.00
1841, 1863.00
1842, 1859.00
1843, 1859.00
1844, 1857.00
1845, 1855.00
1846, 1853.00
1847, 1851.00
1848, 1849.00
1849, 1847.00
1850, 1845.00
1851, 1844.00
1852, 1842.00
1853, 1839.00
1854, 1836.00
1855, 1835.00
1856, 1834.00
1857, 1833.00
1858, 1830.00
1859, 1827.00
1860, 1826.00
1861, 1824.00
1862, 1823.00
1863, 1821.00
1864, 1819.00
1865, 1817.00
1866, 1818.00
1867, 1815.00
1868, 1813.00
1869, 1812.00
1870, 1810.00
1871, 1810.00
1872, 1808.00
1873, 1807.00
1874, 1807.00
1875, 1806.00
1876, 1805.00
1877, 1801.00
1878, 1804.00
1879, 1802.00
1880, 1800.00
1881, 1801.00
1882, 1800.00
1883, 1800.00
1884, 1799.00
1885, 1797.00
1886, 1797.00
1887, 1795.00
1888, 1797.00
1889, 1796.00
1890, 1795.00
1891, 1795.00
1892, 1793.00
1893, 1794.00
1894, 1794.00
1895, 1792.00
1896, 1795.00
1897, 1791.00
1898, 1790.00
1899, 1791.00
1900, 1790.00
1901, 1791.00
1902, 1790.00
1903, 1789.00
1904, 1791.00
1905, 1790.00
1906, 1790.00
1907, 1788.00
1908, 1790.00
1909, 1789.00
1910, 1789.00
1911, 1789.00
1912, 1787.00
1913, 1789.00
1914, 1788.00
1915, 1789.00
1916, 1787.00
1917, 1788.00
1918, 1787.00
1919, 1787.00
1920, 1786.00
1921, 1788.00
1922, 1786.00
1923, 1787.00
1924, 1787.00
1925, 1786.00
1926, 1787.00
1927, 1786.00
1928, 1786.00
1929, 1788.00
1930, 1787.00
1931, 1787.00
1932, 1787.00
1933, 1785.00
1934, 1787.00
1935, 1788.00
1936, 1786.00
1937, 1787.00
1938, 1788.00
1939, 1787.00
1940, 1788.00
1941, 1788.00
1942, 1788.00
1943, 1787.00
1944, 1788.00
1945, 1787.00
1946, 1788.00
1947, 1787.00
1948, 1788.00
1949, 1787.00
1950, 1789.00
1951, 1791.00
1952, 1789.00
1953, 1788.00
1954, 1789.00
1955, 1790.00
1956, 1790.00
1957, 1789.00
1958, 1790.00
1959, 1792.00
1960, 1792.00
1961, 1792.00
1962, 1791.00
1963, 1793.00
1964, 1792.00
1965, 1793.00
1966, 1793.00
1967, 1794.00
1968, 1794.00
1969, 1795.00
1970, 1796.00
1971, 1796.00
1972, 1797.00
1973, 1796.00
1974, 1797.00
1975, 1797.00
1976, 1798.00
1977, 1798.00
1978, 1799.00
1979, 1799.00
1980, 1800.00
1981, 1800.00
1982, 1799.00
1983, 1800.00
1984, 1801.00
1985, 1803.00
1986, 1804.00
1987, 1804.00
1988, 1801.00
1989, 1803.00
1990, 1804.00
1991, 1804.00
1992, 1805.00
1993, 1805.00
1994, 1805.00
1995, 1807.00
1996, 1807.00
1997, 1807.00
1998, 1807.00
1999, 1807.00
2000, 1808.00
2001, 1809.00
2002, 1809.00
2003, 1810.00
2004, 1808.00
2005, 1811.00
2006, 1810.00
2007, 1811.00
2008, 1812.00
2009, 1813.00
2010, 1812.00
2011, 1814.00
2012, 1812.00
2013, 1815.00
2014, 1814.00
2015, 1815.00
2016, 1815.00
2017, 1816.00
2018, 1813.00
2019, 1818.00
2020, 1816.00
2021, 1819.00
2022, 1819.00
2023, 1817.00
2024, 1820.00
2025, 1820.00
2026, 1819.00
2027, 1821.00
2028, 1821.00
2029, 1822.00
2030, 1823.00
2031, 1823.00
2032, 1823.00
2033, 1824.00
2034, 1825.00
2035, 1824.00
2036, 1825.00
2037, 1825.00
2038, 1827.00
2039, 1826.00
2040, 1827.00
2041, 1828.00
2042, 1829.00
2043, 1829.00
2044, 1829.00
2045, 1832.00
2046, 1831.00
2047, 1831.00
2048, 1834.00
2049, 1836.00
2050, 1833.00
2051, 1835.00
2052, 1835.00
2053, 1837.00
2054, 1838.00
2055, 1837.00
2056, 1839.00
2057, 1839.00
2058, 1840.00
2059, 1841.00
2060, 1839.00
2061, 1842.00
2062, 1843.00
2063, 1843.00
2064, 1842.00
2065, 1843.00
2066, 1844.00
2067, 1846.00
2068, 1846.00
2069, 1847.00
2070, 1849.00
2071, 1849.00
2072, 1849.00
2073, 1851.00
2074, 1851.00
2075, 1852.00
2076, 1852.00
2077, 1853.00
2078, 1853.00
2079, 1856.00
2080, 1857.00
2081, 1855.00
2082, 1857.00
2083, 1858.00
2084, 1857.00
2085, 1858.00
2086, 1859.00
2087, 1860.00
2088, 1860.00
2089, 1860.00
2090, 1861.00
2091, 1861.00
2092, 1863.00
2093, 1862.00
2094, 1863.00
2095, 1865.00
2096, 1864.00
2097, 1865.00
2098, 1863.00
2099, 1865.00
2100, 1866.00
2101, 1866.00
2102, 1867.00
2103, 1867.00
2104, 1867.00
2105, 1867.00
2106, 1869.00
2107, 1870.00
2108, 1870.00
2109, 1868.00
2110, 1869.00
2111, 1870.00
2112, 1872.00
2113, 1870.00
2114, 1872.00
2115, 1871.00
2116, 1871.00
2117, 1873.00
2118, 1873.00
2119, 1873.00
2120, 1875.00
2121, 1873.00
2122, 1874.00
2123, 1874.00
2124, 1875.00
2125, 1876.00
2126, 1876.00
2127, 1875.00
2128, 1875.00
2129, 1876.00
2130, 1875.00
2131, 1876.00
2132, 1877.00
2133, 1876.00
2134, 1878.00
2135, 1876.00
2136, 1877.00
2137, 1878.00
2138, 1879.00
2139, 1880.00
2140, 1879.00
2141, 1878.00
2142, 1881.00
2143, 1878.00
2144, 1879.00
2145, 1881.00
2146, 1881.00
2147, 1881.00
2148, 1882.00
2149, 1880.00
2150, 1881.00
