FW version: 24
Log Version: 3.0.3

General Info:
       Command/Macro Performed,            Timestamp,             Device ID, COM Port, UART/I2C, Test Name, Host Major, Host Minor, Host Revision, Host Git Commit
            Single_measurement,  2023_07_11_10_35_49,       Insight2_F4_xxx,    USB-C,      USB,          ,          0,          1,             1,      4031237645

Show Spectrometer Status:
l0_version, f4_version, battery_perc, battery_mVolt, accelerometer_temp, accelerometer_x, accelerometer_y, accelerometer_z, compass_temp, compass_x, compass_y, compass_z, lamp_0, lamp_1, gain_0, gain_1
        17,         24,           49,          1901,               5648,           65208,             820,           18648,            0,     65532,     65404,     18653,   3276,   3276,      1,      1

Temperature Statistic Info:
NTC AVG [°C], NTC2 AVG [°C]
      36.149,        35.781

Statistic Info:
M1:  num,      min,      max,   median,      AVG,      STD,M2:  num,      min,      max,   median,      AVG,      STD
     301,  2220.00,  2561.00,  2289.00,  2332.49, 105.8930,     401,  2862.00,  3066.00,  2941.00,  2948.55,  66.2414,

Measurements:
Wavelength, Data Amplitude
1350, 2287.00
1351, 2287.00
1352, 2284.00
1353, 2285.00
1354, 2282.00
1355, 2281.00
1356, 2281.00
1357, 2279.00
1358, 2278.00
1359, 2277.00
1360, 2274.00
1361, 2273.00
1362, 2272.00
1363, 2269.00
1364, 2266.00
1365, 2266.00
1366, 2265.00
1367, 2263.00
1368, 2261.00
1369, 2259.00
1370, 2258.00
1371, 2256.00
1372, 2254.00
1373, 2253.00
1374, 2251.00
1375, 2250.00
1376, 2248.00
1377, 2247.00
1378, 2245.00
1379, 2244.00
1380, 2242.00
1381, 2241.00
1382, 2240.00
1383, 2238.00
1384, 2238.00
1385, 2236.00
1386, 2234.00
1387, 2235.00
1388, 2233.00
1389, 2233.00
1390, 2231.00
1391, 2230.00
1392, 2230.00
1393, 2229.00
1394, 2228.00
1395, 2229.00
1396, 2228.00
1397, 2227.00
1398, 2227.00
1399, 2227.00
1400, 2227.00
1401, 2227.00
1402, 2225.00
1403, 2225.00
1404, 2225.00
1405, 2225.00
1406, 2225.00
1407, 2223.00
1408, 2222.00
1409, 2223.00
1410, 2223.00
1411, 2223.00
1412, 2223.00
1413, 2222.00
1414, 2222.00
1415, 2222.00
1416, 2221.00
1417, 2222.00
1418, 2222.00
1419, 2221.00
1420, 2221.00
1421, 2221.00
1422, 2220.00
1423, 2221.00
1424, 2221.00
1425, 2222.00
1426, 2221.00
1427, 2222.00
1428, 2222.00
1429, 2223.00
1430, 2223.00
1431, 2221.00
1432, 2224.00
1433, 2223.00
1434, 2223.00
1435, 2225.00
1436, 2225.00
1437, 2224.00
1438, 2225.00
1439, 2225.00
1440, 2226.00
1441, 2228.00
1442, 2228.00
1443, 2227.00
1444, 2228.00
1445, 2231.00
1446, 2229.00
1447, 2230.00
1448, 2231.00
1449, 2231.00
1450, 2232.00
1451, 2233.00
1452, 2233.00
1453, 2235.00
1454, 2234.00
1455, 2235.00
1456, 2237.00
1457, 2238.00
1458, 2238.00
1459, 2238.00
1460, 2240.00
1461, 2240.00
1462, 2242.00
1463, 2242.00
1464, 2243.00
1465, 2244.00
1466, 2246.00
1467, 2246.00
1468, 2248.00
1469, 2248.00
1470, 2250.00
1471, 2250.00
1472, 2253.00
1473, 2253.00
1474, 2254.00
1475, 2255.00
1476, 2255.00
1477, 2257.00
1478, 2260.00
1479, 2260.00
1480, 2261.00
1481, 2263.00
1482, 2263.00
1483, 2265.00
1484, 2266.00
1485, 2269.00
1486, 2269.00
1487, 2270.00
1488, 2271.00
1489, 2273.00
1490, 2274.00
1491, 2275.00
1492, 2278.00
1493, 2278.00
1494, 2281.00
1495, 2282.00
1496, 2284.00
1497, 2284.00
1498, 2285.00
1499, 2288.00
1500, 2289.00
1501, 2290.00
1502, 2292.00
1503, 2293.00
1504, 2294.00
1505, 2296.00
1506, 2297.00
1507, 2297.00
1508, 2300.00
1509, 2301.00
1510, 2303.00
1511, 2305.00
1512, 2306.00
1513, 2308.00
1514, 2309.00
1515, 2312.00
1516, 2313.00
1517, 2315.00
1518, 2315.00
1519, 2317.00
1520, 2320.00
1521, 2320.00
1522, 2322.00
1523, 2323.00
1524, 2326.00
1525, 2327.00
1526, 2328.00
1527, 2330.00
1528, 2333.00
1529, 2335.00
1530, 2336.00
1531, 2337.00
1532, 2339.00
1533, 2341.00
1534, 2343.00
1535, 2345.00
1536, 2347.00
1537, 2347.00
1538, 2350.00
1539, 2352.00
1540, 2354.00
1541, 2355.00
1542, 2356.00
1543, 2359.00
1544, 2359.00
1545, 2362.00
1546, 2365.00
1547, 2366.00
1548, 2368.00
1549, 2368.00
1550, 2372.00
1551, 2372.00
1552, 2374.00
1553, 2376.00
1554, 2377.00
1555, 2379.00
1556, 2382.00
1557, 2384.00
1558, 2386.00
1559, 2389.00
1560, 2389.00
1561, 2391.00
1562, 2394.00
1563, 2394.00
1564, 2398.00
1565, 2399.00
1566, 2402.00
1567, 2404.00
1568, 2406.00
1569, 2408.00
1570, 2410.00
1571, 2412.00
1572, 2413.00
1573, 2416.00
1574, 2417.00
1575, 2419.00
1576, 2421.00
1577, 2423.00
1578, 2425.00
1579, 2426.00
1580, 2429.00
1581, 2429.00
1582, 2433.00
1583, 2433.00
1584, 2434.00
1585, 2436.00
1586, 2439.00
1587, 2440.00
1588, 2442.00
1589, 2443.00
1590, 2445.00
1591, 2447.00
1592, 2450.00
1593, 2451.00
1594, 2452.00
1595, 2455.00
1596, 2455.00
1597, 2458.00
1598, 2459.00
1599, 2461.00
1600, 2463.00
1601, 2465.00
1602, 2467.00
1603, 2468.00
1604, 2472.00
1605, 2473.00
1606, 2474.00
1607, 2476.00
1608, 2478.00
1609, 2480.00
1610, 2483.00
1611, 2485.00
1612, 2487.00
1613, 2489.00
1614, 2491.00
1615, 2493.00
1616, 2496.00
1617, 2497.00
1618, 2500.00
1619, 2502.00
1620, 2504.00
1621, 2506.00
1622, 2509.00
1623, 2510.00
1624, 2513.00
1625, 2515.00
1626, 2517.00
1627, 2519.00
1628, 2521.00
1629, 2524.00
1630, 2525.00
1631, 2527.00
1632, 2529.00
1633, 2531.00
1634, 2533.00
1635, 2535.00
1636, 2536.00
1637, 2538.00
1638, 2540.00
1639, 2542.00
1640, 2544.00
1641, 2545.00
1642, 2546.00
1643, 2549.00
1644, 2549.00
1645, 2552.00
1646, 2553.00
1647, 2556.00
1648, 2559.00
1649, 2561.00
1650, 2561.00

1750, 3063.00
1751, 3066.00
1752, 3064.00
1753, 3064.00
1754, 3066.00
1755, 3066.00
1756, 3063.00
1757, 3065.00
1758, 3063.00
1759, 3065.00
1760, 3063.00
1761, 3065.00
1762, 3064.00
1763, 3065.00
1764, 3063.00
1765, 3064.00
1766, 3063.00
1767, 3064.00
1768, 3062.00
1769, 3060.00
1770, 3061.00
1771, 3060.00
1772, 3061.00
1773, 3060.00
1774, 3061.00
1775, 3058.00
1776, 3058.00
1777, 3057.00
1778, 3058.00
1779, 3056.00
1780, 3058.00
1781, 3055.00
1782, 3054.00
1783, 3054.00
1784, 3054.00
1785, 3054.00
1786, 3053.00
1787, 3053.00
1788, 3050.00
1789, 3050.00
1790, 3051.00
1791, 3046.00
1792, 3047.00
1793, 3047.00
1794, 3045.00
1795, 3046.00
1796, 3046.00
1797, 3043.00
1798, 3043.00
1799, 3045.00
1800, 3043.00
1801, 3043.00
1802, 3041.00
1803, 3041.00
1804, 3039.00
1805, 3038.00
1806, 3038.00
1807, 3038.00
1808, 3037.00
1809, 3037.00
1810, 3035.00
1811, 3035.00
1812, 3034.00
1813, 3033.00
1814, 3034.00
1815, 3031.00
1816, 3029.00
1817, 3030.00
1818, 3028.00
1819, 3027.00
1820, 3027.00
1821, 3024.00
1822, 3025.00
1823, 3022.00
1824, 3021.00
1825, 3021.00
1826, 3019.00
1827, 3016.00
1828, 3015.00
1829, 3013.00
1830, 3011.00
1831, 3007.00
1832, 3005.00
1833, 3004.00
1834, 3002.00
1835, 2999.00
1836, 2999.00
1837, 2996.00
1838, 2993.00
1839, 2988.00
1840, 2987.00
1841, 2983.00
1842, 2982.00
1843, 2976.00
1844, 2975.00
1845, 2971.00
1846, 2968.00
1847, 2964.00
1848, 2963.00
1849, 2958.00
1850, 2956.00
1851, 2953.00
1852, 2950.00
1853, 2948.00
1854, 2943.00
1855, 2940.00
1856, 2937.00
1857, 2935.00
1858, 2930.00
1859, 2929.00
1860, 2926.00
1861, 2923.00
1862, 2919.00
1863, 2917.00
1864, 2915.00
1865, 2913.00
1866, 2911.00
1867, 2908.00
1868, 2905.00
1869, 2905.00
1870, 2901.00
1871, 2899.00
1872, 2897.00
1873, 2899.00
1874, 2895.00
1875, 2894.00
1876, 2890.00
1877, 2890.00
1878, 2889.00
1879, 2889.00
1880, 2888.00
1881, 2885.00
1882, 2885.00
1883, 2883.00
1884, 2883.00
1885, 2881.00
1886, 2881.00
1887, 2879.00
1888, 2879.00
1889, 2877.00
1890, 2878.00
1891, 2875.00
1892, 2877.00
1893, 2875.00
1894, 2874.00
1895, 2872.00
1896, 2871.00
1897, 2873.00
1898, 2872.00
1899, 2870.00
1900, 2869.00
1901, 2869.00
1902, 2869.00
1903, 2868.00
1904, 2870.00
1905, 2870.00
1906, 2868.00
1907, 2868.00
1908, 2866.00
1909, 2866.00
1910, 2868.00
1911, 2867.00
1912, 2865.00
1913, 2865.00
1914, 2862.00
1915, 2866.00
1916, 2865.00
1917, 2865.00
1918, 2864.00
1919, 2864.00
1920, 2866.00
1921, 2865.00
1922, 2863.00
1923, 2863.00
1924, 2863.00
1925, 2863.00
1926, 2863.00
1927, 2864.00
1928, 2863.00
1929, 2863.00
1930, 2863.00
1931, 2865.00
1932, 2864.00
1933, 2863.00
1934, 2865.00
1935, 2864.00
1936, 2865.00
1937, 2864.00
1938, 2863.00
1939, 2865.00
1940, 2863.00
1941, 2863.00
1942, 2863.00
1943, 2864.00
1944, 2865.00
1945, 2864.00
1946, 2866.00
1947, 2865.00
1948, 2866.00
1949, 2866.00
1950, 2866.00
1951, 2869.00
1952, 2869.00
1953, 2868.00
1954, 2869.00
1955, 2868.00
1956, 2869.00
1957, 2871.00
1958, 2870.00
1959, 2871.00
1960, 2870.00
1961, 2873.00
1962, 2871.00
1963, 2873.00
1964, 2874.00
1965, 2873.00
1966, 2874.00
1967, 2874.00
1968, 2877.00
1969, 2875.00
1970, 2876.00
1971, 2878.00
1972, 2879.00
1973, 2879.00
1974, 2879.00
1975, 2881.00
1976, 2882.00
1977, 2881.00
1978, 2883.00
1979, 2884.00
1980, 2884.00
1981, 2884.00
1982, 2885.00
1983, 2885.00
1984, 2884.00
1985, 2887.00
1986, 2888.00
1987, 2888.00
1988, 2889.00
1989, 2890.00
1990, 2890.00
1991, 2890.00
1992, 2893.00
1993, 2892.00
1994, 2892.00
1995, 2892.00
1996, 2895.00
1997, 2896.00
1998, 2895.00
1999, 2895.00
2000, 2898.00
2001, 2899.00
2002, 2899.00
2003, 2900.00
2004, 2899.00
2005, 2899.00
2006, 2901.00
2007, 2902.00
2008, 2902.00
2009, 2903.00
2010, 2903.00
2011, 2905.00
2012, 2905.00
2013, 2905.00
2014, 2906.00
2015, 2908.00
2016, 2906.00
2017, 2909.00
2018, 2909.00
2019, 2911.00
2020, 2910.00
2021, 2912.00
2022, 2912.00
2023, 2914.00
2024, 2913.00
2025, 2912.00
2026, 2916.00
2027, 2916.00
2028, 2914.00
2029, 2915.00
2030, 2917.00
2031, 2918.00
2032, 2920.00
2033, 2919.00
2034, 2921.00
2035, 2920.00
2036, 2922.00
2037, 2923.00
2038, 2925.00
2039, 2924.00
2040, 2926.00
2041, 2926.00
2042, 2927.00
2043, 2929.00
2044, 2931.00
2045, 2932.00
2046, 2931.00
2047, 2933.00
2048, 2933.00
2049, 2933.00
2050, 2936.00
2051, 2935.00
2052, 2938.00
2053, 2938.00
2054, 2939.00
2055, 2941.00
2056, 2942.00
2057, 2942.00
2058, 2944.00
2059, 2943.00
2060, 2947.00
2061, 2949.00
2062, 2948.00
2063, 2949.00
2064, 2950.00
2065, 2953.00
2066, 2952.00
2067, 2956.00
2068, 2955.00
2069, 2957.00
2070, 2957.00
2071, 2958.00
2072, 2960.00
2073, 2960.00
2074, 2961.00
2075, 2963.00
2076, 2962.00
2077, 2965.00
2078, 2965.00
2079, 2967.00
2080, 2968.00
2081, 2967.00
2082, 2969.00
2083, 2970.00
2084, 2972.00
2085, 2972.00
2086, 2972.00
2087, 2974.00
2088, 2975.00
2089, 2975.00
2090, 2975.00
2091, 2977.00
2092, 2978.00
2093, 2979.00
2094, 2978.00
2095, 2980.00
2096, 2980.00
2097, 2981.00
2098, 2983.00
2099, 2981.00
2100, 2983.00
2101, 2984.00
2102, 2984.00
2103, 2985.00
2104, 2985.00
2105, 2985.00
2106, 2987.00
2107, 2988.00
2108, 2988.00
2109, 2989.00
2110, 2989.00
2111, 2990.00
2112, 2989.00
2113, 2991.00
2114, 2991.00
2115, 2992.00
2116, 2992.00
2117, 2991.00
2118, 2994.00
2119, 2993.00
2120, 2994.00
2121, 2996.00
2122, 2995.00
2123, 2996.00
2124, 2996.00
2125, 2997.00
2126, 2997.00
2127, 2997.00
2128, 2996.00
2129, 2999.00
2130, 2999.00
2131, 3000.00
2132, 3000.00
2133, 2999.00
2134, 3001.00
2135, 3000.00
2136, 3000.00
2137, 2999.00
2138, 3001.00
2139, 3000.00
2140, 3002.00
2141, 3003.00
2142, 3003.00
2143, 3003.00
2144, 3003.00
2145, 3005.00
2146, 3002.00
2147, 3004.00
2148, 3003.00
2149, 3007.00
2150, 3003.00
