FW version: 24
Log Version: 3.0.3

General Info:
       Command/Macro Performed,            Timestamp,             Device ID, COM Port, UART/I2C, Test Name, Host Major, Host Minor, Host Revision, Host Git Commit
            Single_measurement,  2023_06_28_12_39_25,       Insight2_F4_xxx,    USB-C,      USB,          ,          0,          1,             1,      4031237645

Show Spectrometer Status:
l0_version, f4_version, battery_perc, battery_mVolt, accelerometer_temp, accelerometer_x, accelerometer_y, accelerometer_z, compass_temp, compass_x, compass_y, compass_z, lamp_0, lamp_1, gain_0, gain_1
        17,         24,           50,          1919,               6368,              56,             356,           18632,            0,     65405,     65509,     65517,   3276,   3276,      1,      1

Temperature Statistic Info:
NTC AVG [°C], NTC2 AVG [°C]
      39.908,        39.617

Statistic Info:
M1:  num,      min,      max,   median,      AVG,      STD,M2:  num,      min,      max,   median,      AVG,      STD
     301,  1762.00,  1989.00,  1813.00,  1837.42,  70.6289,     401,  2415.00,  2551.00,  2484.00,  2482.32,  45.9309,

Measurements:
Wavelength, Data Amplitude
1350, 1791.00
1351, 1791.00
1352, 1790.00
1353, 1789.00
1354, 1789.00
1355, 1788.00
1356, 1789.00
1357, 1787.00
1358, 1786.00
1359, 1786.00
1360, 1786.00
1361, 1785.00
1362, 1785.00
1363, 1785.00
1364, 1783.00
1365, 1784.00
1366, 1781.00
1367, 1781.00
1368, 1781.00
1369, 1780.00
1370, 1778.00
1371, 1778.00
1372, 1777.00
1373, 1776.00
1374, 1776.00
1375, 1775.00
1376, 1773.00
1377, 1774.00
1378, 1771.00
1379, 1771.00
1380, 1771.00
1381, 1770.00
1382, 1770.00
1383, 1770.00
1384, 1770.00
1385, 1769.00
1386, 1768.00
1387, 1767.00
1388, 1767.00
1389, 1767.00
1390, 1765.00
1391, 1766.00
1392, 1766.00
1393, 1766.00
1394, 1764.00
1395, 1765.00
1396, 1765.00
1397, 1765.00
1398, 1764.00
1399, 1764.00
1400, 1763.00
1401, 1764.00
1402, 1763.00
1403, 1763.00
1404, 1762.00
1405, 1764.00
1406, 1763.00
1407, 1763.00
1408, 1763.00
1409, 1763.00
1410, 1763.00
1411, 1762.00
1412, 1763.00
1413, 1762.00
1414, 1762.00
1415, 1763.00
1416, 1762.00
1417, 1762.00
1418, 1763.00
1419, 1763.00
1420, 1763.00
1421, 1763.00
1422, 1764.00
1423, 1764.00
1424, 1763.00
1425, 1764.00
1426, 1763.00
1427, 1764.00
1428, 1765.00
1429, 1765.00
1430, 1765.00
1431, 1765.00
1432, 1765.00
1433, 1766.00
1434, 1766.00
1435, 1766.00
1436, 1767.00
1437, 1768.00
1438, 1768.00
1439, 1768.00
1440, 1769.00
1441, 1769.00
1442, 1769.00
1443, 1769.00
1444, 1770.00
1445, 1771.00
1446, 1771.00
1447, 1772.00
1448, 1773.00
1449, 1773.00
1450, 1774.00
1451, 1773.00
1452, 1775.00
1453, 1775.00
1454, 1775.00
1455, 1777.00
1456, 1777.00
1457, 1778.00
1458, 1778.00
1459, 1779.00
1460, 1780.00
1461, 1780.00
1462, 1780.00
1463, 1781.00
1464, 1783.00
1465, 1783.00
1466, 1785.00
1467, 1784.00
1468, 1785.00
1469, 1786.00
1470, 1787.00
1471, 1787.00
1472, 1788.00
1473, 1790.00
1474, 1790.00
1475, 1790.00
1476, 1791.00
1477, 1792.00
1478, 1794.00
1479, 1794.00
1480, 1796.00
1481, 1796.00
1482, 1797.00
1483, 1797.00
1484, 1799.00
1485, 1800.00
1486, 1800.00
1487, 1802.00
1488, 1803.00
1489, 1803.00
1490, 1805.00
1491, 1805.00
1492, 1806.00
1493, 1806.00
1494, 1809.00
1495, 1809.00
1496, 1810.00
1497, 1811.00
1498, 1811.00
1499, 1813.00
1500, 1813.00
1501, 1815.00
1502, 1815.00
1503, 1816.00
1504, 1817.00
1505, 1818.00
1506, 1818.00
1507, 1820.00
1508, 1821.00
1509, 1821.00
1510, 1823.00
1511, 1823.00
1512, 1825.00
1513, 1826.00
1514, 1826.00
1515, 1828.00
1516, 1828.00
1517, 1830.00
1518, 1831.00
1519, 1833.00
1520, 1832.00
1521, 1834.00
1522, 1835.00
1523, 1837.00
1524, 1837.00
1525, 1838.00
1526, 1839.00
1527, 1841.00
1528, 1842.00
1529, 1843.00
1530, 1844.00
1531, 1845.00
1532, 1846.00
1533, 1847.00
1534, 1848.00
1535, 1850.00
1536, 1851.00
1537, 1851.00
1538, 1853.00
1539, 1854.00
1540, 1855.00
1541, 1857.00
1542, 1857.00
1543, 1859.00
1544, 1859.00
1545, 1861.00
1546, 1862.00
1547, 1862.00
1548, 1863.00
1549, 1864.00
1550, 1865.00
1551, 1867.00
1552, 1868.00
1553, 1869.00
1554, 1870.00
1555, 1871.00
1556, 1873.00
1557, 1874.00
1558, 1875.00
1559, 1877.00
1560, 1878.00
1561, 1878.00
1562, 1880.00
1563, 1881.00
1564, 1883.00
1565, 1884.00
1566, 1886.00
1567, 1887.00
1568, 1888.00
1569, 1889.00
1570, 1889.00
1571, 1891.00
1572, 1893.00
1573, 1894.00
1574, 1895.00
1575, 1897.00
1576, 1897.00
1577, 1899.00
1578, 1900.00
1579, 1901.00
1580, 1902.00
1581, 1903.00
1582, 1905.00
1583, 1905.00
1584, 1907.00
1585, 1908.00
1586, 1908.00
1587, 1909.00
1588, 1910.00
1589, 1911.00
1590, 1913.00
1591, 1914.00
1592, 1915.00
1593, 1915.00
1594, 1916.00
1595, 1919.00
1596, 1918.00
1597, 1920.00
1598, 1921.00
1599, 1923.00
1600, 1923.00
1601, 1924.00
1602, 1926.00
1603, 1927.00
1604, 1928.00
1605, 1929.00
1606, 1930.00
1607, 1931.00
1608, 1933.00
1609, 1935.00
1610, 1936.00
1611, 1937.00
1612, 1939.00
1613, 1940.00
1614, 1942.00
1615, 1942.00
1616, 1945.00
1617, 1946.00
1618, 1947.00
1619, 1948.00
1620, 1950.00
1621, 1951.00
1622, 1953.00
1623, 1955.00
1624, 1955.00
1625, 1957.00
1626, 1959.00
1627, 1960.00
1628, 1962.00
1629, 1963.00
1630, 1965.00
1631, 1966.00
1632, 1967.00
1633, 1967.00
1634, 1969.00
1635, 1969.00
1636, 1972.00
1637, 1973.00
1638, 1973.00
1639, 1975.00
1640, 1975.00
1641, 1977.00
1642, 1979.00
1643, 1979.00
1644, 1980.00
1645, 1982.00
1646, 1983.00
1647, 1985.00
1648, 1986.00
1649, 1987.00
1650, 1989.00

1750, 2549.00
1751, 2549.00
1752, 2547.00
1753, 2549.00
1754, 2549.00
1755, 2549.00
1756, 2550.00
1757, 2551.00
1758, 2549.00
1759, 2549.00
1760, 2549.00
1761, 2549.00
1762, 2549.00
1763, 2550.00
1764, 2549.00
1765, 2549.00
1766, 2547.00
1767, 2547.00
1768, 2546.00
1769, 2546.00
1770, 2545.00
1771, 2547.00
1772, 2547.00
1773, 2546.00
1774, 2545.00
1775, 2546.00
1776, 2546.00
1777, 2543.00
1778, 2546.00
1779, 2543.00
1780, 2545.00
1781, 2542.00
1782, 2542.00
1783, 2542.00
1784, 2542.00
1785, 2543.00
1786, 2539.00
1787, 2539.00
1788, 2539.00
1789, 2539.00
1790, 2538.00
1791, 2538.00
1792, 2537.00
1793, 2537.00
1794, 2535.00
1795, 2535.00
1796, 2535.00
1797, 2534.00
1798, 2535.00
1799, 2535.00
1800, 2535.00
1801, 2535.00
1802, 2534.00
1803, 2534.00
1804, 2535.00
1805, 2534.00
1806, 2532.00
1807, 2532.00
1808, 2530.00
1809, 2532.00
1810, 2531.00
1811, 2532.00
1812, 2530.00
1813, 2529.00
1814, 2529.00
1815, 2528.00
1816, 2530.00
1817, 2527.00
1818, 2527.00
1819, 2528.00
1820, 2526.00
1821, 2525.00
1822, 2526.00
1823, 2524.00
1824, 2525.00
1825, 2523.00
1826, 2522.00
1827, 2522.00
1828, 2520.00
1829, 2519.00
1830, 2515.00
1831, 2516.00
1832, 2517.00
1833, 2512.00
1834, 2514.00
1835, 2511.00
1836, 2511.00
1837, 2508.00
1838, 2505.00
1839, 2504.00
1840, 2502.00
1841, 2502.00
1842, 2500.00
1843, 2496.00
1844, 2497.00
1845, 2493.00
1846, 2493.00
1847, 2491.00
1848, 2488.00
1849, 2484.00
1850, 2485.00
1851, 2482.00
1852, 2479.00
1853, 2479.00
1854, 2474.00
1855, 2470.00
1856, 2470.00
1857, 2469.00
1858, 2465.00
1859, 2465.00
1860, 2461.00
1861, 2460.00
1862, 2457.00
1863, 2455.00
1864, 2453.00
1865, 2451.00
1866, 2453.00
1867, 2448.00
1868, 2446.00
1869, 2446.00
1870, 2443.00
1871, 2441.00
1872, 2442.00
1873, 2438.00
1874, 2438.00
1875, 2438.00
1876, 2435.00
1877, 2435.00
1878, 2433.00
1879, 2434.00
1880, 2432.00
1881, 2430.00
1882, 2433.00
1883, 2428.00
1884, 2428.00
1885, 2430.00
1886, 2426.00
1887, 2426.00
1888, 2428.00
1889, 2425.00
1890, 2424.00
1891, 2423.00
1892, 2425.00
1893, 2423.00
1894, 2423.00
1895, 2423.00
1896, 2421.00
1897, 2422.00
1898, 2419.00
1899, 2422.00
1900, 2421.00
1901, 2421.00
1902, 2421.00
1903, 2420.00
1904, 2418.00
1905, 2419.00
1906, 2419.00
1907, 2419.00
1908, 2418.00
1909, 2419.00
1910, 2418.00
1911, 2418.00
1912, 2418.00
1913, 2416.00
1914, 2418.00
1915, 2417.00
1916, 2417.00
1917, 2415.00
1918, 2417.00
1919, 2417.00
1920, 2417.00
1921, 2417.00
1922, 2418.00
1923, 2417.00
1924, 2416.00
1925, 2415.00
1926, 2416.00
1927, 2417.00
1928, 2416.00
1929, 2418.00
1930, 2416.00
1931, 2417.00
1932, 2417.00
1933, 2418.00
1934, 2417.00
1935, 2418.00
1936, 2419.00
1937, 2417.00
1938, 2418.00
1939, 2419.00
1940, 2418.00
1941, 2418.00
1942, 2419.00
1943, 2421.00
1944, 2421.00
1945, 2422.00
1946, 2421.00
1947, 2421.00
1948, 2422.00
1949, 2422.00
1950, 2423.00
1951, 2421.00
1952, 2422.00
1953, 2424.00
1954, 2425.00
1955, 2425.00
1956, 2426.00
1957, 2425.00
1958, 2427.00
1959, 2427.00
1960, 2427.00
1961, 2426.00
1962, 2428.00
1963, 2428.00
1964, 2428.00
1965, 2429.00
1966, 2429.00
1967, 2430.00
1968, 2431.00
1969, 2431.00
1970, 2433.00
1971, 2433.00
1972, 2432.00
1973, 2433.00
1974, 2436.00
1975, 2435.00
1976, 2434.00
1977, 2437.00
1978, 2435.00
1979, 2437.00
1980, 2438.00
1981, 2439.00
1982, 2437.00
1983, 2440.00
1984, 2441.00
1985, 2442.00
1986, 2442.00
1987, 2443.00
1988, 2442.00
1989, 2443.00
1990, 2442.00
1991, 2445.00
1992, 2444.00
1993, 2448.00
1994, 2445.00
1995, 2447.00
1996, 2449.00
1997, 2448.00
1998, 2450.00
1999, 2450.00
2000, 2450.00
2001, 2451.00
2002, 2451.00
2003, 2452.00
2004, 2453.00
2005, 2452.00
2006, 2455.00
2007, 2454.00
2008, 2455.00
2009, 2456.00
2010, 2456.00
2011, 2455.00
2012, 2458.00
2013, 2459.00
2014, 2458.00
2015, 2461.00
2016, 2462.00
2017, 2461.00
2018, 2462.00
2019, 2460.00
2020, 2462.00
2021, 2463.00
2022, 2465.00
2023, 2465.00
2024, 2465.00
2025, 2465.00
2026, 2466.00
2027, 2467.00
2028, 2468.00
2029, 2468.00
2030, 2470.00
2031, 2469.00
2032, 2470.00
2033, 2470.00
2034, 2472.00
2035, 2471.00
2036, 2474.00
2037, 2474.00
2038, 2474.00
2039, 2474.00
2040, 2475.00
2041, 2477.00
2042, 2478.00
2043, 2478.00
2044, 2478.00
2045, 2480.00
2046, 2478.00
2047, 2479.00
2048, 2483.00
2049, 2483.00
2050, 2484.00
2051, 2485.00
2052, 2484.00
2053, 2484.00
2054, 2487.00
2055, 2488.00
2056, 2491.00
2057, 2489.00
2058, 2491.00
2059, 2492.00
2060, 2493.00
2061, 2493.00
2062, 2494.00
2063, 2495.00
2064, 2496.00
2065, 2498.00
2066, 2497.00
2067, 2499.00
2068, 2500.00
2069, 2500.00
2070, 2500.00
2071, 2503.00
2072, 2505.00
2073, 2506.00
2074, 2505.00
2075, 2505.00
2076, 2504.00
2077, 2507.00
2078, 2506.00
2079, 2508.00
2080, 2509.00
2081, 2509.00
2082, 2509.00
2083, 2511.00
2084, 2511.00
2085, 2512.00
2086, 2515.00
2087, 2514.00
2088, 2515.00
2089, 2516.00
2090, 2516.00
2091, 2515.00
2092, 2516.00
2093, 2516.00
2094, 2518.00
2095, 2519.00
2096, 2518.00
2097, 2521.00
2098, 2520.00
2099, 2521.00
2100, 2519.00
2101, 2520.00
2102, 2520.00
2103, 2525.00
2104, 2524.00
2105, 2525.00
2106, 2525.00
2107, 2524.00
2108, 2525.00
2109, 2524.00
2110, 2525.00
2111, 2526.00
2112, 2525.00
2113, 2526.00
2114, 2525.00
2115, 2525.00
2116, 2526.00
2117, 2528.00
2118, 2528.00
2119, 2526.00
2120, 2529.00
2121, 2527.00
2122, 2527.00
2123, 2529.00
2124, 2529.00
2125, 2530.00
2126, 2530.00
2127, 2532.00
2128, 2531.00
2129, 2532.00
2130, 2532.00
2131, 2531.00
2132, 2531.00
2133, 2534.00
2134, 2533.00
2135, 2533.00
2136, 2534.00
2137, 2533.00
2138, 2536.00
2139, 2534.00
2140, 2532.00
2141, 2536.00
2142, 2533.00
2143, 2534.00
2144, 2535.00
2145, 2535.00
2146, 2537.00
2147, 2536.00
2148, 2536.00
2149, 2537.00
2150, 2537.00
