FW version: 24
Log Version: 3.0.3

General Info:
       Command/Macro Performed,            Timestamp,             Device ID, COM Port, UART/I2C, Test Name, Host Major, Host Minor, Host Revision, Host Git Commit
            Single_measurement,  2023_06_28_12_38_46,       Insight2_F4_xxx,    USB-C,      USB,          ,          0,          1,             1,      4031237645

Show Spectrometer Status:
l0_version, f4_version, battery_perc, battery_mVolt, accelerometer_temp, accelerometer_x, accelerometer_y, accelerometer_z, compass_temp, compass_x, compass_y, compass_z, lamp_0, lamp_1, gain_0, gain_1
        17,         24,           50,          1920,               6384,              56,             412,           18612,            0,     65400,     65439,     65527,   2457,   2457,      1,      1

Temperature Statistic Info:
NTC AVG [°C], NTC2 AVG [°C]
      39.675,        39.352

Statistic Info:
M1:  num,      min,      max,   median,      AVG,      STD,M2:  num,      min,      max,   median,      AVG,      STD
     301,  1019.00,  1162.00,  1052.00,  1066.33,  44.2818,     401,  1507.00,  1591.00,  1551.00,  1550.35,  29.4233,

Measurements:
Wavelength, Data Amplitude
1350, 1033.00
1351, 1034.00
1352, 1034.00
1353, 1034.00
1354, 1032.00
1355, 1033.00
1356, 1032.00
1357, 1032.00
1358, 1033.00
1359, 1032.00
1360, 1032.00
1361, 1032.00
1362, 1032.00
1363, 1030.00
1364, 1030.00
1365, 1029.00
1366, 1029.00
1367, 1029.00
1368, 1028.00
1369, 1028.00
1370, 1029.00
1371, 1026.00
1372, 1027.00
1373, 1026.00
1374, 1026.00
1375, 1026.00
1376, 1025.00
1377, 1025.00
1378, 1024.00
1379, 1025.00
1380, 1024.00
1381, 1023.00
1382, 1023.00
1383, 1024.00
1384, 1022.00
1385, 1021.00
1386, 1022.00
1387, 1020.00
1388, 1021.00
1389, 1021.00
1390, 1021.00
1391, 1020.00
1392, 1021.00
1393, 1021.00
1394, 1019.00
1395, 1020.00
1396, 1021.00
1397, 1021.00
1398, 1019.00
1399, 1020.00
1400, 1019.00
1401, 1021.00
1402, 1021.00
1403, 1020.00
1404, 1020.00
1405, 1020.00
1406, 1019.00
1407, 1020.00
1408, 1019.00
1409, 1020.00
1410, 1020.00
1411, 1019.00
1412, 1020.00
1413, 1019.00
1414, 1020.00
1415, 1020.00
1416, 1019.00
1417, 1020.00
1418, 1019.00
1419, 1021.00
1420, 1020.00
1421, 1019.00
1422, 1019.00
1423, 1021.00
1424, 1021.00
1425, 1021.00
1426, 1020.00
1427, 1020.00
1428, 1021.00
1429, 1020.00
1430, 1021.00
1431, 1021.00
1432, 1022.00
1433, 1022.00
1434, 1021.00
1435, 1022.00
1436, 1023.00
1437, 1024.00
1438, 1024.00
1439, 1024.00
1440, 1024.00
1441, 1024.00
1442, 1025.00
1443, 1024.00
1444, 1025.00
1445, 1025.00
1446, 1026.00
1447, 1026.00
1448, 1026.00
1449, 1026.00
1450, 1027.00
1451, 1027.00
1452, 1028.00
1453, 1029.00
1454, 1028.00
1455, 1028.00
1456, 1029.00
1457, 1028.00
1458, 1030.00
1459, 1030.00
1460, 1031.00
1461, 1030.00
1462, 1031.00
1463, 1031.00
1464, 1033.00
1465, 1033.00
1466, 1034.00
1467, 1034.00
1468, 1035.00
1469, 1033.00
1470, 1035.00
1471, 1035.00
1472, 1036.00
1473, 1037.00
1474, 1037.00
1475, 1037.00
1476, 1038.00
1477, 1039.00
1478, 1040.00
1479, 1040.00
1480, 1040.00
1481, 1041.00
1482, 1042.00
1483, 1042.00
1484, 1042.00
1485, 1043.00
1486, 1045.00
1487, 1044.00
1488, 1045.00
1489, 1046.00
1490, 1047.00
1491, 1048.00
1492, 1048.00
1493, 1048.00
1494, 1049.00
1495, 1050.00
1496, 1051.00
1497, 1050.00
1498, 1050.00
1499, 1052.00
1500, 1052.00
1501, 1052.00
1502, 1053.00
1503, 1054.00
1504, 1054.00
1505, 1055.00
1506, 1056.00
1507, 1056.00
1508, 1057.00
1509, 1058.00
1510, 1058.00
1511, 1059.00
1512, 1059.00
1513, 1060.00
1514, 1062.00
1515, 1061.00
1516, 1062.00
1517, 1064.00
1518, 1063.00
1519, 1064.00
1520, 1064.00
1521, 1066.00
1522, 1065.00
1523, 1066.00
1524, 1068.00
1525, 1068.00
1526, 1068.00
1527, 1070.00
1528, 1070.00
1529, 1071.00
1530, 1072.00
1531, 1073.00
1532, 1073.00
1533, 1073.00
1534, 1074.00
1535, 1075.00
1536, 1076.00
1537, 1077.00
1538, 1076.00
1539, 1077.00
1540, 1079.00
1541, 1079.00
1542, 1080.00
1543, 1080.00
1544, 1080.00
1545, 1082.00
1546, 1083.00
1547, 1083.00
1548, 1084.00
1549, 1084.00
1550, 1084.00
1551, 1086.00
1552, 1087.00
1553, 1087.00
1554, 1088.00
1555, 1089.00
1556, 1089.00
1557, 1089.00
1558, 1090.00
1559, 1091.00
1560, 1092.00
1561, 1093.00
1562, 1094.00
1563, 1094.00
1564, 1095.00
1565, 1096.00
1566, 1096.00
1567, 1098.00
1568, 1097.00
1569, 1098.00
1570, 1099.00
1571, 1100.00
1572, 1100.00
1573, 1102.00
1574, 1103.00
1575, 1103.00
1576, 1103.00
1577, 1105.00
1578, 1105.00
1579, 1106.00
1580, 1106.00
1581, 1107.00
1582, 1108.00
1583, 1108.00
1584, 1108.00
1585, 1110.00
1586, 1109.00
1587, 1112.00
1588, 1112.00
1589, 1112.00
1590, 1113.00
1591, 1113.00
1592, 1115.00
1593, 1115.00
1594, 1115.00
1595, 1116.00
1596, 1117.00
1597, 1118.00
1598, 1119.00
1599, 1119.00
1600, 1119.00
1601, 1121.00
1602, 1121.00
1603, 1121.00
1604, 1123.00
1605, 1124.00
1606, 1124.00
1607, 1126.00
1608, 1126.00
1609, 1126.00
1610, 1127.00
1611, 1127.00
1612, 1130.00
1613, 1130.00
1614, 1131.00
1615, 1132.00
1616, 1133.00
1617, 1133.00
1618, 1135.00
1619, 1136.00
1620, 1136.00
1621, 1137.00
1622, 1139.00
1623, 1139.00
1624, 1141.00
1625, 1141.00
1626, 1142.00
1627, 1144.00
1628, 1145.00
1629, 1144.00
1630, 1145.00
1631, 1146.00
1632, 1148.00
1633, 1148.00
1634, 1149.00
1635, 1149.00
1636, 1150.00
1637, 1151.00
1638, 1151.00
1639, 1153.00
1640, 1153.00
1641, 1155.00
1642, 1155.00
1643, 1155.00
1644, 1155.00
1645, 1157.00
1646, 1157.00
1647, 1158.00
1648, 1158.00
1649, 1160.00
1650, 1162.00

1750, 1590.00
1751, 1590.00
1752, 1588.00
1753, 1591.00
1754, 1589.00
1755, 1589.00
1756, 1591.00
1757, 1590.00
1758, 1590.00
1759, 1589.00
1760, 1590.00
1761, 1590.00
1762, 1590.00
1763, 1590.00
1764, 1590.00
1765, 1590.00
1766, 1589.00
1767, 1589.00
1768, 1589.00
1769, 1589.00
1770, 1590.00
1771, 1589.00
1772, 1588.00
1773, 1590.00
1774, 1589.00
1775, 1589.00
1776, 1589.00
1777, 1590.00
1778, 1589.00
1779, 1588.00
1780, 1586.00
1781, 1586.00
1782, 1586.00
1783, 1586.00
1784, 1586.00
1785, 1585.00
1786, 1585.00
1787, 1584.00
1788, 1584.00
1789, 1585.00
1790, 1584.00
1791, 1584.00
1792, 1583.00
1793, 1583.00
1794, 1583.00
1795, 1584.00
1796, 1583.00
1797, 1582.00
1798, 1583.00
1799, 1580.00
1800, 1580.00
1801, 1581.00
1802, 1582.00
1803, 1580.00
1804, 1582.00
1805, 1580.00
1806, 1580.00
1807, 1581.00
1808, 1580.00
1809, 1580.00
1810, 1578.00
1811, 1580.00
1812, 1579.00
1813, 1578.00
1814, 1578.00
1815, 1577.00
1816, 1578.00
1817, 1577.00
1818, 1578.00
1819, 1579.00
1820, 1576.00
1821, 1576.00
1822, 1577.00
1823, 1576.00
1824, 1577.00
1825, 1574.00
1826, 1575.00
1827, 1573.00
1828, 1571.00
1829, 1574.00
1830, 1571.00
1831, 1570.00
1832, 1571.00
1833, 1570.00
1834, 1568.00
1835, 1568.00
1836, 1566.00
1837, 1566.00
1838, 1561.00
1839, 1563.00
1840, 1563.00
1841, 1562.00
1842, 1560.00
1843, 1558.00
1844, 1558.00
1845, 1556.00
1846, 1555.00
1847, 1556.00
1848, 1551.00
1849, 1551.00
1850, 1550.00
1851, 1549.00
1852, 1548.00
1853, 1547.00
1854, 1545.00
1855, 1543.00
1856, 1542.00
1857, 1539.00
1858, 1540.00
1859, 1540.00
1860, 1536.00
1861, 1535.00
1862, 1536.00
1863, 1533.00
1864, 1532.00
1865, 1531.00
1866, 1530.00
1867, 1528.00
1868, 1527.00
1869, 1526.00
1870, 1524.00
1871, 1524.00
1872, 1524.00
1873, 1522.00
1874, 1520.00
1875, 1521.00
1876, 1521.00
1877, 1520.00
1878, 1518.00
1879, 1517.00
1880, 1517.00
1881, 1517.00
1882, 1516.00
1883, 1518.00
1884, 1517.00
1885, 1515.00
1886, 1515.00
1887, 1514.00
1888, 1513.00
1889, 1513.00
1890, 1513.00
1891, 1513.00
1892, 1512.00
1893, 1512.00
1894, 1511.00
1895, 1512.00
1896, 1512.00
1897, 1511.00
1898, 1510.00
1899, 1509.00
1900, 1510.00
1901, 1511.00
1902, 1509.00
1903, 1510.00
1904, 1508.00
1905, 1509.00
1906, 1509.00
1907, 1508.00
1908, 1510.00
1909, 1509.00
1910, 1508.00
1911, 1508.00
1912, 1511.00
1913, 1507.00
1914, 1509.00
1915, 1509.00
1916, 1508.00
1917, 1507.00
1918, 1507.00
1919, 1507.00
1920, 1507.00
1921, 1507.00
1922, 1509.00
1923, 1508.00
1924, 1509.00
1925, 1510.00
1926, 1507.00
1927, 1509.00
1928, 1507.00
1929, 1508.00
1930, 1507.00
1931, 1508.00
1932, 1508.00
1933, 1509.00
1934, 1510.00
1935, 1509.00
1936, 1510.00
1937, 1508.00
1938, 1509.00
1939, 1511.00
1940, 1511.00
1941, 1511.00
1942, 1510.00
1943, 1510.00
1944, 1509.00
1945, 1511.00
1946, 1509.00
1947, 1510.00
1948, 1513.00
1949, 1513.00
1950, 1511.00
1951, 1511.00
1952, 1511.00
1953, 1513.00
1954, 1513.00
1955, 1512.00
1956, 1512.00
1957, 1512.00
1958, 1515.00
1959, 1514.00
1960, 1516.00
1961, 1514.00
1962, 1516.00
1963, 1515.00
1964, 1517.00
1965, 1515.00
1966, 1515.00
1967, 1516.00
1968, 1518.00
1969, 1518.00
1970, 1519.00
1971, 1518.00
1972, 1518.00
1973, 1519.00
1974, 1519.00
1975, 1519.00
1976, 1519.00
1977, 1522.00
1978, 1523.00
1979, 1521.00
1980, 1522.00
1981, 1522.00
1982, 1524.00
1983, 1523.00
1984, 1523.00
1985, 1523.00
1986, 1524.00
1987, 1525.00
1988, 1526.00
1989, 1526.00
1990, 1526.00
1991, 1526.00
1992, 1527.00
1993, 1528.00
1994, 1528.00
1995, 1528.00
1996, 1530.00
1997, 1528.00
1998, 1529.00
1999, 1530.00
2000, 1531.00
2001, 1531.00
2002, 1530.00
2003, 1531.00
2004, 1532.00
2005, 1532.00
2006, 1533.00
2007, 1531.00
2008, 1535.00
2009, 1533.00
2010, 1534.00
2011, 1534.00
2012, 1535.00
2013, 1535.00
2014, 1536.00
2015, 1534.00
2016, 1535.00
2017, 1537.00
2018, 1539.00
2019, 1537.00
2020, 1538.00
2021, 1536.00
2022, 1540.00
2023, 1538.00
2024, 1540.00
2025, 1541.00
2026, 1542.00
2027, 1543.00
2028, 1542.00
2029, 1542.00
2030, 1544.00
2031, 1544.00
2032, 1543.00
2033, 1544.00
2034, 1544.00
2035, 1546.00
2036, 1545.00
2037, 1545.00
2038, 1547.00
2039, 1546.00
2040, 1549.00
2041, 1548.00
2042, 1548.00
2043, 1547.00
2044, 1548.00
2045, 1550.00
2046, 1550.00
2047, 1550.00
2048, 1551.00
2049, 1552.00
2050, 1553.00
2051, 1553.00
2052, 1553.00
2053, 1554.00
2054, 1554.00
2055, 1556.00
2056, 1556.00
2057, 1557.00
2058, 1557.00
2059, 1556.00
2060, 1558.00
2061, 1559.00
2062, 1560.00
2063, 1561.00
2064, 1561.00
2065, 1561.00
2066, 1562.00
2067, 1564.00
2068, 1562.00
2069, 1564.00
2070, 1564.00
2071, 1566.00
2072, 1565.00
2073, 1565.00
2074, 1564.00
2075, 1566.00
2076, 1567.00
2077, 1567.00
2078, 1568.00
2079, 1569.00
2080, 1569.00
2081, 1570.00
2082, 1571.00
2083, 1569.00
2084, 1573.00
2085, 1571.00
2086, 1574.00
2087, 1573.00
2088, 1573.00
2089, 1574.00
2090, 1573.00
2091, 1574.00
2092, 1574.00
2093, 1575.00
2094, 1576.00
2095, 1576.00
2096, 1575.00
2097, 1577.00
2098, 1577.00
2099, 1577.00
2100, 1576.00
2101, 1576.00
2102, 1581.00
2103, 1578.00
2104, 1580.00
2105, 1579.00
2106, 1581.00
2107, 1581.00
2108, 1580.00
2109, 1579.00
2110, 1580.00
2111, 1582.00
2112, 1581.00
2113, 1582.00
2114, 1580.00
2115, 1580.00
2116, 1582.00
2117, 1581.00
2118, 1581.00
2119, 1582.00
2120, 1582.00
2121, 1583.00
2122, 1584.00
2123, 1583.00
2124, 1583.00
2125, 1585.00
2126, 1584.00
2127, 1583.00
2128, 1585.00
2129, 1584.00
2130, 1584.00
2131, 1586.00
2132, 1584.00
2133, 1585.00
2134, 1586.00
2135, 1585.00
2136, 1587.00
2137, 1585.00
2138, 1585.00
2139, 1584.00
2140, 1586.00
2141, 1588.00
2142, 1585.00
2143, 1589.00
2144, 1587.00
2145, 1587.00
2146, 1587.00
2147, 1587.00
2148, 1586.00
2149, 1588.00
2150, 1587.00
