FW version: 24
Log Version: 3.0.3

General Info:
       Command/Macro Performed,            Timestamp,             Device ID, COM Port, UART/I2C, Test Name, Host Major, Host Minor, Host Revision, Host Git Commit
            Single_measurement,  2023_06_28_12_38_23,       Insight2_F4_xxx,    USB-C,      USB,          ,          0,          1,             1,      4031237645

Show Spectrometer Status:
l0_version, f4_version, battery_perc, battery_mVolt, accelerometer_temp, accelerometer_x, accelerometer_y, accelerometer_z, compass_temp, compass_x, compass_y, compass_z, lamp_0, lamp_1, gain_0, gain_1
        17,         24,           50,          1920,               6416,              44,             360,           18824,            0,     65391,     65513,     65502,   2047,   2047,      1,      1

Temperature Statistic Info:
NTC AVG [°C], NTC2 AVG [°C]
      39.529,        39.264

Statistic Info:
M1:  num,      min,      max,   median,      AVG,      STD,M2:  num,      min,      max,   median,      AVG,      STD
     301,   705.00,   805.00,   730.00,   739.20,  31.8772,     401,  1096.00,  1160.00,  1130.00,  1128.96,  21.7196,

Measurements:
Wavelength, Data Amplitude
1350, 713.00
1351, 714.00
1352, 713.00
1353, 713.00
1354, 714.00
1355, 713.00
1356, 713.00
1357, 713.00
1358, 713.00
1359, 713.00
1360, 712.00
1361, 712.00
1362, 712.00
1363, 711.00
1364, 710.00
1365, 711.00
1366, 711.00
1367, 711.00
1368, 710.00
1369, 710.00
1370, 711.00
1371, 710.00
1372, 709.00
1373, 710.00
1374, 709.00
1375, 710.00
1376, 709.00
1377, 708.00
1378, 708.00
1379, 708.00
1380, 708.00
1381, 707.00
1382, 708.00
1383, 708.00
1384, 707.00
1385, 707.00
1386, 707.00
1387, 707.00
1388, 706.00
1389, 706.00
1390, 706.00
1391, 706.00
1392, 706.00
1393, 706.00
1394, 706.00
1395, 705.00
1396, 706.00
1397, 705.00
1398, 707.00
1399, 705.00
1400, 706.00
1401, 706.00
1402, 705.00
1403, 706.00
1404, 705.00
1405, 705.00
1406, 705.00
1407, 706.00
1408, 705.00
1409, 705.00
1410, 705.00
1411, 705.00
1412, 706.00
1413, 705.00
1414, 705.00
1415, 706.00
1416, 706.00
1417, 705.00
1418, 706.00
1419, 705.00
1420, 706.00
1421, 706.00
1422, 706.00
1423, 706.00
1424, 707.00
1425, 706.00
1426, 706.00
1427, 706.00
1428, 706.00
1429, 706.00
1430, 707.00
1431, 706.00
1432, 706.00
1433, 706.00
1434, 708.00
1435, 707.00
1436, 708.00
1437, 709.00
1438, 708.00
1439, 709.00
1440, 709.00
1441, 708.00
1442, 709.00
1443, 709.00
1444, 710.00
1445, 710.00
1446, 708.00
1447, 710.00
1448, 710.00
1449, 710.00
1450, 711.00
1451, 711.00
1452, 712.00
1453, 712.00
1454, 712.00
1455, 712.00
1456, 714.00
1457, 713.00
1458, 713.00
1459, 714.00
1460, 714.00
1461, 714.00
1462, 714.00
1463, 715.00
1464, 715.00
1465, 715.00
1466, 715.00
1467, 715.00
1468, 716.00
1469, 716.00
1470, 718.00
1471, 717.00
1472, 718.00
1473, 718.00
1474, 718.00
1475, 719.00
1476, 719.00
1477, 720.00
1478, 720.00
1479, 720.00
1480, 721.00
1481, 721.00
1482, 721.00
1483, 722.00
1484, 722.00
1485, 723.00
1486, 723.00
1487, 724.00
1488, 724.00
1489, 725.00
1490, 725.00
1491, 726.00
1492, 726.00
1493, 727.00
1494, 727.00
1495, 728.00
1496, 728.00
1497, 729.00
1498, 729.00
1499, 729.00
1500, 731.00
1501, 730.00
1502, 732.00
1503, 731.00
1504, 732.00
1505, 732.00
1506, 732.00
1507, 732.00
1508, 733.00
1509, 733.00
1510, 734.00
1511, 735.00
1512, 735.00
1513, 736.00
1514, 737.00
1515, 736.00
1516, 736.00
1517, 738.00
1518, 738.00
1519, 738.00
1520, 740.00
1521, 740.00
1522, 740.00
1523, 741.00
1524, 741.00
1525, 742.00
1526, 742.00
1527, 742.00
1528, 744.00
1529, 744.00
1530, 745.00
1531, 745.00
1532, 744.00
1533, 745.00
1534, 746.00
1535, 746.00
1536, 748.00
1537, 747.00
1538, 747.00
1539, 749.00
1540, 749.00
1541, 750.00
1542, 750.00
1543, 750.00
1544, 751.00
1545, 752.00
1546, 752.00
1547, 753.00
1548, 753.00
1549, 753.00
1550, 754.00
1551, 754.00
1552, 756.00
1553, 755.00
1554, 756.00
1555, 756.00
1556, 757.00
1557, 757.00
1558, 758.00
1559, 758.00
1560, 758.00
1561, 759.00
1562, 759.00
1563, 759.00
1564, 761.00
1565, 760.00
1566, 762.00
1567, 762.00
1568, 762.00
1569, 763.00
1570, 764.00
1571, 764.00
1572, 764.00
1573, 765.00
1574, 766.00
1575, 766.00
1576, 766.00
1577, 768.00
1578, 767.00
1579, 768.00
1580, 769.00
1581, 768.00
1582, 769.00
1583, 769.00
1584, 770.00
1585, 770.00
1586, 771.00
1587, 772.00
1588, 772.00
1589, 772.00
1590, 773.00
1591, 773.00
1592, 774.00
1593, 774.00
1594, 775.00
1595, 776.00
1596, 775.00
1597, 776.00
1598, 778.00
1599, 777.00
1600, 778.00
1601, 778.00
1602, 779.00
1603, 780.00
1604, 780.00
1605, 780.00
1606, 782.00
1607, 781.00
1608, 783.00
1609, 783.00
1610, 783.00
1611, 784.00
1612, 785.00
1613, 785.00
1614, 786.00
1615, 786.00
1616, 787.00
1617, 788.00
1618, 788.00
1619, 788.00
1620, 789.00
1621, 790.00
1622, 791.00
1623, 791.00
1624, 792.00
1625, 793.00
1626, 793.00
1627, 794.00
1628, 794.00
1629, 795.00
1630, 797.00
1631, 796.00
1632, 796.00
1633, 797.00
1634, 798.00
1635, 797.00
1636, 798.00
1637, 799.00
1638, 800.00
1639, 800.00
1640, 800.00
1641, 801.00
1642, 801.00
1643, 801.00
1644, 802.00
1645, 802.00
1646, 803.00
1647, 804.00
1648, 804.00
1649, 804.00
1650, 805.00

1750, 1156.00
1751, 1158.00
1752, 1157.00
1753, 1156.00
1754, 1156.00
1755, 1156.00
1756, 1158.00
1757, 1155.00
1758, 1159.00
1759, 1157.00
1760, 1156.00
1761, 1156.00
1762, 1157.00
1763, 1157.00
1764, 1156.00
1765, 1158.00
1766, 1158.00
1767, 1156.00
1768, 1156.00
1769, 1156.00
1770, 1157.00
1771, 1155.00
1772, 1156.00
1773, 1156.00
1774, 1154.00
1775, 1156.00
1776, 1154.00
1777, 1155.00
1778, 1156.00
1779, 1155.00
1780, 1156.00
1781, 1154.00
1782, 1155.00
1783, 1154.00
1784, 1153.00
1785, 1153.00
1786, 1153.00
1787, 1154.00
1788, 1153.00
1789, 1152.00
1790, 1153.00
1791, 1154.00
1792, 1154.00
1793, 1152.00
1794, 1152.00
1795, 1151.00
1796, 1150.00
1797, 1151.00
1798, 1151.00
1799, 1153.00
1800, 1151.00
1801, 1151.00
1802, 1152.00
1803, 1151.00
1804, 1150.00
1805, 1149.00
1806, 1151.00
1807, 1151.00
1808, 1150.00
1809, 1148.00
1810, 1150.00
1811, 1149.00
1812, 1152.00
1813, 1150.00
1814, 1149.00
1815, 1149.00
1816, 1150.00
1817, 1149.00
1818, 1149.00
1819, 1149.00
1820, 1149.00
1821, 1147.00
1822, 1147.00
1823, 1146.00
1824, 1147.00
1825, 1146.00
1826, 1145.00
1827, 1145.00
1828, 1145.00
1829, 1144.00
1830, 1143.00
1831, 1144.00
1832, 1142.00
1833, 1143.00
1834, 1141.00
1835, 1143.00
1836, 1140.00
1837, 1141.00
1838, 1139.00
1839, 1138.00
1840, 1138.00
1841, 1137.00
1842, 1135.00
1843, 1137.00
1844, 1134.00
1845, 1132.00
1846, 1131.00
1847, 1131.00
1848, 1130.00
1849, 1130.00
1850, 1129.00
1851, 1128.00
1852, 1126.00
1853, 1127.00
1854, 1123.00
1855, 1123.00
1856, 1123.00
1857, 1121.00
1858, 1121.00
1859, 1119.00
1860, 1120.00
1861, 1117.00
1862, 1117.00
1863, 1115.00
1864, 1113.00
1865, 1113.00
1866, 1113.00
1867, 1112.00
1868, 1112.00
1869, 1110.00
1870, 1111.00
1871, 1110.00
1872, 1108.00
1873, 1108.00
1874, 1107.00
1875, 1107.00
1876, 1107.00
1877, 1105.00
1878, 1106.00
1879, 1105.00
1880, 1105.00
1881, 1103.00
1882, 1104.00
1883, 1105.00
1884, 1103.00
1885, 1102.00
1886, 1104.00
1887, 1101.00
1888, 1102.00
1889, 1101.00
1890, 1102.00
1891, 1100.00
1892, 1100.00
1893, 1101.00
1894, 1100.00
1895, 1100.00
1896, 1100.00
1897, 1099.00
1898, 1100.00
1899, 1099.00
1900, 1098.00
1901, 1100.00
1902, 1099.00
1903, 1099.00
1904, 1097.00
1905, 1100.00
1906, 1098.00
1907, 1099.00
1908, 1100.00
1909, 1098.00
1910, 1097.00
1911, 1097.00
1912, 1097.00
1913, 1100.00
1914, 1099.00
1915, 1097.00
1916, 1098.00
1917, 1097.00
1918, 1096.00
1919, 1098.00
1920, 1098.00
1921, 1098.00
1922, 1097.00
1923, 1097.00
1924, 1096.00
1925, 1098.00
1926, 1097.00
1927, 1097.00
1928, 1098.00
1929, 1098.00
1930, 1098.00
1931, 1098.00
1932, 1097.00
1933, 1098.00
1934, 1097.00
1935, 1099.00
1936, 1098.00
1937, 1097.00
1938, 1099.00
1939, 1099.00
1940, 1098.00
1941, 1099.00
1942, 1100.00
1943, 1099.00
1944, 1098.00
1945, 1100.00
1946, 1098.00
1947, 1099.00
1948, 1101.00
1949, 1102.00
1950, 1101.00
1951, 1101.00
1952, 1100.00
1953, 1100.00
1954, 1101.00
1955, 1102.00
1956, 1103.00
1957, 1101.00
1958, 1103.00
1959, 1103.00
1960, 1104.00
1961, 1101.00
1962, 1103.00
1963, 1103.00
1964, 1105.00
1965, 1104.00
1966, 1106.00
1967, 1105.00
1968, 1103.00
1969, 1104.00
1970, 1105.00
1971, 1105.00
1972, 1105.00
1973, 1105.00
1974, 1105.00
1975, 1107.00
1976, 1108.00
1977, 1109.00
1978, 1106.00
1979, 1107.00
1980, 1107.00
1981, 1108.00
1982, 1110.00
1983, 1111.00
1984, 1109.00
1985, 1111.00
1986, 1109.00
1987, 1109.00
1988, 1109.00
1989, 1111.00
1990, 1111.00
1991, 1111.00
1992, 1112.00
1993, 1112.00
1994, 1113.00
1995, 1112.00
1996, 1112.00
1997, 1112.00
1998, 1115.00
1999, 1116.00
2000, 1112.00
2001, 1115.00
2002, 1115.00
2003, 1116.00
2004, 1115.00
2005, 1115.00
2006, 1116.00
2007, 1117.00
2008, 1117.00
2009, 1117.00
2010, 1118.00
2011, 1117.00
2012, 1118.00
2013, 1117.00
2014, 1119.00
2015, 1117.00
2016, 1118.00
2017, 1118.00
2018, 1121.00
2019, 1119.00
2020, 1121.00
2021, 1121.00
2022, 1122.00
2023, 1121.00
2024, 1122.00
2025, 1122.00
2026, 1122.00
2027, 1121.00
2028, 1122.00
2029, 1124.00
2030, 1123.00
2031, 1123.00
2032, 1125.00
2033, 1126.00
2034, 1125.00
2035, 1126.00
2036, 1127.00
2037, 1126.00
2038, 1126.00
2039, 1127.00
2040, 1127.00
2041, 1128.00
2042, 1129.00
2043, 1129.00
2044, 1127.00
2045, 1129.00
2046, 1129.00
2047, 1130.00
2048, 1130.00
2049, 1130.00
2050, 1131.00
2051, 1133.00
2052, 1131.00
2053, 1132.00
2054, 1131.00
2055, 1133.00
2056, 1133.00
2057, 1133.00
2058, 1135.00
2059, 1134.00
2060, 1137.00
2061, 1135.00
2062, 1137.00
2063, 1136.00
2064, 1137.00
2065, 1138.00
2066, 1140.00
2067, 1138.00
2068, 1139.00
2069, 1139.00
2070, 1140.00
2071, 1139.00
2072, 1141.00
2073, 1141.00
2074, 1141.00
2075, 1142.00
2076, 1142.00
2077, 1142.00
2078, 1143.00
2079, 1143.00
2080, 1144.00
2081, 1145.00
2082, 1145.00
2083, 1143.00
2084, 1145.00
2085, 1148.00
2086, 1147.00
2087, 1146.00
2088, 1148.00
2089, 1148.00
2090, 1146.00
2091, 1147.00
2092, 1146.00
2093, 1148.00
2094, 1148.00
2095, 1148.00
2096, 1149.00
2097, 1148.00
2098, 1151.00
2099, 1149.00
2100, 1150.00
2101, 1152.00
2102, 1151.00
2103, 1152.00
2104, 1152.00
2105, 1151.00
2106, 1152.00
2107, 1152.00
2108, 1150.00
2109, 1152.00
2110, 1150.00
2111, 1153.00
2112, 1154.00
2113, 1151.00
2114, 1152.00
2115, 1153.00
2116, 1153.00
2117, 1154.00
2118, 1154.00
2119, 1153.00
2120, 1153.00
2121, 1152.00
2122, 1154.00
2123, 1153.00
2124, 1154.00
2125, 1154.00
2126, 1154.00
2127, 1156.00
2128, 1156.00
2129, 1154.00
2130, 1155.00
2131, 1154.00
2132, 1157.00
2133, 1157.00
2134, 1155.00
2135, 1157.00
2136, 1156.00
2137, 1155.00
2138, 1156.00
2139, 1155.00
2140, 1156.00
2141, 1157.00
2142, 1158.00
2143, 1157.00
2144, 1160.00
2145, 1157.00
2146, 1157.00
2147, 1158.00
2148, 1157.00
2149, 1158.00
2150, 1157.00
