FW version: 24
Log Version: 3.0.3

General Info:
       Command/Macro Performed,            Timestamp,             Device ID, COM Port, UART/I2C, Test Name, Host Major, Host Minor, Host Revision, Host Git Commit
            Single_measurement,  2023_06_28_12_38_08,       Insight2_F4_xxx,    USB-C,      USB,          ,          0,          1,             1,      4031237645

Show Spectrometer Status:
l0_version, f4_version, battery_perc, battery_mVolt, accelerometer_temp, accelerometer_x, accelerometer_y, accelerometer_z, compass_temp, compass_x, compass_y, compass_z, lamp_0, lamp_1, gain_0, gain_1
        17,         24,           50,          1921,               6400,              64,             384,           18712,            0,     65361,     65420,     65497,   3276,   3276,      0,      0

Temperature Statistic Info:
NTC AVG [°C], NTC2 AVG [°C]
      39.500,        39.205

Statistic Info:
M1:  num,      min,      max,   median,      AVG,      STD,M2:  num,      min,      max,   median,      AVG,      STD
     301,   609.00,   687.00,   627.00,   635.21,  24.3254,     401,   835.00,   883.00,   860.00,   859.10,  15.8939,

Measurements:
Wavelength, Data Amplitude
1350, 619.00
1351, 620.00
1352, 618.00
1353, 619.00
1354, 619.00
1355, 619.00
1356, 619.00
1357, 618.00
1358, 618.00
1359, 618.00
1360, 618.00
1361, 618.00
1362, 617.00
1363, 617.00
1364, 617.00
1365, 616.00
1366, 616.00
1367, 616.00
1368, 615.00
1369, 615.00
1370, 615.00
1371, 615.00
1372, 615.00
1373, 615.00
1374, 614.00
1375, 614.00
1376, 613.00
1377, 613.00
1378, 613.00
1379, 613.00
1380, 613.00
1381, 612.00
1382, 612.00
1383, 612.00
1384, 612.00
1385, 611.00
1386, 611.00
1387, 611.00
1388, 611.00
1389, 611.00
1390, 611.00
1391, 611.00
1392, 611.00
1393, 610.00
1394, 610.00
1395, 610.00
1396, 610.00
1397, 611.00
1398, 610.00
1399, 610.00
1400, 610.00
1401, 609.00
1402, 610.00
1403, 610.00
1404, 609.00
1405, 610.00
1406, 610.00
1407, 610.00
1408, 610.00
1409, 610.00
1410, 610.00
1411, 609.00
1412, 610.00
1413, 610.00
1414, 610.00
1415, 610.00
1416, 609.00
1417, 610.00
1418, 610.00
1419, 609.00
1420, 610.00
1421, 610.00
1422, 609.00
1423, 610.00
1424, 610.00
1425, 610.00
1426, 610.00
1427, 610.00
1428, 610.00
1429, 610.00
1430, 610.00
1431, 610.00
1432, 610.00
1433, 610.00
1434, 610.00
1435, 611.00
1436, 611.00
1437, 611.00
1438, 611.00
1439, 611.00
1440, 611.00
1441, 612.00
1442, 612.00
1443, 612.00
1444, 612.00
1445, 612.00
1446, 612.00
1447, 612.00
1448, 613.00
1449, 613.00
1450, 613.00
1451, 613.00
1452, 614.00
1453, 614.00
1454, 614.00
1455, 614.00
1456, 614.00
1457, 614.00
1458, 615.00
1459, 615.00
1460, 615.00
1461, 615.00
1462, 616.00
1463, 616.00
1464, 616.00
1465, 616.00
1466, 616.00
1467, 617.00
1468, 617.00
1469, 617.00
1470, 617.00
1471, 618.00
1472, 618.00
1473, 618.00
1474, 619.00
1475, 619.00
1476, 619.00
1477, 620.00
1478, 620.00
1479, 620.00
1480, 620.00
1481, 621.00
1482, 621.00
1483, 621.00
1484, 622.00
1485, 622.00
1486, 623.00
1487, 623.00
1488, 623.00
1489, 623.00
1490, 623.00
1491, 624.00
1492, 625.00
1493, 625.00
1494, 625.00
1495, 626.00
1496, 626.00
1497, 626.00
1498, 626.00
1499, 626.00
1500, 627.00
1501, 627.00
1502, 627.00
1503, 628.00
1504, 628.00
1505, 629.00
1506, 629.00
1507, 629.00
1508, 630.00
1509, 630.00
1510, 630.00
1511, 631.00
1512, 630.00
1513, 631.00
1514, 632.00
1515, 632.00
1516, 632.00
1517, 632.00
1518, 633.00
1519, 633.00
1520, 634.00
1521, 634.00
1522, 634.00
1523, 635.00
1524, 635.00
1525, 636.00
1526, 636.00
1527, 636.00
1528, 637.00
1529, 637.00
1530, 637.00
1531, 638.00
1532, 638.00
1533, 638.00
1534, 639.00
1535, 639.00
1536, 640.00
1537, 640.00
1538, 640.00
1539, 641.00
1540, 641.00
1541, 641.00
1542, 642.00
1543, 642.00
1544, 642.00
1545, 643.00
1546, 643.00
1547, 644.00
1548, 644.00
1549, 645.00
1550, 646.00
1551, 645.00
1552, 645.00
1553, 646.00
1554, 646.00
1555, 647.00
1556, 648.00
1557, 648.00
1558, 648.00
1559, 649.00
1560, 649.00
1561, 649.00
1562, 650.00
1563, 650.00
1564, 651.00
1565, 652.00
1566, 652.00
1567, 652.00
1568, 652.00
1569, 653.00
1570, 653.00
1571, 653.00
1572, 655.00
1573, 655.00
1574, 655.00
1575, 656.00
1576, 656.00
1577, 656.00
1578, 656.00
1579, 657.00
1580, 657.00
1581, 658.00
1582, 658.00
1583, 659.00
1584, 659.00
1585, 660.00
1586, 660.00
1587, 660.00
1588, 660.00
1589, 661.00
1590, 661.00
1591, 661.00
1592, 661.00
1593, 662.00
1594, 662.00
1595, 663.00
1596, 663.00
1597, 663.00
1598, 664.00
1599, 664.00
1600, 665.00
1601, 665.00
1602, 666.00
1603, 666.00
1604, 667.00
1605, 667.00
1606, 667.00
1607, 668.00
1608, 668.00
1609, 669.00
1610, 669.00
1611, 670.00
1612, 671.00
1613, 670.00
1614, 671.00
1615, 672.00
1616, 672.00
1617, 672.00
1618, 673.00
1619, 674.00
1620, 674.00
1621, 674.00
1622, 675.00
1623, 676.00
1624, 676.00
1625, 676.00
1626, 677.00
1627, 678.00
1628, 678.00
1629, 678.00
1630, 679.00
1631, 679.00
1632, 679.00
1633, 680.00
1634, 681.00
1635, 681.00
1636, 682.00
1637, 682.00
1638, 683.00
1639, 682.00
1640, 683.00
1641, 684.00
1642, 684.00
1643, 684.00
1644, 684.00
1645, 685.00
1646, 686.00
1647, 686.00
1648, 686.00
1649, 687.00
1650, 687.00

1750, 883.00
1751, 883.00
1752, 882.00
1753, 882.00
1754, 883.00
1755, 883.00
1756, 882.00
1757, 882.00
1758, 882.00
1759, 883.00
1760, 883.00
1761, 882.00
1762, 883.00
1763, 882.00
1764, 882.00
1765, 881.00
1766, 881.00
1767, 881.00
1768, 881.00
1769, 882.00
1770, 882.00
1771, 881.00
1772, 881.00
1773, 881.00
1774, 882.00
1775, 881.00
1776, 881.00
1777, 881.00
1778, 881.00
1779, 879.00
1780, 881.00
1781, 880.00
1782, 879.00
1783, 880.00
1784, 879.00
1785, 879.00
1786, 879.00
1787, 879.00
1788, 879.00
1789, 879.00
1790, 879.00
1791, 878.00
1792, 878.00
1793, 878.00
1794, 878.00
1795, 878.00
1796, 878.00
1797, 878.00
1798, 877.00
1799, 877.00
1800, 877.00
1801, 877.00
1802, 877.00
1803, 876.00
1804, 877.00
1805, 876.00
1806, 876.00
1807, 876.00
1808, 876.00
1809, 876.00
1810, 877.00
1811, 876.00
1812, 875.00
1813, 876.00
1814, 876.00
1815, 875.00
1816, 875.00
1817, 876.00
1818, 875.00
1819, 874.00
1820, 874.00
1821, 874.00
1822, 874.00
1823, 874.00
1824, 873.00
1825, 874.00
1826, 873.00
1827, 873.00
1828, 872.00
1829, 871.00
1830, 871.00
1831, 872.00
1832, 870.00
1833, 870.00
1834, 870.00
1835, 870.00
1836, 869.00
1837, 869.00
1838, 867.00
1839, 867.00
1840, 866.00
1841, 865.00
1842, 866.00
1843, 865.00
1844, 864.00
1845, 863.00
1846, 862.00
1847, 862.00
1848, 861.00
1849, 861.00
1850, 860.00
1851, 859.00
1852, 859.00
1853, 857.00
1854, 857.00
1855, 856.00
1856, 856.00
1857, 854.00
1858, 854.00
1859, 853.00
1860, 852.00
1861, 852.00
1862, 851.00
1863, 850.00
1864, 849.00
1865, 849.00
1866, 849.00
1867, 847.00
1868, 847.00
1869, 847.00
1870, 846.00
1871, 845.00
1872, 844.00
1873, 845.00
1874, 844.00
1875, 843.00
1876, 843.00
1877, 843.00
1878, 843.00
1879, 841.00
1880, 842.00
1881, 842.00
1882, 841.00
1883, 841.00
1884, 840.00
1885, 840.00
1886, 839.00
1887, 840.00
1888, 839.00
1889, 839.00
1890, 839.00
1891, 839.00
1892, 839.00
1893, 839.00
1894, 838.00
1895, 838.00
1896, 839.00
1897, 837.00
1898, 838.00
1899, 838.00
1900, 837.00
1901, 838.00
1902, 838.00
1903, 838.00
1904, 838.00
1905, 838.00
1906, 837.00
1907, 837.00
1908, 836.00
1909, 837.00
1910, 837.00
1911, 837.00
1912, 837.00
1913, 837.00
1914, 837.00
1915, 837.00
1916, 837.00
1917, 836.00
1918, 836.00
1919, 836.00
1920, 836.00
1921, 836.00
1922, 837.00
1923, 836.00
1924, 836.00
1925, 837.00
1926, 837.00
1927, 837.00
1928, 836.00
1929, 836.00
1930, 835.00
1931, 836.00
1932, 837.00
1933, 836.00
1934, 837.00
1935, 837.00
1936, 838.00
1937, 837.00
1938, 837.00
1939, 837.00
1940, 837.00
1941, 838.00
1942, 837.00
1943, 837.00
1944, 837.00
1945, 838.00
1946, 837.00
1947, 838.00
1948, 838.00
1949, 838.00
1950, 838.00
1951, 839.00
1952, 839.00
1953, 839.00
1954, 839.00
1955, 839.00
1956, 839.00
1957, 839.00
1958, 839.00
1959, 839.00
1960, 839.00
1961, 840.00
1962, 840.00
1963, 841.00
1964, 840.00
1965, 841.00
1966, 841.00
1967, 841.00
1968, 842.00
1969, 841.00
1970, 842.00
1971, 842.00
1972, 842.00
1973, 842.00
1974, 843.00
1975, 843.00
1976, 843.00
1977, 843.00
1978, 844.00
1979, 843.00
1980, 844.00
1981, 844.00
1982, 844.00
1983, 845.00
1984, 844.00
1985, 846.00
1986, 845.00
1987, 845.00
1988, 845.00
1989, 846.00
1990, 846.00
1991, 846.00
1992, 846.00
1993, 846.00
1994, 846.00
1995, 847.00
1996, 848.00
1997, 847.00
1998, 848.00
1999, 848.00
2000, 848.00
2001, 848.00
2002, 848.00
2003, 848.00
2004, 849.00
2005, 849.00
2006, 849.00
2007, 849.00
2008, 850.00
2009, 849.00
2010, 850.00
2011, 851.00
2012, 850.00
2013, 850.00
2014, 852.00
2015, 851.00
2016, 852.00
2017, 852.00
2018, 851.00
2019, 852.00
2020, 852.00
2021, 853.00
2022, 853.00
2023, 853.00
2024, 853.00
2025, 854.00
2026, 853.00
2027, 854.00
2028, 853.00
2029, 854.00
2030, 854.00
2031, 854.00
2032, 855.00
2033, 855.00
2034, 856.00
2035, 855.00
2036, 855.00
2037, 857.00
2038, 856.00
2039, 857.00
2040, 857.00
2041, 857.00
2042, 857.00
2043, 857.00
2044, 858.00
2045, 857.00
2046, 858.00
2047, 859.00
2048, 859.00
2049, 859.00
2050, 860.00
2051, 860.00
2052, 861.00
2053, 860.00
2054, 860.00
2055, 861.00
2056, 861.00
2057, 861.00
2058, 863.00
2059, 862.00
2060, 862.00
2061, 863.00
2062, 863.00
2063, 863.00
2064, 864.00
2065, 864.00
2066, 864.00
2067, 865.00
2068, 865.00
2069, 865.00
2070, 866.00
2071, 866.00
2072, 866.00
2073, 866.00
2074, 867.00
2075, 868.00
2076, 867.00
2077, 867.00
2078, 868.00
2079, 868.00
2080, 868.00
2081, 868.00
2082, 869.00
2083, 869.00
2084, 870.00
2085, 870.00
2086, 870.00
2087, 871.00
2088, 870.00
2089, 870.00
2090, 871.00
2091, 870.00
2092, 871.00
2093, 871.00
2094, 872.00
2095, 871.00
2096, 872.00
2097, 871.00
2098, 872.00
2099, 872.00
2100, 872.00
2101, 873.00
2102, 873.00
2103, 873.00
2104, 873.00
2105, 873.00
2106, 873.00
2107, 873.00
2108, 874.00
2109, 874.00
2110, 874.00
2111, 874.00
2112, 874.00
2113, 874.00
2114, 874.00
2115, 875.00
2116, 874.00
2117, 874.00
2118, 874.00
2119, 874.00
2120, 875.00
2121, 876.00
2122, 875.00
2123, 875.00
2124, 875.00
2125, 875.00
2126, 875.00
2127, 876.00
2128, 876.00
2129, 876.00
2130, 876.00
2131, 875.00
2132, 876.00
2133, 877.00
2134, 876.00
2135, 877.00
2136, 877.00
2137, 877.00
2138, 877.00
2139, 877.00
2140, 877.00
2141, 876.00
2142, 877.00
2143, 877.00
2144, 877.00
2145, 877.00
2146, 877.00
2147, 878.00
2148, 878.00
2149, 878.00
2150, 877.00
