FW version: 24
Log Version: 3.0.3

General Info:
       Command/Macro Performed,            Timestamp,             Device ID, COM Port, UART/I2C, Test Name, Host Major, Host Minor, Host Revision, Host Git Commit
            Single_measurement,  2023_06_29_10_59_23,       Insight2_F4_xxx,    USB-C,      USB,          ,          0,          1,             1,      4031237645

Show Spectrometer Status:
l0_version, f4_version, battery_perc, battery_mVolt, accelerometer_temp, accelerometer_x, accelerometer_y, accelerometer_z, compass_temp, compass_x, compass_y, compass_z, lamp_0, lamp_1, gain_0, gain_1
        17,         24,           94,          2068,               6000,           65452,             228,           18488,            0,     65532,     65534,     65529,   3276,   3276,      1,      1

Temperature Statistic Info:
NTC AVG [°C], NTC2 AVG [°C]
      38.391,        38.011

Statistic Info:
M1:  num,      min,      max,   median,      AVG,      STD,M2:  num,      min,      max,   median,      AVG,      STD
     301,  2189.00,  2540.00,  2260.00,  2304.30, 108.9645,     401,  2832.00,  3047.00,  2915.00,  2923.05,  69.8076,

Measurements:
Wavelength, Data Amplitude
1350, 2260.00
1351, 2259.00
1352, 2257.00
1353, 2256.00
1354, 2254.00
1355, 2253.00
1356, 2253.00
1357, 2250.00
1358, 2249.00
1359, 2246.00
1360, 2247.00
1361, 2244.00
1362, 2244.00
1363, 2242.00
1364, 2239.00
1365, 2238.00
1366, 2235.00
1367, 2234.00
1368, 2232.00
1369, 2230.00
1370, 2228.00
1371, 2225.00
1372, 2223.00
1373, 2221.00
1374, 2221.00
1375, 2219.00
1376, 2217.00
1377, 2215.00
1378, 2213.00
1379, 2213.00
1380, 2213.00
1381, 2209.00
1382, 2209.00
1383, 2207.00
1384, 2206.00
1385, 2205.00
1386, 2203.00
1387, 2203.00
1388, 2202.00
1389, 2202.00
1390, 2200.00
1391, 2201.00
1392, 2199.00
1393, 2197.00
1394, 2198.00
1395, 2197.00
1396, 2196.00
1397, 2196.00
1398, 2197.00
1399, 2195.00
1400, 2195.00
1401, 2193.00
1402, 2194.00
1403, 2193.00
1404, 2192.00
1405, 2192.00
1406, 2191.00
1407, 2192.00
1408, 2193.00
1409, 2191.00
1410, 2191.00
1411, 2192.00
1412, 2191.00
1413, 2190.00
1414, 2191.00
1415, 2189.00
1416, 2189.00
1417, 2191.00
1418, 2189.00
1419, 2190.00
1420, 2189.00
1421, 2189.00
1422, 2190.00
1423, 2189.00
1424, 2189.00
1425, 2190.00
1426, 2190.00
1427, 2190.00
1428, 2189.00
1429, 2191.00
1430, 2191.00
1431, 2192.00
1432, 2192.00
1433, 2194.00
1434, 2192.00
1435, 2193.00
1436, 2193.00
1437, 2193.00
1438, 2194.00
1439, 2195.00
1440, 2195.00
1441, 2194.00
1442, 2196.00
1443, 2197.00
1444, 2196.00
1445, 2198.00
1446, 2200.00
1447, 2199.00
1448, 2199.00
1449, 2200.00
1450, 2199.00
1451, 2201.00
1452, 2201.00
1453, 2203.00
1454, 2204.00
1455, 2204.00
1456, 2205.00
1457, 2207.00
1458, 2208.00
1459, 2208.00
1460, 2208.00
1461, 2210.00
1462, 2210.00
1463, 2211.00
1464, 2213.00
1465, 2213.00
1466, 2215.00
1467, 2216.00
1468, 2216.00
1469, 2218.00
1470, 2220.00
1471, 2221.00
1472, 2221.00
1473, 2224.00
1474, 2225.00
1475, 2225.00
1476, 2227.00
1477, 2228.00
1478, 2228.00
1479, 2230.00
1480, 2231.00
1481, 2233.00
1482, 2233.00
1483, 2234.00
1484, 2236.00
1485, 2238.00
1486, 2239.00
1487, 2240.00
1488, 2241.00
1489, 2242.00
1490, 2245.00
1491, 2246.00
1492, 2247.00
1493, 2249.00
1494, 2250.00
1495, 2253.00
1496, 2254.00
1497, 2255.00
1498, 2257.00
1499, 2257.00
1500, 2259.00
1501, 2260.00
1502, 2262.00
1503, 2264.00
1504, 2264.00
1505, 2267.00
1506, 2268.00
1507, 2269.00
1508, 2271.00
1509, 2273.00
1510, 2273.00
1511, 2276.00
1512, 2278.00
1513, 2280.00
1514, 2280.00
1515, 2282.00
1516, 2283.00
1517, 2284.00
1518, 2286.00
1519, 2287.00
1520, 2291.00
1521, 2292.00
1522, 2294.00
1523, 2296.00
1524, 2297.00
1525, 2298.00
1526, 2300.00
1527, 2302.00
1528, 2304.00
1529, 2306.00
1530, 2306.00
1531, 2309.00
1532, 2311.00
1533, 2313.00
1534, 2314.00
1535, 2315.00
1536, 2318.00
1537, 2320.00
1538, 2322.00
1539, 2322.00
1540, 2325.00
1541, 2326.00
1542, 2329.00
1543, 2331.00
1544, 2332.00
1545, 2335.00
1546, 2336.00
1547, 2338.00
1548, 2339.00
1549, 2342.00
1550, 2343.00
1551, 2346.00
1552, 2349.00
1553, 2349.00
1554, 2351.00
1555, 2352.00
1556, 2355.00
1557, 2357.00
1558, 2359.00
1559, 2362.00
1560, 2364.00
1561, 2365.00
1562, 2366.00
1563, 2369.00
1564, 2371.00
1565, 2373.00
1566, 2377.00
1567, 2377.00
1568, 2379.00
1569, 2381.00
1570, 2385.00
1571, 2386.00
1572, 2387.00
1573, 2390.00
1574, 2392.00
1575, 2393.00
1576, 2396.00
1577, 2398.00
1578, 2399.00
1579, 2401.00
1580, 2404.00
1581, 2405.00
1582, 2407.00
1583, 2409.00
1584, 2411.00
1585, 2413.00
1586, 2414.00
1587, 2415.00
1588, 2417.00
1589, 2420.00
1590, 2420.00
1591, 2424.00
1592, 2425.00
1593, 2427.00
1594, 2427.00
1595, 2431.00
1596, 2432.00
1597, 2433.00
1598, 2435.00
1599, 2437.00
1600, 2439.00
1601, 2441.00
1602, 2443.00
1603, 2445.00
1604, 2447.00
1605, 2447.00
1606, 2450.00
1607, 2453.00
1608, 2454.00
1609, 2457.00
1610, 2458.00
1611, 2461.00
1612, 2463.00
1613, 2465.00
1614, 2467.00
1615, 2469.00
1616, 2472.00
1617, 2474.00
1618, 2476.00
1619, 2478.00
1620, 2480.00
1621, 2483.00
1622, 2486.00
1623, 2487.00
1624, 2489.00
1625, 2492.00
1626, 2494.00
1627, 2496.00
1628, 2498.00
1629, 2500.00
1630, 2502.00
1631, 2505.00
1632, 2506.00
1633, 2509.00
1634, 2510.00
1635, 2513.00
1636, 2514.00
1637, 2516.00
1638, 2517.00
1639, 2519.00
1640, 2521.00
1641, 2523.00
1642, 2524.00
1643, 2528.00
1644, 2528.00
1645, 2530.00
1646, 2532.00
1647, 2534.00
1648, 2536.00
1649, 2538.00
1650, 2540.00

1750, 3046.00
1751, 3046.00
1752, 3045.00
1753, 3047.00
1754, 3044.00
1755, 3046.00
1756, 3044.00
1757, 3047.00
1758, 3045.00
1759, 3045.00
1760, 3043.00
1761, 3043.00
1762, 3045.00
1763, 3045.00
1764, 3043.00
1765, 3043.00
1766, 3042.00
1767, 3043.00
1768, 3042.00
1769, 3042.00
1770, 3040.00
1771, 3041.00
1772, 3040.00
1773, 3039.00
1774, 3038.00
1775, 3039.00
1776, 3038.00
1777, 3039.00
1778, 3038.00
1779, 3037.00
1780, 3036.00
1781, 3035.00
1782, 3034.00
1783, 3033.00
1784, 3032.00
1785, 3031.00
1786, 3031.00
1787, 3031.00
1788, 3029.00
1789, 3028.00
1790, 3029.00
1791, 3028.00
1792, 3026.00
1793, 3026.00
1794, 3025.00
1795, 3026.00
1796, 3023.00
1797, 3023.00
1798, 3022.00
1799, 3022.00
1800, 3019.00
1801, 3023.00
1802, 3019.00
1803, 3018.00
1804, 3018.00
1805, 3019.00
1806, 3018.00
1807, 3015.00
1808, 3016.00
1809, 3015.00
1810, 3014.00
1811, 3015.00
1812, 3012.00
1813, 3012.00
1814, 3009.00
1815, 3010.00
1816, 3008.00
1817, 3006.00
1818, 3006.00
1819, 3006.00
1820, 3004.00
1821, 3000.00
1822, 2999.00
1823, 2999.00
1824, 2997.00
1825, 2995.00
1826, 2995.00
1827, 2993.00
1828, 2989.00
1829, 2989.00
1830, 2986.00
1831, 2983.00
1832, 2982.00
1833, 2980.00
1834, 2975.00
1835, 2975.00
1836, 2972.00
1837, 2969.00
1838, 2967.00
1839, 2963.00
1840, 2960.00
1841, 2958.00
1842, 2956.00
1843, 2949.00
1844, 2946.00
1845, 2945.00
1846, 2941.00
1847, 2938.00
1848, 2936.00
1849, 2933.00
1850, 2929.00
1851, 2923.00
1852, 2921.00
1853, 2918.00
1854, 2913.00
1855, 2910.00
1856, 2908.00
1857, 2904.00
1858, 2901.00
1859, 2900.00
1860, 2895.00
1861, 2893.00
1862, 2890.00
1863, 2887.00
1864, 2885.00
1865, 2883.00
1866, 2881.00
1867, 2878.00
1868, 2877.00
1869, 2874.00
1870, 2872.00
1871, 2871.00
1872, 2866.00
1873, 2865.00
1874, 2864.00
1875, 2861.00
1876, 2861.00
1877, 2860.00
1878, 2859.00
1879, 2859.00
1880, 2857.00
1881, 2857.00
1882, 2854.00
1883, 2853.00
1884, 2851.00
1885, 2852.00
1886, 2849.00
1887, 2848.00
1888, 2849.00
1889, 2848.00
1890, 2847.00
1891, 2846.00
1892, 2844.00
1893, 2844.00
1894, 2843.00
1895, 2843.00
1896, 2842.00
1897, 2841.00
1898, 2843.00
1899, 2841.00
1900, 2840.00
1901, 2840.00
1902, 2840.00
1903, 2840.00
1904, 2837.00
1905, 2837.00
1906, 2837.00
1907, 2835.00
1908, 2836.00
1909, 2836.00
1910, 2835.00
1911, 2835.00
1912, 2837.00
1913, 2835.00
1914, 2833.00
1915, 2835.00
1916, 2835.00
1917, 2833.00
1918, 2833.00
1919, 2833.00
1920, 2834.00
1921, 2834.00
1922, 2832.00
1923, 2833.00
1924, 2832.00
1925, 2832.00
1926, 2834.00
1927, 2833.00
1928, 2833.00
1929, 2833.00
1930, 2833.00
1931, 2834.00
1932, 2833.00
1933, 2833.00
1934, 2833.00
1935, 2836.00
1936, 2833.00
1937, 2834.00
1938, 2835.00
1939, 2834.00
1940, 2837.00
1941, 2834.00
1942, 2836.00
1943, 2835.00
1944, 2835.00
1945, 2835.00
1946, 2837.00
1947, 2837.00
1948, 2837.00
1949, 2838.00
1950, 2837.00
1951, 2837.00
1952, 2837.00
1953, 2837.00
1954, 2840.00
1955, 2840.00
1956, 2840.00
1957, 2841.00
1958, 2841.00
1959, 2842.00
1960, 2841.00
1961, 2843.00
1962, 2844.00
1963, 2844.00
1964, 2844.00
1965, 2843.00
1966, 2846.00
1967, 2845.00
1968, 2847.00
1969, 2849.00
1970, 2849.00
1971, 2849.00
1972, 2848.00
1973, 2849.00
1974, 2850.00
1975, 2849.00
1976, 2852.00
1977, 2853.00
1978, 2855.00
1979, 2852.00
1980, 2856.00
1981, 2856.00
1982, 2856.00
1983, 2856.00
1984, 2858.00
1985, 2857.00
1986, 2860.00
1987, 2860.00
1988, 2860.00
1989, 2861.00
1990, 2863.00
1991, 2863.00
1992, 2864.00
1993, 2863.00
1994, 2865.00
1995, 2865.00
1996, 2867.00
1997, 2867.00
1998, 2869.00
1999, 2869.00
2000, 2870.00
2001, 2871.00
2002, 2869.00
2003, 2871.00
2004, 2873.00
2005, 2871.00
2006, 2873.00
2007, 2875.00
2008, 2874.00
2009, 2873.00
2010, 2876.00
2011, 2878.00
2012, 2879.00
2013, 2877.00
2014, 2878.00
2015, 2880.00
2016, 2881.00
2017, 2882.00
2018, 2879.00
2019, 2882.00
2020, 2885.00
2021, 2883.00
2022, 2885.00
2023, 2888.00
2024, 2887.00
2025, 2887.00
2026, 2888.00
2027, 2888.00
2028, 2890.00
2029, 2891.00
2030, 2891.00
2031, 2892.00
2032, 2891.00
2033, 2895.00
2034, 2893.00
2035, 2897.00
2036, 2897.00
2037, 2899.00
2038, 2896.00
2039, 2899.00
2040, 2902.00
2041, 2902.00
2042, 2904.00
2043, 2902.00
2044, 2903.00
2045, 2906.00
2046, 2908.00
2047, 2907.00
2048, 2909.00
2049, 2909.00
2050, 2910.00
2051, 2912.00
2052, 2914.00
2053, 2914.00
2054, 2915.00
2055, 2916.00
2056, 2916.00
2057, 2919.00
2058, 2919.00
2059, 2920.00
2060, 2920.00
2061, 2922.00
2062, 2925.00
2063, 2926.00
2064, 2928.00
2065, 2926.00
2066, 2927.00
2067, 2931.00
2068, 2930.00
2069, 2931.00
2070, 2933.00
2071, 2935.00
2072, 2934.00
2073, 2937.00
2074, 2938.00
2075, 2938.00
2076, 2941.00
2077, 2941.00
2078, 2941.00
2079, 2942.00
2080, 2943.00
2081, 2943.00
2082, 2946.00
2083, 2947.00
2084, 2948.00
2085, 2948.00
2086, 2950.00
2087, 2951.00
2088, 2952.00
2089, 2953.00
2090, 2952.00
2091, 2953.00
2092, 2954.00
2093, 2957.00
2094, 2958.00
2095, 2957.00
2096, 2958.00
2097, 2959.00
2098, 2961.00
2099, 2960.00
2100, 2961.00
2101, 2962.00
2102, 2963.00
2103, 2964.00
2104, 2963.00
2105, 2965.00
2106, 2966.00
2107, 2967.00
2108, 2967.00
2109, 2967.00
2110, 2967.00
2111, 2968.00
2112, 2967.00
2113, 2970.00
2114, 2969.00
2115, 2970.00
2116, 2971.00
2117, 2972.00
2118, 2972.00
2119, 2973.00
2120, 2973.00
2121, 2973.00
2122, 2974.00
2123, 2976.00
2124, 2974.00
2125, 2975.00
2126, 2976.00
2127, 2977.00
2128, 2978.00
2129, 2978.00
2130, 2976.00
2131, 2977.00
2132, 2980.00
2133, 2978.00
2134, 2979.00
2135, 2981.00
2136, 2980.00
2137, 2981.00
2138, 2983.00
2139, 2981.00
2140, 2981.00
2141, 2983.00
2142, 2983.00
2143, 2984.00
2144, 2985.00
2145, 2984.00
2146, 2984.00
2147, 2985.00
2148, 2984.00
2149, 2987.00
2150, 2987.00
