FW version: 24
Log Version: 3.0.3

General Info:
       Command/Macro Performed,            Timestamp,             Device ID, COM Port, UART/I2C, Test Name, Host Major, Host Minor, Host Revision, Host Git Commit
            Single_measurement,  2023_06_29_10_58_10,       Insight2_F4_xxx,    USB-C,      USB,          ,          0,          1,             1,      4031237645

Show Spectrometer Status:
l0_version, f4_version, battery_perc, battery_mVolt, accelerometer_temp, accelerometer_x, accelerometer_y, accelerometer_z, compass_temp, compass_x, compass_y, compass_z, lamp_0, lamp_1, gain_0, gain_1
        17,         24,           94,          2065,               5952,           65416,             176,           18428,            0,     65533,     65464,     65535,   3276,   3276,      0,      0

Temperature Statistic Info:
NTC AVG [°C], NTC2 AVG [°C]
      37.840,        37.612

Statistic Info:
M1:  num,      min,      max,   median,      AVG,      STD,M2:  num,      min,      max,   median,      AVG,      STD
     301,   758.00,   879.00,   783.00,   798.42,  37.7118,     401,   980.00,  1055.00,  1010.00,  1012.11,  24.3486,

Measurements:
Wavelength, Data Amplitude
1350, 784.00
1351, 783.00
1352, 782.00
1353, 782.00
1354, 782.00
1355, 781.00
1356, 781.00
1357, 780.00
1358, 780.00
1359, 779.00
1360, 779.00
1361, 778.00
1362, 778.00
1363, 776.00
1364, 776.00
1365, 776.00
1366, 775.00
1367, 774.00
1368, 773.00
1369, 772.00
1370, 772.00
1371, 772.00
1372, 771.00
1373, 770.00
1374, 769.00
1375, 769.00
1376, 768.00
1377, 768.00
1378, 767.00
1379, 767.00
1380, 766.00
1381, 766.00
1382, 765.00
1383, 765.00
1384, 765.00
1385, 764.00
1386, 764.00
1387, 763.00
1388, 763.00
1389, 763.00
1390, 763.00
1391, 762.00
1392, 762.00
1393, 762.00
1394, 761.00
1395, 761.00
1396, 761.00
1397, 760.00
1398, 761.00
1399, 761.00
1400, 760.00
1401, 760.00
1402, 761.00
1403, 760.00
1404, 761.00
1405, 760.00
1406, 760.00
1407, 760.00
1408, 759.00
1409, 759.00
1410, 759.00
1411, 760.00
1412, 759.00
1413, 759.00
1414, 759.00
1415, 759.00
1416, 759.00
1417, 759.00
1418, 759.00
1419, 758.00
1420, 759.00
1421, 759.00
1422, 759.00
1423, 759.00
1424, 759.00
1425, 759.00
1426, 759.00
1427, 759.00
1428, 759.00
1429, 760.00
1430, 759.00
1431, 759.00
1432, 760.00
1433, 760.00
1434, 759.00
1435, 760.00
1436, 760.00
1437, 760.00
1438, 760.00
1439, 760.00
1440, 760.00
1441, 761.00
1442, 761.00
1443, 761.00
1444, 761.00
1445, 761.00
1446, 762.00
1447, 762.00
1448, 762.00
1449, 762.00
1450, 763.00
1451, 763.00
1452, 763.00
1453, 763.00
1454, 763.00
1455, 764.00
1456, 764.00
1457, 764.00
1458, 765.00
1459, 765.00
1460, 765.00
1461, 765.00
1462, 766.00
1463, 766.00
1464, 767.00
1465, 767.00
1466, 767.00
1467, 768.00
1468, 768.00
1469, 768.00
1470, 769.00
1471, 769.00
1472, 769.00
1473, 770.00
1474, 770.00
1475, 771.00
1476, 772.00
1477, 772.00
1478, 772.00
1479, 772.00
1480, 773.00
1481, 774.00
1482, 773.00
1483, 774.00
1484, 775.00
1485, 775.00
1486, 776.00
1487, 776.00
1488, 777.00
1489, 777.00
1490, 778.00
1491, 778.00
1492, 778.00
1493, 779.00
1494, 779.00
1495, 780.00
1496, 780.00
1497, 781.00
1498, 782.00
1499, 782.00
1500, 783.00
1501, 783.00
1502, 784.00
1503, 785.00
1504, 785.00
1505, 785.00
1506, 785.00
1507, 786.00
1508, 787.00
1509, 787.00
1510, 787.00
1511, 788.00
1512, 789.00
1513, 789.00
1514, 790.00
1515, 790.00
1516, 791.00
1517, 792.00
1518, 792.00
1519, 793.00
1520, 793.00
1521, 794.00
1522, 794.00
1523, 796.00
1524, 796.00
1525, 796.00
1526, 797.00
1527, 797.00
1528, 798.00
1529, 800.00
1530, 800.00
1531, 800.00
1532, 800.00
1533, 801.00
1534, 802.00
1535, 803.00
1536, 803.00
1537, 804.00
1538, 804.00
1539, 805.00
1540, 806.00
1541, 807.00
1542, 807.00
1543, 808.00
1544, 808.00
1545, 809.00
1546, 810.00
1547, 810.00
1548, 810.00
1549, 811.00
1550, 812.00
1551, 813.00
1552, 813.00
1553, 814.00
1554, 814.00
1555, 815.00
1556, 816.00
1557, 816.00
1558, 817.00
1559, 818.00
1560, 818.00
1561, 819.00
1562, 820.00
1563, 821.00
1564, 822.00
1565, 822.00
1566, 823.00
1567, 824.00
1568, 824.00
1569, 825.00
1570, 826.00
1571, 827.00
1572, 827.00
1573, 828.00
1574, 829.00
1575, 829.00
1576, 830.00
1577, 830.00
1578, 832.00
1579, 832.00
1580, 833.00
1581, 833.00
1582, 834.00
1583, 835.00
1584, 835.00
1585, 836.00
1586, 836.00
1587, 837.00
1588, 838.00
1589, 838.00
1590, 839.00
1591, 840.00
1592, 840.00
1593, 841.00
1594, 841.00
1595, 842.00
1596, 843.00
1597, 843.00
1598, 844.00
1599, 844.00
1600, 845.00
1601, 845.00
1602, 846.00
1603, 847.00
1604, 848.00
1605, 848.00
1606, 849.00
1607, 850.00
1608, 850.00
1609, 851.00
1610, 852.00
1611, 853.00
1612, 853.00
1613, 854.00
1614, 855.00
1615, 856.00
1616, 857.00
1617, 857.00
1618, 858.00
1619, 859.00
1620, 859.00
1621, 861.00
1622, 861.00
1623, 862.00
1624, 863.00
1625, 864.00
1626, 864.00
1627, 865.00
1628, 866.00
1629, 866.00
1630, 867.00
1631, 868.00
1632, 868.00
1633, 869.00
1634, 870.00
1635, 871.00
1636, 871.00
1637, 871.00
1638, 872.00
1639, 873.00
1640, 873.00
1641, 874.00
1642, 875.00
1643, 875.00
1644, 876.00
1645, 877.00
1646, 877.00
1647, 878.00
1648, 878.00
1649, 879.00
1650, 879.00

1750, 1054.00
1751, 1055.00
1752, 1055.00
1753, 1054.00
1754, 1054.00
1755, 1055.00
1756, 1055.00
1757, 1055.00
1758, 1054.00
1759, 1054.00
1760, 1055.00
1761, 1054.00
1762, 1054.00
1763, 1054.00
1764, 1054.00
1765, 1054.00
1766, 1053.00
1767, 1053.00
1768, 1053.00
1769, 1054.00
1770, 1054.00
1771, 1053.00
1772, 1053.00
1773, 1053.00
1774, 1053.00
1775, 1052.00
1776, 1051.00
1777, 1052.00
1778, 1052.00
1779, 1052.00
1780, 1051.00
1781, 1051.00
1782, 1051.00
1783, 1050.00
1784, 1051.00
1785, 1050.00
1786, 1049.00
1787, 1050.00
1788, 1049.00
1789, 1049.00
1790, 1048.00
1791, 1049.00
1792, 1048.00
1793, 1048.00
1794, 1048.00
1795, 1047.00
1796, 1047.00
1797, 1048.00
1798, 1046.00
1799, 1047.00
1800, 1047.00
1801, 1046.00
1802, 1046.00
1803, 1046.00
1804, 1045.00
1805, 1046.00
1806, 1045.00
1807, 1045.00
1808, 1045.00
1809, 1044.00
1810, 1044.00
1811, 1044.00
1812, 1043.00
1813, 1043.00
1814, 1042.00
1815, 1042.00
1816, 1042.00
1817, 1042.00
1818, 1041.00
1819, 1041.00
1820, 1040.00
1821, 1040.00
1822, 1039.00
1823, 1039.00
1824, 1038.00
1825, 1037.00
1826, 1037.00
1827, 1037.00
1828, 1036.00
1829, 1034.00
1830, 1034.00
1831, 1035.00
1832, 1033.00
1833, 1032.00
1834, 1032.00
1835, 1030.00
1836, 1029.00
1837, 1028.00
1838, 1028.00
1839, 1026.00
1840, 1026.00
1841, 1024.00
1842, 1024.00
1843, 1022.00
1844, 1021.00
1845, 1019.00
1846, 1019.00
1847, 1017.00
1848, 1016.00
1849, 1015.00
1850, 1014.00
1851, 1013.00
1852, 1011.00
1853, 1010.00
1854, 1009.00
1855, 1007.00
1856, 1007.00
1857, 1006.00
1858, 1005.00
1859, 1003.00
1860, 1003.00
1861, 1002.00
1862, 1001.00
1863, 1000.00
1864, 999.00
1865, 998.00
1866, 997.00
1867, 996.00
1868, 995.00
1869, 995.00
1870, 994.00
1871, 993.00
1872, 993.00
1873, 993.00
1874, 992.00
1875, 991.00
1876, 991.00
1877, 990.00
1878, 990.00
1879, 989.00
1880, 988.00
1881, 988.00
1882, 988.00
1883, 987.00
1884, 987.00
1885, 987.00
1886, 986.00
1887, 986.00
1888, 987.00
1889, 986.00
1890, 985.00
1891, 985.00
1892, 985.00
1893, 986.00
1894, 984.00
1895, 985.00
1896, 984.00
1897, 984.00
1898, 984.00
1899, 983.00
1900, 983.00
1901, 983.00
1902, 983.00
1903, 982.00
1904, 983.00
1905, 983.00
1906, 982.00
1907, 982.00
1908, 982.00
1909, 982.00
1910, 981.00
1911, 982.00
1912, 982.00
1913, 981.00
1914, 981.00
1915, 981.00
1916, 981.00
1917, 981.00
1918, 981.00
1919, 981.00
1920, 982.00
1921, 981.00
1922, 981.00
1923, 981.00
1924, 981.00
1925, 981.00
1926, 981.00
1927, 981.00
1928, 980.00
1929, 981.00
1930, 981.00
1931, 981.00
1932, 981.00
1933, 980.00
1934, 981.00
1935, 981.00
1936, 981.00
1937, 982.00
1938, 982.00
1939, 981.00
1940, 981.00
1941, 981.00
1942, 982.00
1943, 981.00
1944, 982.00
1945, 982.00
1946, 982.00
1947, 982.00
1948, 982.00
1949, 982.00
1950, 983.00
1951, 983.00
1952, 983.00
1953, 983.00
1954, 983.00
1955, 983.00
1956, 983.00
1957, 984.00
1958, 983.00
1959, 983.00
1960, 984.00
1961, 984.00
1962, 984.00
1963, 985.00
1964, 985.00
1965, 985.00
1966, 985.00
1967, 985.00
1968, 985.00
1969, 986.00
1970, 985.00
1971, 986.00
1972, 986.00
1973, 987.00
1974, 986.00
1975, 987.00
1976, 987.00
1977, 987.00
1978, 988.00
1979, 987.00
1980, 988.00
1981, 988.00
1982, 990.00
1983, 989.00
1984, 989.00
1985, 989.00
1986, 989.00
1987, 990.00
1988, 990.00
1989, 991.00
1990, 991.00
1991, 991.00
1992, 991.00
1993, 991.00
1994, 992.00
1995, 992.00
1996, 992.00
1997, 993.00
1998, 992.00
1999, 994.00
2000, 993.00
2001, 993.00
2002, 993.00
2003, 994.00
2004, 994.00
2005, 995.00
2006, 995.00
2007, 994.00
2008, 995.00
2009, 996.00
2010, 995.00
2011, 996.00
2012, 996.00
2013, 996.00
2014, 997.00
2015, 997.00
2016, 997.00
2017, 998.00
2018, 998.00
2019, 998.00
2020, 998.00
2021, 998.00
2022, 999.00
2023, 999.00
2024, 999.00
2025, 1000.00
2026, 1000.00
2027, 1000.00
2028, 1000.00
2029, 1000.00
2030, 1001.00
2031, 1001.00
2032, 1001.00
2033, 1002.00
2034, 1002.00
2035, 1002.00
2036, 1003.00
2037, 1003.00
2038, 1004.00
2039, 1003.00
2040, 1004.00
2041, 1005.00
2042, 1005.00
2043, 1005.00
2044, 1005.00
2045, 1005.00
2046, 1006.00
2047, 1006.00
2048, 1007.00
2049, 1007.00
2050, 1007.00
2051, 1008.00
2052, 1009.00
2053, 1009.00
2054, 1010.00
2055, 1010.00
2056, 1010.00
2057, 1010.00
2058, 1011.00
2059, 1011.00
2060, 1011.00
2061, 1012.00
2062, 1012.00
2063, 1012.00
2064, 1013.00
2065, 1013.00
2066, 1013.00
2067, 1015.00
2068, 1015.00
2069, 1016.00
2070, 1016.00
2071, 1015.00
2072, 1017.00
2073, 1017.00
2074, 1017.00
2075, 1017.00
2076, 1018.00
2077, 1017.00
2078, 1019.00
2079, 1019.00
2080, 1019.00
2081, 1019.00
2082, 1020.00
2083, 1020.00
2084, 1021.00
2085, 1021.00
2086, 1022.00
2087, 1022.00
2088, 1023.00
2089, 1022.00
2090, 1023.00
2091, 1024.00
2092, 1024.00
2093, 1023.00
2094, 1024.00
2095, 1024.00
2096, 1025.00
2097, 1024.00
2098, 1025.00
2099, 1025.00
2100, 1026.00
2101, 1026.00
2102, 1026.00
2103, 1026.00
2104, 1026.00
2105, 1027.00
2106, 1027.00
2107, 1027.00
2108, 1027.00
2109, 1027.00
2110, 1028.00
2111, 1027.00
2112, 1028.00
2113, 1028.00
2114, 1028.00
2115, 1029.00
2116, 1029.00
2117, 1029.00
2118, 1029.00
2119, 1029.00
2120, 1030.00
2121, 1030.00
2122, 1030.00
2123, 1030.00
2124, 1030.00
2125, 1030.00
2126, 1031.00
2127, 1031.00
2128, 1032.00
2129, 1031.00
2130, 1031.00
2131, 1031.00
2132, 1031.00
2133, 1032.00
2134, 1032.00
2135, 1032.00
2136, 1033.00
2137, 1032.00
2138, 1032.00
2139, 1033.00
2140, 1033.00
2141, 1033.00
2142, 1033.00
2143, 1033.00
2144, 1033.00
2145, 1033.00
2146, 1034.00
2147, 1034.00
2148, 1033.00
2149, 1034.00
2150, 1034.00
