FW version: 24
Log Version: 3.0.3

General Info:
       Command/Macro Performed,            Timestamp,             Device ID, COM Port, UART/I2C, Test Name, Host Major, Host Minor, Host Revision, Host Git Commit
            Single_measurement,  2023_06_29_10_59_19,       Insight2_F4_xxx,    USB-C,      USB,          ,          0,          1,             1,      4031237645

Show Spectrometer Status:
l0_version, f4_version, battery_perc, battery_mVolt, accelerometer_temp, accelerometer_x, accelerometer_y, accelerometer_z, compass_temp, compass_x, compass_y, compass_z, lamp_0, lamp_1, gain_0, gain_1
        17,         24,           94,          2070,               6000,           65440,             252,           18448,            0,     65530,     65534,     65533,   3276,   3276,      1,      1

Temperature Statistic Info:
NTC AVG [°C], NTC2 AVG [°C]
      38.362,        37.982

Statistic Info:
M1:  num,      min,      max,   median,      AVG,      STD,M2:  num,      min,      max,   median,      AVG,      STD
     301,  2191.00,  2540.00,  2261.00,  2305.60, 108.9713,     401,  2833.00,  3048.00,  2919.00,  2924.41,  69.7946,

Measurements:
Wavelength, Data Amplitude
1350, 2261.00
1351, 2261.00
1352, 2258.00
1353, 2258.00
1354, 2256.00
1355, 2255.00
1356, 2254.00
1357, 2251.00
1358, 2251.00
1359, 2248.00
1360, 2248.00
1361, 2245.00
1362, 2244.00
1363, 2242.00
1364, 2239.00
1365, 2238.00
1366, 2236.00
1367, 2235.00
1368, 2233.00
1369, 2231.00
1370, 2230.00
1371, 2227.00
1372, 2225.00
1373, 2223.00
1374, 2223.00
1375, 2222.00
1376, 2219.00
1377, 2216.00
1378, 2215.00
1379, 2214.00
1380, 2213.00
1381, 2211.00
1382, 2211.00
1383, 2209.00
1384, 2208.00
1385, 2206.00
1386, 2205.00
1387, 2205.00
1388, 2205.00
1389, 2203.00
1390, 2202.00
1391, 2201.00
1392, 2200.00
1393, 2199.00
1394, 2199.00
1395, 2197.00
1396, 2198.00
1397, 2198.00
1398, 2197.00
1399, 2195.00
1400, 2196.00
1401, 2196.00
1402, 2196.00
1403, 2195.00
1404, 2194.00
1405, 2194.00
1406, 2194.00
1407, 2192.00
1408, 2194.00
1409, 2191.00
1410, 2192.00
1411, 2192.00
1412, 2192.00
1413, 2192.00
1414, 2191.00
1415, 2192.00
1416, 2192.00
1417, 2192.00
1418, 2192.00
1419, 2191.00
1420, 2191.00
1421, 2191.00
1422, 2191.00
1423, 2192.00
1424, 2192.00
1425, 2192.00
1426, 2192.00
1427, 2191.00
1428, 2191.00
1429, 2192.00
1430, 2193.00
1431, 2192.00
1432, 2193.00
1433, 2194.00
1434, 2194.00
1435, 2194.00
1436, 2195.00
1437, 2194.00
1438, 2195.00
1439, 2196.00
1440, 2195.00
1441, 2197.00
1442, 2198.00
1443, 2198.00
1444, 2197.00
1445, 2199.00
1446, 2200.00
1447, 2201.00
1448, 2200.00
1449, 2201.00
1450, 2202.00
1451, 2202.00
1452, 2204.00
1453, 2205.00
1454, 2206.00
1455, 2205.00
1456, 2207.00
1457, 2208.00
1458, 2208.00
1459, 2208.00
1460, 2209.00
1461, 2211.00
1462, 2212.00
1463, 2213.00
1464, 2213.00
1465, 2213.00
1466, 2216.00
1467, 2218.00
1468, 2218.00
1469, 2219.00
1470, 2219.00
1471, 2221.00
1472, 2221.00
1473, 2223.00
1474, 2225.00
1475, 2226.00
1476, 2226.00
1477, 2227.00
1478, 2231.00
1479, 2230.00
1480, 2233.00
1481, 2233.00
1482, 2235.00
1483, 2235.00
1484, 2238.00
1485, 2239.00
1486, 2240.00
1487, 2243.00
1488, 2243.00
1489, 2244.00
1490, 2247.00
1491, 2248.00
1492, 2249.00
1493, 2250.00
1494, 2252.00
1495, 2253.00
1496, 2254.00
1497, 2255.00
1498, 2257.00
1499, 2260.00
1500, 2260.00
1501, 2262.00
1502, 2263.00
1503, 2265.00
1504, 2266.00
1505, 2267.00
1506, 2269.00
1507, 2270.00
1508, 2272.00
1509, 2273.00
1510, 2275.00
1511, 2277.00
1512, 2278.00
1513, 2278.00
1514, 2281.00
1515, 2283.00
1516, 2285.00
1517, 2287.00
1518, 2289.00
1519, 2290.00
1520, 2291.00
1521, 2294.00
1522, 2295.00
1523, 2296.00
1524, 2298.00
1525, 2300.00
1526, 2301.00
1527, 2304.00
1528, 2306.00
1529, 2307.00
1530, 2308.00
1531, 2309.00
1532, 2313.00
1533, 2314.00
1534, 2315.00
1535, 2318.00
1536, 2320.00
1537, 2321.00
1538, 2323.00
1539, 2325.00
1540, 2327.00
1541, 2328.00
1542, 2329.00
1543, 2331.00
1544, 2334.00
1545, 2336.00
1546, 2338.00
1547, 2339.00
1548, 2341.00
1549, 2342.00
1550, 2345.00
1551, 2347.00
1552, 2349.00
1553, 2350.00
1554, 2352.00
1555, 2355.00
1556, 2356.00
1557, 2359.00
1558, 2360.00
1559, 2362.00
1560, 2364.00
1561, 2367.00
1562, 2369.00
1563, 2370.00
1564, 2373.00
1565, 2373.00
1566, 2377.00
1567, 2379.00
1568, 2381.00
1569, 2383.00
1570, 2385.00
1571, 2387.00
1572, 2390.00
1573, 2391.00
1574, 2392.00
1575, 2395.00
1576, 2397.00
1577, 2399.00
1578, 2401.00
1579, 2403.00
1580, 2405.00
1581, 2406.00
1582, 2408.00
1583, 2411.00
1584, 2413.00
1585, 2412.00
1586, 2415.00
1587, 2417.00
1588, 2419.00
1589, 2420.00
1590, 2422.00
1591, 2424.00
1592, 2426.00
1593, 2427.00
1594, 2430.00
1595, 2431.00
1596, 2432.00
1597, 2435.00
1598, 2436.00
1599, 2439.00
1600, 2440.00
1601, 2442.00
1602, 2443.00
1603, 2446.00
1604, 2449.00
1605, 2449.00
1606, 2451.00
1607, 2454.00
1608, 2456.00
1609, 2457.00
1610, 2460.00
1611, 2463.00
1612, 2466.00
1613, 2466.00
1614, 2469.00
1615, 2471.00
1616, 2473.00
1617, 2475.00
1618, 2477.00
1619, 2481.00
1620, 2482.00
1621, 2485.00
1622, 2486.00
1623, 2488.00
1624, 2491.00
1625, 2493.00
1626, 2495.00
1627, 2497.00
1628, 2499.00
1629, 2502.00
1630, 2505.00
1631, 2505.00
1632, 2507.00
1633, 2510.00
1634, 2511.00
1635, 2513.00
1636, 2515.00
1637, 2517.00
1638, 2519.00
1639, 2522.00
1640, 2523.00
1641, 2524.00
1642, 2527.00
1643, 2529.00
1644, 2529.00
1645, 2532.00
1646, 2533.00
1647, 2537.00
1648, 2538.00
1649, 2538.00
1650, 2540.00

1750, 3046.00
1751, 3047.00
1752, 3047.00
1753, 3045.00
1754, 3045.00
1755, 3045.00
1756, 3048.00
1757, 3045.00
1758, 3043.00
1759, 3048.00
1760, 3045.00
1761, 3047.00
1762, 3045.00
1763, 3043.00
1764, 3045.00
1765, 3043.00
1766, 3043.00
1767, 3044.00
1768, 3044.00
1769, 3044.00
1770, 3045.00
1771, 3042.00
1772, 3043.00
1773, 3041.00
1774, 3041.00
1775, 3040.00
1776, 3041.00
1777, 3039.00
1778, 3037.00
1779, 3037.00
1780, 3038.00
1781, 3036.00
1782, 3037.00
1783, 3034.00
1784, 3033.00
1785, 3035.00
1786, 3031.00
1787, 3031.00
1788, 3030.00
1789, 3031.00
1790, 3030.00
1791, 3029.00
1792, 3028.00
1793, 3027.00
1794, 3028.00
1795, 3027.00
1796, 3025.00
1797, 3025.00
1798, 3023.00
1799, 3024.00
1800, 3022.00
1801, 3022.00
1802, 3022.00
1803, 3020.00
1804, 3019.00
1805, 3019.00
1806, 3019.00
1807, 3019.00
1808, 3017.00
1809, 3018.00
1810, 3015.00
1811, 3013.00
1812, 3014.00
1813, 3012.00
1814, 3011.00
1815, 3011.00
1816, 3010.00
1817, 3009.00
1818, 3006.00
1819, 3006.00
1820, 3004.00
1821, 3002.00
1822, 3003.00
1823, 2999.00
1824, 2997.00
1825, 2996.00
1826, 2995.00
1827, 2995.00
1828, 2991.00
1829, 2989.00
1830, 2987.00
1831, 2985.00
1832, 2984.00
1833, 2979.00
1834, 2980.00
1835, 2976.00
1836, 2974.00
1837, 2970.00
1838, 2967.00
1839, 2964.00
1840, 2961.00
1841, 2959.00
1842, 2956.00
1843, 2952.00
1844, 2947.00
1845, 2945.00
1846, 2943.00
1847, 2941.00
1848, 2937.00
1849, 2932.00
1850, 2931.00
1851, 2925.00
1852, 2921.00
1853, 2919.00
1854, 2917.00
1855, 2913.00
1856, 2911.00
1857, 2907.00
1858, 2904.00
1859, 2900.00
1860, 2898.00
1861, 2894.00
1862, 2891.00
1863, 2891.00
1864, 2885.00
1865, 2885.00
1866, 2881.00
1867, 2879.00
1868, 2877.00
1869, 2876.00
1870, 2871.00
1871, 2870.00
1872, 2867.00
1873, 2869.00
1874, 2865.00
1875, 2865.00
1876, 2865.00
1877, 2862.00
1878, 2860.00
1879, 2857.00
1880, 2858.00
1881, 2854.00
1882, 2853.00
1883, 2854.00
1884, 2854.00
1885, 2852.00
1886, 2851.00
1887, 2849.00
1888, 2849.00
1889, 2849.00
1890, 2847.00
1891, 2847.00
1892, 2847.00
1893, 2845.00
1894, 2844.00
1895, 2844.00
1896, 2844.00
1897, 2842.00
1898, 2843.00
1899, 2841.00
1900, 2841.00
1901, 2840.00
1902, 2841.00
1903, 2837.00
1904, 2839.00
1905, 2839.00
1906, 2840.00
1907, 2839.00
1908, 2839.00
1909, 2838.00
1910, 2839.00
1911, 2838.00
1912, 2837.00
1913, 2837.00
1914, 2836.00
1915, 2836.00
1916, 2837.00
1917, 2836.00
1918, 2837.00
1919, 2837.00
1920, 2835.00
1921, 2835.00
1922, 2834.00
1923, 2835.00
1924, 2835.00
1925, 2835.00
1926, 2833.00
1927, 2835.00
1928, 2836.00
1929, 2835.00
1930, 2834.00
1931, 2833.00
1932, 2835.00
1933, 2834.00
1934, 2833.00
1935, 2833.00
1936, 2835.00
1937, 2836.00
1938, 2835.00
1939, 2836.00
1940, 2837.00
1941, 2834.00
1942, 2835.00
1943, 2836.00
1944, 2837.00
1945, 2837.00
1946, 2837.00
1947, 2838.00
1948, 2837.00
1949, 2837.00
1950, 2838.00
1951, 2841.00
1952, 2839.00
1953, 2841.00
1954, 2840.00
1955, 2841.00
1956, 2841.00
1957, 2843.00
1958, 2843.00
1959, 2844.00
1960, 2843.00
1961, 2842.00
1962, 2845.00
1963, 2844.00
1964, 2846.00
1965, 2847.00
1966, 2845.00
1967, 2846.00
1968, 2847.00
1969, 2848.00
1970, 2850.00
1971, 2849.00
1972, 2850.00
1973, 2852.00
1974, 2853.00
1975, 2852.00
1976, 2855.00
1977, 2855.00
1978, 2855.00
1979, 2856.00
1980, 2856.00
1981, 2857.00
1982, 2858.00
1983, 2858.00
1984, 2862.00
1985, 2859.00
1986, 2862.00
1987, 2862.00
1988, 2861.00
1989, 2862.00
1990, 2863.00
1991, 2863.00
1992, 2865.00
1993, 2865.00
1994, 2867.00
1995, 2865.00
1996, 2866.00
1997, 2868.00
1998, 2869.00
1999, 2871.00
2000, 2870.00
2001, 2871.00
2002, 2871.00
2003, 2872.00
2004, 2874.00
2005, 2874.00
2006, 2877.00
2007, 2876.00
2008, 2876.00
2009, 2875.00
2010, 2877.00
2011, 2878.00
2012, 2879.00
2013, 2880.00
2014, 2879.00
2015, 2879.00
2016, 2883.00
2017, 2882.00
2018, 2883.00
2019, 2885.00
2020, 2883.00
2021, 2887.00
2022, 2887.00
2023, 2887.00
2024, 2888.00
2025, 2889.00
2026, 2888.00
2027, 2890.00
2028, 2893.00
2029, 2890.00
2030, 2893.00
2031, 2893.00
2032, 2895.00
2033, 2897.00
2034, 2895.00
2035, 2897.00
2036, 2897.00
2037, 2898.00
2038, 2902.00
2039, 2900.00
2040, 2903.00
2041, 2903.00
2042, 2904.00
2043, 2904.00
2044, 2905.00
2045, 2907.00
2046, 2907.00
2047, 2907.00
2048, 2910.00
2049, 2912.00
2050, 2912.00
2051, 2911.00
2052, 2914.00
2053, 2916.00
2054, 2919.00
2055, 2919.00
2056, 2919.00
2057, 2921.00
2058, 2919.00
2059, 2923.00
2060, 2923.00
2061, 2925.00
2062, 2927.00
2063, 2927.00
2064, 2927.00
2065, 2930.00
2066, 2930.00
2067, 2931.00
2068, 2931.00
2069, 2933.00
2070, 2935.00
2071, 2937.00
2072, 2936.00
2073, 2938.00
2074, 2938.00
2075, 2939.00
2076, 2942.00
2077, 2943.00
2078, 2944.00
2079, 2943.00
2080, 2945.00
2081, 2946.00
2082, 2947.00
2083, 2949.00
2084, 2951.00
2085, 2949.00
2086, 2951.00
2087, 2952.00
2088, 2952.00
2089, 2952.00
2090, 2957.00
2091, 2956.00
2092, 2955.00
2093, 2957.00
2094, 2959.00
2095, 2959.00
2096, 2959.00
2097, 2960.00
2098, 2961.00
2099, 2962.00
2100, 2962.00
2101, 2964.00
2102, 2965.00
2103, 2965.00
2104, 2965.00
2105, 2965.00
2106, 2965.00
2107, 2968.00
2108, 2967.00
2109, 2969.00
2110, 2969.00
2111, 2969.00
2112, 2971.00
2113, 2970.00
2114, 2970.00
2115, 2972.00
2116, 2973.00
2117, 2972.00
2118, 2973.00
2119, 2973.00
2120, 2975.00
2121, 2974.00
2122, 2977.00
2123, 2975.00
2124, 2976.00
2125, 2978.00
2126, 2976.00
2127, 2979.00
2128, 2978.00
2129, 2980.00
2130, 2978.00
2131, 2981.00
2132, 2979.00
2133, 2981.00
2134, 2981.00
2135, 2982.00
2136, 2982.00
2137, 2980.00
2138, 2984.00
2139, 2984.00
2140, 2985.00
2141, 2983.00
2142, 2984.00
2143, 2985.00
2144, 2985.00
2145, 2986.00
2146, 2986.00
2147, 2985.00
2148, 2988.00
2149, 2987.00
2150, 2986.00
