FW version: 24
Log Version: 3.0.3

General Info:
       Command/Macro Performed,            Timestamp,             Device ID, COM Port, UART/I2C, Test Name, Host Major, Host Minor, Host Revision, Host Git Commit
            Single_measurement,  2023_06_29_10_59_27,       Insight2_F4_xxx,    USB-C,      USB,          ,          0,          1,             1,      4031237645

Show Spectrometer Status:
l0_version, f4_version, battery_perc, battery_mVolt, accelerometer_temp, accelerometer_x, accelerometer_y, accelerometer_z, compass_temp, compass_x, compass_y, compass_z, lamp_0, lamp_1, gain_0, gain_1
        17,         24,           94,          2066,               6000,           65408,             216,           18704,            0,     65532,     65497,     65523,   3276,   3276,      1,      1

Temperature Statistic Info:
NTC AVG [°C], NTC2 AVG [°C]
      38.420,        38.099

Statistic Info:
M1:  num,      min,      max,   median,      AVG,      STD,M2:  num,      min,      max,   median,      AVG,      STD
     301,  2188.00,  2539.00,  2259.00,  2303.50, 108.7880,     401,  2831.00,  3047.00,  2915.00,  2922.35,  69.6565,

Measurements:
Wavelength, Data Amplitude
1350, 2258.00
1351, 2259.00
1352, 2255.00
1353, 2255.00
1354, 2254.00
1355, 2252.00
1356, 2251.00
1357, 2249.00
1358, 2249.00
1359, 2247.00
1360, 2245.00
1361, 2242.00
1362, 2243.00
1363, 2240.00
1364, 2237.00
1365, 2236.00
1366, 2234.00
1367, 2233.00
1368, 2230.00
1369, 2229.00
1370, 2228.00
1371, 2226.00
1372, 2222.00
1373, 2220.00
1374, 2220.00
1375, 2218.00
1376, 2217.00
1377, 2215.00
1378, 2213.00
1379, 2212.00
1380, 2210.00
1381, 2209.00
1382, 2207.00
1383, 2207.00
1384, 2205.00
1385, 2203.00
1386, 2203.00
1387, 2202.00
1388, 2201.00
1389, 2201.00
1390, 2200.00
1391, 2199.00
1392, 2198.00
1393, 2198.00
1394, 2197.00
1395, 2197.00
1396, 2196.00
1397, 2197.00
1398, 2195.00
1399, 2195.00
1400, 2194.00
1401, 2194.00
1402, 2193.00
1403, 2192.00
1404, 2193.00
1405, 2192.00
1406, 2192.00
1407, 2192.00
1408, 2190.00
1409, 2192.00
1410, 2190.00
1411, 2190.00
1412, 2189.00
1413, 2189.00
1414, 2190.00
1415, 2189.00
1416, 2189.00
1417, 2190.00
1418, 2189.00
1419, 2190.00
1420, 2188.00
1421, 2190.00
1422, 2188.00
1423, 2190.00
1424, 2190.00
1425, 2190.00
1426, 2189.00
1427, 2189.00
1428, 2190.00
1429, 2191.00
1430, 2190.00
1431, 2191.00
1432, 2192.00
1433, 2191.00
1434, 2192.00
1435, 2192.00
1436, 2192.00
1437, 2194.00
1438, 2193.00
1439, 2194.00
1440, 2194.00
1441, 2195.00
1442, 2195.00
1443, 2195.00
1444, 2197.00
1445, 2197.00
1446, 2197.00
1447, 2198.00
1448, 2199.00
1449, 2201.00
1450, 2199.00
1451, 2201.00
1452, 2201.00
1453, 2203.00
1454, 2203.00
1455, 2203.00
1456, 2204.00
1457, 2205.00
1458, 2206.00
1459, 2207.00
1460, 2208.00
1461, 2210.00
1462, 2209.00
1463, 2211.00
1464, 2213.00
1465, 2212.00
1466, 2214.00
1467, 2215.00
1468, 2215.00
1469, 2216.00
1470, 2219.00
1471, 2220.00
1472, 2221.00
1473, 2222.00
1474, 2223.00
1475, 2223.00
1476, 2225.00
1477, 2225.00
1478, 2228.00
1479, 2228.00
1480, 2231.00
1481, 2232.00
1482, 2234.00
1483, 2235.00
1484, 2235.00
1485, 2237.00
1486, 2239.00
1487, 2241.00
1488, 2241.00
1489, 2242.00
1490, 2245.00
1491, 2246.00
1492, 2245.00
1493, 2249.00
1494, 2251.00
1495, 2252.00
1496, 2253.00
1497, 2254.00
1498, 2256.00
1499, 2257.00
1500, 2258.00
1501, 2259.00
1502, 2261.00
1503, 2263.00
1504, 2265.00
1505, 2265.00
1506, 2267.00
1507, 2269.00
1508, 2270.00
1509, 2271.00
1510, 2272.00
1511, 2275.00
1512, 2277.00
1513, 2277.00
1514, 2279.00
1515, 2281.00
1516, 2282.00
1517, 2284.00
1518, 2285.00
1519, 2288.00
1520, 2289.00
1521, 2292.00
1522, 2293.00
1523, 2294.00
1524, 2296.00
1525, 2298.00
1526, 2300.00
1527, 2301.00
1528, 2305.00
1529, 2305.00
1530, 2307.00
1531, 2309.00
1532, 2311.00
1533, 2311.00
1534, 2313.00
1535, 2317.00
1536, 2317.00
1537, 2319.00
1538, 2322.00
1539, 2323.00
1540, 2325.00
1541, 2326.00
1542, 2327.00
1543, 2331.00
1544, 2331.00
1545, 2333.00
1546, 2336.00
1547, 2337.00
1548, 2339.00
1549, 2341.00
1550, 2343.00
1551, 2346.00
1552, 2346.00
1553, 2349.00
1554, 2350.00
1555, 2352.00
1556, 2354.00
1557, 2356.00
1558, 2359.00
1559, 2360.00
1560, 2361.00
1561, 2365.00
1562, 2366.00
1563, 2368.00
1564, 2371.00
1565, 2372.00
1566, 2375.00
1567, 2377.00
1568, 2379.00
1569, 2381.00
1570, 2384.00
1571, 2384.00
1572, 2388.00
1573, 2389.00
1574, 2389.00
1575, 2393.00
1576, 2395.00
1577, 2397.00
1578, 2399.00
1579, 2400.00
1580, 2401.00
1581, 2403.00
1582, 2406.00
1583, 2408.00
1584, 2410.00
1585, 2411.00
1586, 2413.00
1587, 2414.00
1588, 2417.00
1589, 2419.00
1590, 2420.00
1591, 2423.00
1592, 2423.00
1593, 2424.00
1594, 2428.00
1595, 2428.00
1596, 2431.00
1597, 2432.00
1598, 2434.00
1599, 2436.00
1600, 2439.00
1601, 2441.00
1602, 2442.00
1603, 2443.00
1604, 2445.00
1605, 2448.00
1606, 2449.00
1607, 2451.00
1608, 2453.00
1609, 2454.00
1610, 2458.00
1611, 2459.00
1612, 2462.00
1613, 2464.00
1614, 2466.00
1615, 2468.00
1616, 2471.00
1617, 2473.00
1618, 2475.00
1619, 2477.00
1620, 2480.00
1621, 2481.00
1622, 2485.00
1623, 2487.00
1624, 2489.00
1625, 2491.00
1626, 2493.00
1627, 2494.00
1628, 2497.00
1629, 2499.00
1630, 2501.00
1631, 2504.00
1632, 2506.00
1633, 2506.00
1634, 2510.00
1635, 2511.00
1636, 2513.00
1637, 2515.00
1638, 2517.00
1639, 2518.00
1640, 2520.00
1641, 2522.00
1642, 2523.00
1643, 2526.00
1644, 2527.00
1645, 2529.00
1646, 2530.00
1647, 2532.00
1648, 2533.00
1649, 2537.00
1650, 2539.00

1750, 3045.00
1751, 3043.00
1752, 3043.00
1753, 3047.00
1754, 3044.00
1755, 3044.00
1756, 3043.00
1757, 3043.00
1758, 3045.00
1759, 3044.00
1760, 3043.00
1761, 3041.00
1762, 3043.00
1763, 3042.00
1764, 3040.00
1765, 3042.00
1766, 3043.00
1767, 3041.00
1768, 3043.00
1769, 3041.00
1770, 3039.00
1771, 3040.00
1772, 3040.00
1773, 3037.00
1774, 3037.00
1775, 3037.00
1776, 3036.00
1777, 3036.00
1778, 3037.00
1779, 3035.00
1780, 3036.00
1781, 3034.00
1782, 3032.00
1783, 3031.00
1784, 3030.00
1785, 3032.00
1786, 3031.00
1787, 3029.00
1788, 3028.00
1789, 3029.00
1790, 3026.00
1791, 3029.00
1792, 3026.00
1793, 3024.00
1794, 3025.00
1795, 3024.00
1796, 3023.00
1797, 3023.00
1798, 3021.00
1799, 3021.00
1800, 3021.00
1801, 3021.00
1802, 3021.00
1803, 3019.00
1804, 3017.00
1805, 3018.00
1806, 3016.00
1807, 3015.00
1808, 3016.00
1809, 3015.00
1810, 3012.00
1811, 3013.00
1812, 3012.00
1813, 3009.00
1814, 3008.00
1815, 3008.00
1816, 3008.00
1817, 3005.00
1818, 3005.00
1819, 3004.00
1820, 3002.00
1821, 3000.00
1822, 2999.00
1823, 2999.00
1824, 2997.00
1825, 2995.00
1826, 2993.00
1827, 2991.00
1828, 2990.00
1829, 2987.00
1830, 2986.00
1831, 2982.00
1832, 2982.00
1833, 2977.00
1834, 2975.00
1835, 2973.00
1836, 2970.00
1837, 2967.00
1838, 2963.00
1839, 2960.00
1840, 2960.00
1841, 2958.00
1842, 2953.00
1843, 2949.00
1844, 2945.00
1845, 2943.00
1846, 2941.00
1847, 2937.00
1848, 2934.00
1849, 2927.00
1850, 2926.00
1851, 2920.00
1852, 2921.00
1853, 2918.00
1854, 2913.00
1855, 2910.00
1856, 2907.00
1857, 2905.00
1858, 2899.00
1859, 2897.00
1860, 2894.00
1861, 2893.00
1862, 2889.00
1863, 2888.00
1864, 2885.00
1865, 2881.00
1866, 2880.00
1867, 2877.00
1868, 2873.00
1869, 2873.00
1870, 2871.00
1871, 2870.00
1872, 2867.00
1873, 2864.00
1874, 2863.00
1875, 2860.00
1876, 2861.00
1877, 2861.00
1878, 2859.00
1879, 2857.00
1880, 2854.00
1881, 2853.00
1882, 2854.00
1883, 2852.00
1884, 2851.00
1885, 2848.00
1886, 2849.00
1887, 2850.00
1888, 2849.00
1889, 2846.00
1890, 2845.00
1891, 2844.00
1892, 2845.00
1893, 2843.00
1894, 2843.00
1895, 2841.00
1896, 2842.00
1897, 2840.00
1898, 2841.00
1899, 2841.00
1900, 2840.00
1901, 2838.00
1902, 2839.00
1903, 2838.00
1904, 2838.00
1905, 2836.00
1906, 2838.00
1907, 2837.00
1908, 2836.00
1909, 2835.00
1910, 2835.00
1911, 2834.00
1912, 2835.00
1913, 2834.00
1914, 2834.00
1915, 2835.00
1916, 2832.00
1917, 2833.00
1918, 2831.00
1919, 2833.00
1920, 2833.00
1921, 2832.00
1922, 2833.00
1923, 2832.00
1924, 2833.00
1925, 2833.00
1926, 2833.00
1927, 2832.00
1928, 2832.00
1929, 2834.00
1930, 2834.00
1931, 2834.00
1932, 2831.00
1933, 2834.00
1934, 2832.00
1935, 2833.00
1936, 2833.00
1937, 2833.00
1938, 2835.00
1939, 2834.00
1940, 2835.00
1941, 2834.00
1942, 2836.00
1943, 2833.00
1944, 2834.00
1945, 2837.00
1946, 2836.00
1947, 2835.00
1948, 2837.00
1949, 2835.00
1950, 2838.00
1951, 2837.00
1952, 2837.00
1953, 2839.00
1954, 2837.00
1955, 2840.00
1956, 2839.00
1957, 2839.00
1958, 2841.00
1959, 2841.00
1960, 2841.00
1961, 2842.00
1962, 2843.00
1963, 2842.00
1964, 2842.00
1965, 2846.00
1966, 2844.00
1967, 2846.00
1968, 2847.00
1969, 2847.00
1970, 2848.00
1971, 2847.00
1972, 2849.00
1973, 2849.00
1974, 2851.00
1975, 2852.00
1976, 2853.00
1977, 2851.00
1978, 2852.00
1979, 2853.00
1980, 2856.00
1981, 2854.00
1982, 2854.00
1983, 2857.00
1984, 2857.00
1985, 2856.00
1986, 2859.00
1987, 2859.00
1988, 2861.00
1989, 2861.00
1990, 2862.00
1991, 2862.00
1992, 2863.00
1993, 2863.00
1994, 2864.00
1995, 2866.00
1996, 2867.00
1997, 2865.00
1998, 2866.00
1999, 2869.00
2000, 2869.00
2001, 2869.00
2002, 2871.00
2003, 2872.00
2004, 2872.00
2005, 2872.00
2006, 2872.00
2007, 2874.00
2008, 2872.00
2009, 2876.00
2010, 2878.00
2011, 2876.00
2012, 2878.00
2013, 2877.00
2014, 2879.00
2015, 2879.00
2016, 2881.00
2017, 2878.00
2018, 2880.00
2019, 2881.00
2020, 2883.00
2021, 2884.00
2022, 2883.00
2023, 2886.00
2024, 2886.00
2025, 2887.00
2026, 2887.00
2027, 2890.00
2028, 2889.00
2029, 2891.00
2030, 2893.00
2031, 2892.00
2032, 2893.00
2033, 2894.00
2034, 2894.00
2035, 2895.00
2036, 2897.00
2037, 2898.00
2038, 2896.00
2039, 2899.00
2040, 2900.00
2041, 2901.00
2042, 2901.00
2043, 2903.00
2044, 2905.00
2045, 2905.00
2046, 2905.00
2047, 2905.00
2048, 2906.00
2049, 2909.00
2050, 2909.00
2051, 2913.00
2052, 2912.00
2053, 2914.00
2054, 2915.00
2055, 2916.00
2056, 2919.00
2057, 2919.00
2058, 2919.00
2059, 2919.00
2060, 2921.00
2061, 2922.00
2062, 2923.00
2063, 2925.00
2064, 2926.00
2065, 2927.00
2066, 2927.00
2067, 2931.00
2068, 2931.00
2069, 2932.00
2070, 2932.00
2071, 2935.00
2072, 2933.00
2073, 2935.00
2074, 2937.00
2075, 2938.00
2076, 2939.00
2077, 2940.00
2078, 2943.00
2079, 2941.00
2080, 2944.00
2081, 2944.00
2082, 2946.00
2083, 2946.00
2084, 2947.00
2085, 2950.00
2086, 2949.00
2087, 2950.00
2088, 2952.00
2089, 2952.00
2090, 2953.00
2091, 2954.00
2092, 2958.00
2093, 2955.00
2094, 2955.00
2095, 2957.00
2096, 2957.00
2097, 2957.00
2098, 2958.00
2099, 2960.00
2100, 2961.00
2101, 2962.00
2102, 2962.00
2103, 2961.00
2104, 2964.00
2105, 2964.00
2106, 2965.00
2107, 2965.00
2108, 2964.00
2109, 2967.00
2110, 2967.00
2111, 2967.00
2112, 2967.00
2113, 2967.00
2114, 2969.00
2115, 2971.00
2116, 2971.00
2117, 2971.00
2118, 2970.00
2119, 2971.00
2120, 2973.00
2121, 2974.00
2122, 2973.00
2123, 2973.00
2124, 2976.00
2125, 2975.00
2126, 2976.00
2127, 2976.00
2128, 2977.00
2129, 2976.00
2130, 2977.00
2131, 2976.00
2132, 2978.00
2133, 2977.00
2134, 2978.00
2135, 2981.00
2136, 2979.00
2137, 2981.00
2138, 2980.00
2139, 2981.00
2140, 2983.00
2141, 2983.00
2142, 2982.00
2143, 2983.00
2144, 2984.00
2145, 2984.00
2146, 2985.00
2147, 2985.00
2148, 2985.00
2149, 2984.00
2150, 2986.00
