FW version: 24
Log Version: 3.0.3

General Info:
       Command/Macro Performed,            Timestamp,             Device ID, COM Port, UART/I2C, Test Name, Host Major, Host Minor, Host Revision, Host Git Commit
            Single_measurement,  2023_06_29_10_59_04,       Insight2_F4_xxx,    USB-C,      USB,          ,          0,          1,             1,      4031237645

Show Spectrometer Status:
l0_version, f4_version, battery_perc, battery_mVolt, accelerometer_temp, accelerometer_x, accelerometer_y, accelerometer_z, compass_temp, compass_x, compass_y, compass_z, lamp_0, lamp_1, gain_0, gain_1
        17,         24,           94,          2066,               5968,           65460,             232,           18420,            0,     65533,     65535,     65533,   2866,   2866,      1,      1

Temperature Statistic Info:
NTC AVG [°C], NTC2 AVG [°C]
      38.216,        37.925

Statistic Info:
M1:  num,      min,      max,   median,      AVG,      STD,M2:  num,      min,      max,   median,      AVG,      STD
     301,  1704.00,  1986.00,  1761.00,  1796.78,  87.7580,     401,  2282.00,  2456.00,  2352.00,  2357.65,  56.5606,

Measurements:
Wavelength, Data Amplitude
1350, 1757.00
1351, 1756.00
1352, 1756.00
1353, 1754.00
1354, 1754.00
1355, 1752.00
1356, 1752.00
1357, 1751.00
1358, 1750.00
1359, 1749.00
1360, 1748.00
1361, 1747.00
1362, 1745.00
1363, 1743.00
1364, 1742.00
1365, 1741.00
1366, 1739.00
1367, 1739.00
1368, 1737.00
1369, 1735.00
1370, 1734.00
1371, 1733.00
1372, 1730.00
1373, 1729.00
1374, 1729.00
1375, 1727.00
1376, 1725.00
1377, 1723.00
1378, 1723.00
1379, 1722.00
1380, 1721.00
1381, 1721.00
1382, 1719.00
1383, 1718.00
1384, 1717.00
1385, 1716.00
1386, 1715.00
1387, 1714.00
1388, 1714.00
1389, 1713.00
1390, 1713.00
1391, 1713.00
1392, 1712.00
1393, 1712.00
1394, 1710.00
1395, 1711.00
1396, 1709.00
1397, 1710.00
1398, 1709.00
1399, 1709.00
1400, 1709.00
1401, 1707.00
1402, 1707.00
1403, 1708.00
1404, 1707.00
1405, 1707.00
1406, 1707.00
1407, 1708.00
1408, 1707.00
1409, 1706.00
1410, 1706.00
1411, 1706.00
1412, 1707.00
1413, 1706.00
1414, 1704.00
1415, 1704.00
1416, 1704.00
1417, 1705.00
1418, 1705.00
1419, 1705.00
1420, 1704.00
1421, 1704.00
1422, 1706.00
1423, 1705.00
1424, 1706.00
1425, 1706.00
1426, 1705.00
1427, 1705.00
1428, 1705.00
1429, 1706.00
1430, 1705.00
1431, 1706.00
1432, 1707.00
1433, 1708.00
1434, 1707.00
1435, 1707.00
1436, 1708.00
1437, 1708.00
1438, 1708.00
1439, 1709.00
1440, 1709.00
1441, 1710.00
1442, 1710.00
1443, 1709.00
1444, 1711.00
1445, 1712.00
1446, 1713.00
1447, 1711.00
1448, 1713.00
1449, 1713.00
1450, 1715.00
1451, 1714.00
1452, 1715.00
1453, 1715.00
1454, 1716.00
1455, 1718.00
1456, 1718.00
1457, 1719.00
1458, 1719.00
1459, 1719.00
1460, 1720.00
1461, 1721.00
1462, 1721.00
1463, 1723.00
1464, 1723.00
1465, 1724.00
1466, 1725.00
1467, 1727.00
1468, 1727.00
1469, 1727.00
1470, 1730.00
1471, 1730.00
1472, 1729.00
1473, 1731.00
1474, 1733.00
1475, 1734.00
1476, 1734.00
1477, 1735.00
1478, 1736.00
1479, 1736.00
1480, 1738.00
1481, 1739.00
1482, 1741.00
1483, 1741.00
1484, 1742.00
1485, 1744.00
1486, 1745.00
1487, 1747.00
1488, 1747.00
1489, 1748.00
1490, 1749.00
1491, 1751.00
1492, 1752.00
1493, 1753.00
1494, 1754.00
1495, 1756.00
1496, 1756.00
1497, 1757.00
1498, 1759.00
1499, 1761.00
1500, 1761.00
1501, 1762.00
1502, 1762.00
1503, 1763.00
1504, 1767.00
1505, 1767.00
1506, 1769.00
1507, 1769.00
1508, 1770.00
1509, 1771.00
1510, 1771.00
1511, 1774.00
1512, 1775.00
1513, 1776.00
1514, 1778.00
1515, 1780.00
1516, 1780.00
1517, 1781.00
1518, 1785.00
1519, 1785.00
1520, 1785.00
1521, 1789.00
1522, 1788.00
1523, 1790.00
1524, 1792.00
1525, 1793.00
1526, 1793.00
1527, 1794.00
1528, 1797.00
1529, 1798.00
1530, 1800.00
1531, 1800.00
1532, 1802.00
1533, 1805.00
1534, 1806.00
1535, 1807.00
1536, 1809.00
1537, 1810.00
1538, 1812.00
1539, 1813.00
1540, 1814.00
1541, 1816.00
1542, 1817.00
1543, 1818.00
1544, 1820.00
1545, 1821.00
1546, 1823.00
1547, 1825.00
1548, 1826.00
1549, 1826.00
1550, 1828.00
1551, 1829.00
1552, 1832.00
1553, 1834.00
1554, 1835.00
1555, 1837.00
1556, 1837.00
1557, 1839.00
1558, 1841.00
1559, 1842.00
1560, 1844.00
1561, 1846.00
1562, 1848.00
1563, 1849.00
1564, 1850.00
1565, 1851.00
1566, 1854.00
1567, 1855.00
1568, 1858.00
1569, 1858.00
1570, 1861.00
1571, 1863.00
1572, 1863.00
1573, 1866.00
1574, 1868.00
1575, 1869.00
1576, 1870.00
1577, 1871.00
1578, 1872.00
1579, 1874.00
1580, 1876.00
1581, 1877.00
1582, 1879.00
1583, 1881.00
1584, 1882.00
1585, 1883.00
1586, 1884.00
1587, 1886.00
1588, 1887.00
1589, 1889.00
1590, 1890.00
1591, 1893.00
1592, 1893.00
1593, 1895.00
1594, 1896.00
1595, 1897.00
1596, 1899.00
1597, 1901.00
1598, 1902.00
1599, 1904.00
1600, 1905.00
1601, 1906.00
1602, 1907.00
1603, 1910.00
1604, 1911.00
1605, 1913.00
1606, 1914.00
1607, 1916.00
1608, 1917.00
1609, 1919.00
1610, 1920.00
1611, 1923.00
1612, 1925.00
1613, 1926.00
1614, 1929.00
1615, 1930.00
1616, 1931.00
1617, 1934.00
1618, 1935.00
1619, 1937.00
1620, 1939.00
1621, 1941.00
1622, 1942.00
1623, 1944.00
1624, 1947.00
1625, 1948.00
1626, 1950.00
1627, 1951.00
1628, 1953.00
1629, 1954.00
1630, 1957.00
1631, 1958.00
1632, 1960.00
1633, 1961.00
1634, 1963.00
1635, 1965.00
1636, 1966.00
1637, 1968.00
1638, 1969.00
1639, 1970.00
1640, 1970.00
1641, 1973.00
1642, 1975.00
1643, 1976.00
1644, 1978.00
1645, 1980.00
1646, 1981.00
1647, 1982.00
1648, 1984.00
1649, 1986.00
1650, 1986.00

1750, 2456.00
1751, 2456.00
1752, 2455.00
1753, 2454.00
1754, 2453.00
1755, 2455.00
1756, 2454.00
1757, 2454.00
1758, 2455.00
1759, 2454.00
1760, 2456.00
1761, 2453.00
1762, 2454.00
1763, 2453.00
1764, 2453.00
1765, 2453.00
1766, 2454.00
1767, 2452.00
1768, 2452.00
1769, 2453.00
1770, 2452.00
1771, 2453.00
1772, 2450.00
1773, 2449.00
1774, 2449.00
1775, 2450.00
1776, 2450.00
1777, 2447.00
1778, 2447.00
1779, 2445.00
1780, 2448.00
1781, 2448.00
1782, 2445.00
1783, 2445.00
1784, 2444.00
1785, 2446.00
1786, 2443.00
1787, 2444.00
1788, 2444.00
1789, 2441.00
1790, 2442.00
1791, 2441.00
1792, 2440.00
1793, 2439.00
1794, 2438.00
1795, 2439.00
1796, 2439.00
1797, 2438.00
1798, 2434.00
1799, 2435.00
1800, 2436.00
1801, 2434.00
1802, 2437.00
1803, 2434.00
1804, 2433.00
1805, 2434.00
1806, 2431.00
1807, 2431.00
1808, 2432.00
1809, 2431.00
1810, 2431.00
1811, 2427.00
1812, 2429.00
1813, 2428.00
1814, 2428.00
1815, 2428.00
1816, 2427.00
1817, 2425.00
1818, 2425.00
1819, 2424.00
1820, 2424.00
1821, 2420.00
1822, 2421.00
1823, 2420.00
1824, 2417.00
1825, 2418.00
1826, 2413.00
1827, 2413.00
1828, 2412.00
1829, 2410.00
1830, 2408.00
1831, 2406.00
1832, 2402.00
1833, 2403.00
1834, 2401.00
1835, 2398.00
1836, 2398.00
1837, 2394.00
1838, 2393.00
1839, 2390.00
1840, 2386.00
1841, 2384.00
1842, 2383.00
1843, 2378.00
1844, 2376.00
1845, 2375.00
1846, 2370.00
1847, 2369.00
1848, 2368.00
1849, 2363.00
1850, 2360.00
1851, 2359.00
1852, 2354.00
1853, 2353.00
1854, 2350.00
1855, 2347.00
1856, 2345.00
1857, 2341.00
1858, 2339.00
1859, 2336.00
1860, 2333.00
1861, 2331.00
1862, 2331.00
1863, 2329.00
1864, 2329.00
1865, 2324.00
1866, 2322.00
1867, 2320.00
1868, 2317.00
1869, 2316.00
1870, 2315.00
1871, 2315.00
1872, 2312.00
1873, 2312.00
1874, 2310.00
1875, 2307.00
1876, 2306.00
1877, 2306.00
1878, 2304.00
1879, 2305.00
1880, 2303.00
1881, 2303.00
1882, 2302.00
1883, 2299.00
1884, 2300.00
1885, 2299.00
1886, 2296.00
1887, 2297.00
1888, 2295.00
1889, 2294.00
1890, 2294.00
1891, 2293.00
1892, 2293.00
1893, 2293.00
1894, 2293.00
1895, 2293.00
1896, 2293.00
1897, 2292.00
1898, 2292.00
1899, 2290.00
1900, 2290.00
1901, 2289.00
1902, 2290.00
1903, 2287.00
1904, 2288.00
1905, 2287.00
1906, 2288.00
1907, 2288.00
1908, 2286.00
1909, 2286.00
1910, 2285.00
1911, 2287.00
1912, 2285.00
1913, 2287.00
1914, 2284.00
1915, 2285.00
1916, 2287.00
1917, 2286.00
1918, 2286.00
1919, 2285.00
1920, 2286.00
1921, 2282.00
1922, 2283.00
1923, 2284.00
1924, 2284.00
1925, 2285.00
1926, 2284.00
1927, 2286.00
1928, 2283.00
1929, 2284.00
1930, 2287.00
1931, 2285.00
1932, 2285.00
1933, 2285.00
1934, 2285.00
1935, 2284.00
1936, 2283.00
1937, 2285.00
1938, 2286.00
1939, 2283.00
1940, 2286.00
1941, 2285.00
1942, 2285.00
1943, 2286.00
1944, 2286.00
1945, 2286.00
1946, 2288.00
1947, 2287.00
1948, 2288.00
1949, 2287.00
1950, 2286.00
1951, 2289.00
1952, 2289.00
1953, 2288.00
1954, 2288.00
1955, 2290.00
1956, 2289.00
1957, 2289.00
1958, 2292.00
1959, 2289.00
1960, 2290.00
1961, 2291.00
1962, 2293.00
1963, 2293.00
1964, 2295.00
1965, 2294.00
1966, 2294.00
1967, 2295.00
1968, 2295.00
1969, 2295.00
1970, 2297.00
1971, 2297.00
1972, 2298.00
1973, 2298.00
1974, 2299.00
1975, 2301.00
1976, 2300.00
1977, 2300.00
1978, 2301.00
1979, 2302.00
1980, 2303.00
1981, 2304.00
1982, 2302.00
1983, 2305.00
1984, 2304.00
1985, 2306.00
1986, 2307.00
1987, 2307.00
1988, 2308.00
1989, 2309.00
1990, 2306.00
1991, 2309.00
1992, 2309.00
1993, 2310.00
1994, 2309.00
1995, 2310.00
1996, 2311.00
1997, 2312.00
1998, 2311.00
1999, 2312.00
2000, 2312.00
2001, 2314.00
2002, 2314.00
2003, 2316.00
2004, 2316.00
2005, 2317.00
2006, 2317.00
2007, 2317.00
2008, 2318.00
2009, 2320.00
2010, 2321.00
2011, 2320.00
2012, 2323.00
2013, 2322.00
2014, 2322.00
2015, 2323.00
2016, 2323.00
2017, 2324.00
2018, 2326.00
2019, 2325.00
2020, 2327.00
2021, 2327.00
2022, 2327.00
2023, 2327.00
2024, 2329.00
2025, 2330.00
2026, 2329.00
2027, 2332.00
2028, 2331.00
2029, 2330.00
2030, 2333.00
2031, 2333.00
2032, 2333.00
2033, 2336.00
2034, 2337.00
2035, 2336.00
2036, 2337.00
2037, 2340.00
2038, 2338.00
2039, 2336.00
2040, 2340.00
2041, 2340.00
2042, 2341.00
2043, 2341.00
2044, 2343.00
2045, 2344.00
2046, 2345.00
2047, 2346.00
2048, 2347.00
2049, 2348.00
2050, 2348.00
2051, 2349.00
2052, 2349.00
2053, 2352.00
2054, 2351.00
2055, 2353.00
2056, 2354.00
2057, 2357.00
2058, 2356.00
2059, 2356.00
2060, 2358.00
2061, 2360.00
2062, 2359.00
2063, 2360.00
2064, 2363.00
2065, 2362.00
2066, 2362.00
2067, 2364.00
2068, 2365.00
2069, 2367.00
2070, 2367.00
2071, 2369.00
2072, 2369.00
2073, 2370.00
2074, 2370.00
2075, 2372.00
2076, 2372.00
2077, 2373.00
2078, 2374.00
2079, 2375.00
2080, 2376.00
2081, 2379.00
2082, 2377.00
2083, 2379.00
2084, 2379.00
2085, 2380.00
2086, 2381.00
2087, 2383.00
2088, 2383.00
2089, 2382.00
2090, 2383.00
2091, 2385.00
2092, 2387.00
2093, 2385.00
2094, 2387.00
2095, 2386.00
2096, 2387.00
2097, 2388.00
2098, 2389.00
2099, 2387.00
2100, 2390.00
2101, 2391.00
2102, 2391.00
2103, 2391.00
2104, 2391.00
2105, 2392.00
2106, 2394.00
2107, 2395.00
2108, 2393.00
2109, 2395.00
2110, 2394.00
2111, 2397.00
2112, 2397.00
2113, 2397.00
2114, 2398.00
2115, 2398.00
2116, 2400.00
2117, 2400.00
2118, 2401.00
2119, 2400.00
2120, 2400.00
2121, 2399.00
2122, 2401.00
2123, 2401.00
2124, 2403.00
2125, 2403.00
2126, 2403.00
2127, 2403.00
2128, 2404.00
2129, 2404.00
2130, 2404.00
2131, 2407.00
2132, 2406.00
2133, 2408.00
2134, 2406.00
2135, 2408.00
2136, 2407.00
2137, 2407.00
2138, 2409.00
2139, 2407.00
2140, 2406.00
2141, 2409.00
2142, 2409.00
2143, 2409.00
2144, 2410.00
2145, 2410.00
2146, 2411.00
2147, 2409.00
2148, 2411.00
2149, 2411.00
2150, 2411.00
