FW version: 24
Log Version: 3.0.3

General Info:
       Command/Macro Performed,            Timestamp,             Device ID, COM Port, UART/I2C, Test Name, Host Major, Host Minor, Host Revision, Host Git Commit
            Single_measurement,  2023_07_11_11_06_53,       Insight2_F4_xxx,    USB-C,      USB,          ,          0,          1,             1,      4031237645

Show Spectrometer Status:
l0_version, f4_version, battery_perc, battery_mVolt, accelerometer_temp, accelerometer_x, accelerometer_y, accelerometer_z, compass_temp, compass_x, compass_y, compass_z, lamp_0, lamp_1, gain_0, gain_1
        17,         24,           49,          1907,               6656,           65072,            1060,           18700,            0,     65341,     65383,     18783,   3276,   3276,      0,      0

Temperature Statistic Info:
NTC AVG [°C], NTC2 AVG [°C]
      40.499,        40.233

Statistic Info:
M1:  num,      min,      max,   median,      AVG,      STD,M2:  num,      min,      max,   median,      AVG,      STD
     301,   666.00,   767.00,   687.00,   699.09,  31.5234,     401,   873.00,   933.00,   897.00,   899.25,  19.6805,

Measurements:
Wavelength, Data Amplitude
1350, 684.00
1351, 684.00
1352, 684.00
1353, 684.00
1354, 683.00
1355, 682.00
1356, 682.00
1357, 682.00
1358, 681.00
1359, 681.00
1360, 680.00
1361, 680.00
1362, 680.00
1363, 679.00
1364, 678.00
1365, 678.00
1366, 678.00
1367, 677.00
1368, 677.00
1369, 676.00
1370, 676.00
1371, 675.00
1372, 675.00
1373, 674.00
1374, 674.00
1375, 673.00
1376, 673.00
1377, 672.00
1378, 672.00
1379, 672.00
1380, 672.00
1381, 671.00
1382, 671.00
1383, 670.00
1384, 669.00
1385, 669.00
1386, 669.00
1387, 669.00
1388, 669.00
1389, 669.00
1390, 669.00
1391, 669.00
1392, 668.00
1393, 668.00
1394, 668.00
1395, 668.00
1396, 668.00
1397, 668.00
1398, 667.00
1399, 667.00
1400, 667.00
1401, 667.00
1402, 667.00
1403, 667.00
1404, 667.00
1405, 667.00
1406, 666.00
1407, 667.00
1408, 666.00
1409, 666.00
1410, 666.00
1411, 666.00
1412, 666.00
1413, 666.00
1414, 666.00
1415, 666.00
1416, 666.00
1417, 666.00
1418, 666.00
1419, 666.00
1420, 666.00
1421, 666.00
1422, 666.00
1423, 666.00
1424, 666.00
1425, 666.00
1426, 666.00
1427, 666.00
1428, 666.00
1429, 666.00
1430, 666.00
1431, 667.00
1432, 667.00
1433, 667.00
1434, 667.00
1435, 667.00
1436, 667.00
1437, 667.00
1438, 668.00
1439, 667.00
1440, 668.00
1441, 668.00
1442, 668.00
1443, 669.00
1444, 668.00
1445, 669.00
1446, 669.00
1447, 669.00
1448, 669.00
1449, 669.00
1450, 670.00
1451, 670.00
1452, 670.00
1453, 670.00
1454, 670.00
1455, 671.00
1456, 670.00
1457, 671.00
1458, 671.00
1459, 672.00
1460, 672.00
1461, 672.00
1462, 673.00
1463, 672.00
1464, 673.00
1465, 673.00
1466, 673.00
1467, 674.00
1468, 675.00
1469, 674.00
1470, 676.00
1471, 676.00
1472, 676.00
1473, 676.00
1474, 676.00
1475, 676.00
1476, 677.00
1477, 677.00
1478, 677.00
1479, 678.00
1480, 679.00
1481, 679.00
1482, 679.00
1483, 679.00
1484, 680.00
1485, 680.00
1486, 681.00
1487, 681.00
1488, 682.00
1489, 682.00
1490, 683.00
1491, 683.00
1492, 683.00
1493, 684.00
1494, 684.00
1495, 684.00
1496, 685.00
1497, 685.00
1498, 685.00
1499, 686.00
1500, 687.00
1501, 687.00
1502, 688.00
1503, 688.00
1504, 688.00
1505, 689.00
1506, 689.00
1507, 689.00
1508, 690.00
1509, 690.00
1510, 691.00
1511, 691.00
1512, 691.00
1513, 693.00
1514, 693.00
1515, 693.00
1516, 694.00
1517, 694.00
1518, 694.00
1519, 695.00
1520, 696.00
1521, 696.00
1522, 697.00
1523, 697.00
1524, 697.00
1525, 698.00
1526, 698.00
1527, 699.00
1528, 700.00
1529, 700.00
1530, 700.00
1531, 701.00
1532, 701.00
1533, 702.00
1534, 703.00
1535, 703.00
1536, 703.00
1537, 704.00
1538, 705.00
1539, 705.00
1540, 706.00
1541, 706.00
1542, 707.00
1543, 708.00
1544, 707.00
1545, 708.00
1546, 709.00
1547, 709.00
1548, 709.00
1549, 711.00
1550, 711.00
1551, 711.00
1552, 712.00
1553, 713.00
1554, 713.00
1555, 713.00
1556, 714.00
1557, 715.00
1558, 715.00
1559, 717.00
1560, 717.00
1561, 717.00
1562, 717.00
1563, 718.00
1564, 719.00
1565, 719.00
1566, 720.00
1567, 721.00
1568, 721.00
1569, 722.00
1570, 722.00
1571, 723.00
1572, 724.00
1573, 725.00
1574, 724.00
1575, 726.00
1576, 726.00
1577, 726.00
1578, 727.00
1579, 727.00
1580, 728.00
1581, 728.00
1582, 729.00
1583, 729.00
1584, 729.00
1585, 731.00
1586, 731.00
1587, 731.00
1588, 732.00
1589, 732.00
1590, 733.00
1591, 733.00
1592, 734.00
1593, 734.00
1594, 735.00
1595, 735.00
1596, 736.00
1597, 736.00
1598, 737.00
1599, 737.00
1600, 738.00
1601, 738.00
1602, 739.00
1603, 740.00
1604, 740.00
1605, 741.00
1606, 741.00
1607, 742.00
1608, 742.00
1609, 743.00
1610, 744.00
1611, 745.00
1612, 745.00
1613, 745.00
1614, 746.00
1615, 747.00
1616, 747.00
1617, 748.00
1618, 749.00
1619, 749.00
1620, 750.00
1621, 751.00
1622, 751.00
1623, 752.00
1624, 752.00
1625, 753.00
1626, 754.00
1627, 754.00
1628, 755.00
1629, 755.00
1630, 756.00
1631, 757.00
1632, 757.00
1633, 758.00
1634, 758.00
1635, 759.00
1636, 759.00
1637, 761.00
1638, 761.00
1639, 761.00
1640, 762.00
1641, 762.00
1642, 763.00
1643, 763.00
1644, 764.00
1645, 764.00
1646, 764.00
1647, 765.00
1648, 766.00
1649, 766.00
1650, 767.00

1750, 932.00
1751, 933.00
1752, 933.00
1753, 932.00
1754, 932.00
1755, 933.00
1756, 933.00
1757, 932.00
1758, 933.00
1759, 933.00
1760, 933.00
1761, 932.00
1762, 932.00
1763, 932.00
1764, 932.00
1765, 932.00
1766, 932.00
1767, 932.00
1768, 932.00
1769, 932.00
1770, 932.00
1771, 931.00
1772, 931.00
1773, 932.00
1774, 932.00
1775, 931.00
1776, 931.00
1777, 931.00
1778, 931.00
1779, 930.00
1780, 930.00
1781, 930.00
1782, 929.00
1783, 929.00
1784, 929.00
1785, 929.00
1786, 928.00
1787, 929.00
1788, 928.00
1789, 929.00
1790, 927.00
1791, 928.00
1792, 928.00
1793, 927.00
1794, 927.00
1795, 926.00
1796, 926.00
1797, 926.00
1798, 926.00
1799, 925.00
1800, 924.00
1801, 925.00
1802, 925.00
1803, 925.00
1804, 925.00
1805, 925.00
1806, 925.00
1807, 925.00
1808, 924.00
1809, 924.00
1810, 923.00
1811, 924.00
1812, 923.00
1813, 923.00
1814, 923.00
1815, 923.00
1816, 923.00
1817, 922.00
1818, 921.00
1819, 922.00
1820, 921.00
1821, 920.00
1822, 920.00
1823, 919.00
1824, 919.00
1825, 919.00
1826, 917.00
1827, 918.00
1828, 917.00
1829, 917.00
1830, 916.00
1831, 915.00
1832, 915.00
1833, 914.00
1834, 913.00
1835, 912.00
1836, 912.00
1837, 911.00
1838, 910.00
1839, 910.00
1840, 908.00
1841, 908.00
1842, 907.00
1843, 906.00
1844, 905.00
1845, 904.00
1846, 903.00
1847, 902.00
1848, 901.00
1849, 900.00
1850, 899.00
1851, 899.00
1852, 897.00
1853, 897.00
1854, 895.00
1855, 894.00
1856, 894.00
1857, 893.00
1858, 892.00
1859, 891.00
1860, 891.00
1861, 890.00
1862, 889.00
1863, 888.00
1864, 888.00
1865, 886.00
1866, 886.00
1867, 885.00
1868, 885.00
1869, 884.00
1870, 883.00
1871, 883.00
1872, 882.00
1873, 882.00
1874, 882.00
1875, 880.00
1876, 881.00
1877, 881.00
1878, 880.00
1879, 879.00
1880, 879.00
1881, 879.00
1882, 878.00
1883, 879.00
1884, 878.00
1885, 878.00
1886, 878.00
1887, 877.00
1888, 877.00
1889, 878.00
1890, 877.00
1891, 876.00
1892, 877.00
1893, 876.00
1894, 876.00
1895, 876.00
1896, 876.00
1897, 876.00
1898, 875.00
1899, 875.00
1900, 876.00
1901, 875.00
1902, 874.00
1903, 875.00
1904, 875.00
1905, 874.00
1906, 875.00
1907, 875.00
1908, 874.00
1909, 874.00
1910, 874.00
1911, 873.00
1912, 874.00
1913, 874.00
1914, 874.00
1915, 874.00
1916, 874.00
1917, 873.00
1918, 874.00
1919, 873.00
1920, 873.00
1921, 874.00
1922, 874.00
1923, 873.00
1924, 874.00
1925, 873.00
1926, 874.00
1927, 874.00
1928, 873.00
1929, 873.00
1930, 874.00
1931, 874.00
1932, 874.00
1933, 873.00
1934, 874.00
1935, 874.00
1936, 873.00
1937, 873.00
1938, 874.00
1939, 874.00
1940, 874.00
1941, 874.00
1942, 873.00
1943, 875.00
1944, 875.00
1945, 875.00
1946, 874.00
1947, 874.00
1948, 874.00
1949, 874.00
1950, 874.00
1951, 875.00
1952, 875.00
1953, 875.00
1954, 875.00
1955, 876.00
1956, 876.00
1957, 875.00
1958, 876.00
1959, 877.00
1960, 876.00
1961, 876.00
1962, 876.00
1963, 877.00
1964, 878.00
1965, 877.00
1966, 878.00
1967, 878.00
1968, 878.00
1969, 878.00
1970, 878.00
1971, 878.00
1972, 879.00
1973, 879.00
1974, 879.00
1975, 879.00
1976, 879.00
1977, 880.00
1978, 880.00
1979, 880.00
1980, 880.00
1981, 881.00
1982, 881.00
1983, 881.00
1984, 881.00
1985, 881.00
1986, 881.00
1987, 882.00
1988, 882.00
1989, 882.00
1990, 882.00
1991, 883.00
1992, 883.00
1993, 883.00
1994, 883.00
1995, 884.00
1996, 883.00
1997, 883.00
1998, 884.00
1999, 883.00
2000, 885.00
2001, 885.00
2002, 884.00
2003, 885.00
2004, 885.00
2005, 886.00
2006, 886.00
2007, 886.00
2008, 886.00
2009, 887.00
2010, 886.00
2011, 887.00
2012, 888.00
2013, 887.00
2014, 887.00
2015, 887.00
2016, 887.00
2017, 888.00
2018, 888.00
2019, 889.00
2020, 889.00
2021, 889.00
2022, 889.00
2023, 890.00
2024, 889.00
2025, 889.00
2026, 890.00
2027, 890.00
2028, 891.00
2029, 891.00
2030, 891.00
2031, 891.00
2032, 891.00
2033, 891.00
2034, 892.00
2035, 893.00
2036, 893.00
2037, 892.00
2038, 893.00
2039, 894.00
2040, 893.00
2041, 894.00
2042, 894.00
2043, 894.00
2044, 895.00
2045, 895.00
2046, 895.00
2047, 896.00
2048, 897.00
2049, 897.00
2050, 897.00
2051, 897.00
2052, 897.00
2053, 898.00
2054, 898.00
2055, 898.00
2056, 899.00
2057, 899.00
2058, 899.00
2059, 900.00
2060, 900.00
2061, 900.00
2062, 901.00
2063, 900.00
2064, 901.00
2065, 901.00
2066, 902.00
2067, 903.00
2068, 903.00
2069, 903.00
2070, 903.00
2071, 904.00
2072, 904.00
2073, 904.00
2074, 904.00
2075, 905.00
2076, 906.00
2077, 906.00
2078, 906.00
2079, 906.00
2080, 907.00
2081, 907.00
2082, 908.00
2083, 907.00
2084, 908.00
2085, 909.00
2086, 908.00
2087, 909.00
2088, 908.00
2089, 909.00
2090, 909.00
2091, 909.00
2092, 910.00
2093, 910.00
2094, 911.00
2095, 910.00
2096, 911.00
2097, 912.00
2098, 911.00
2099, 911.00
2100, 911.00
2101, 912.00
2102, 911.00
2103, 913.00
2104, 913.00
2105, 913.00
2106, 913.00
2107, 913.00
2108, 912.00
2109, 913.00
2110, 913.00
2111, 914.00
2112, 914.00
2113, 914.00
2114, 914.00
2115, 914.00
2116, 915.00
2117, 915.00
2118, 915.00
2119, 915.00
2120, 915.00
2121, 915.00
2122, 915.00
2123, 915.00
2124, 915.00
2125, 916.00
2126, 916.00
2127, 916.00
2128, 916.00
2129, 916.00
2130, 916.00
2131, 917.00
2132, 917.00
2133, 917.00
2134, 917.00
2135, 917.00
2136, 917.00
2137, 917.00
2138, 918.00
2139, 918.00
2140, 917.00
2141, 917.00
2142, 917.00
2143, 918.00
2144, 918.00
2145, 918.00
2146, 919.00
2147, 918.00
2148, 918.00
2149, 919.00
2150, 919.00
