FW version: 24
Log Version: 3.0.3

General Info:
       Command/Macro Performed,            Timestamp,             Device ID, COM Port, UART/I2C, Test Name, Host Major, Host Minor, Host Revision, Host Git Commit
            Single_measurement,  2023_07_11_11_08_11,       Insight2_F4_xxx,    USB-C,      USB,          ,          0,          1,             1,      4031237645

Show Spectrometer Status:
l0_version, f4_version, battery_perc, battery_mVolt, accelerometer_temp, accelerometer_x, accelerometer_y, accelerometer_z, compass_temp, compass_x, compass_y, compass_z, lamp_0, lamp_1, gain_0, gain_1
        17,         24,           49,          1904,               6688,           65092,            1084,           18724,            0,     65406,     65407,     18807,   3276,   3276,      1,      1

Temperature Statistic Info:
NTC AVG [°C], NTC2 AVG [°C]
      41.117,        40.763

Statistic Info:
M1:  num,      min,      max,   median,      AVG,      STD,M2:  num,      min,      max,   median,      AVG,      STD
     301,  1919.00,  2212.00,  1981.00,  2016.29,  91.2450,     401,  2514.00,  2688.00,  2586.00,  2590.94,  56.6051,

Measurements:
Wavelength, Data Amplitude
1350, 1973.00
1351, 1971.00
1352, 1970.00
1353, 1969.00
1354, 1968.00
1355, 1968.00
1356, 1967.00
1357, 1965.00
1358, 1964.00
1359, 1963.00
1360, 1962.00
1361, 1961.00
1362, 1960.00
1363, 1958.00
1364, 1956.00
1365, 1955.00
1366, 1953.00
1367, 1952.00
1368, 1951.00
1369, 1950.00
1370, 1947.00
1371, 1946.00
1372, 1944.00
1373, 1942.00
1374, 1942.00
1375, 1941.00
1376, 1941.00
1377, 1939.00
1378, 1937.00
1379, 1935.00
1380, 1936.00
1381, 1934.00
1382, 1933.00
1383, 1933.00
1384, 1933.00
1385, 1930.00
1386, 1930.00
1387, 1930.00
1388, 1928.00
1389, 1928.00
1390, 1926.00
1391, 1926.00
1392, 1926.00
1393, 1926.00
1394, 1925.00
1395, 1925.00
1396, 1925.00
1397, 1925.00
1398, 1924.00
1399, 1923.00
1400, 1924.00
1401, 1923.00
1402, 1923.00
1403, 1923.00
1404, 1923.00
1405, 1922.00
1406, 1922.00
1407, 1921.00
1408, 1921.00
1409, 1921.00
1410, 1921.00
1411, 1921.00
1412, 1921.00
1413, 1921.00
1414, 1919.00
1415, 1921.00
1416, 1921.00
1417, 1921.00
1418, 1921.00
1419, 1920.00
1420, 1921.00
1421, 1920.00
1422, 1919.00
1423, 1920.00
1424, 1921.00
1425, 1921.00
1426, 1922.00
1427, 1919.00
1428, 1921.00
1429, 1921.00
1430, 1921.00
1431, 1922.00
1432, 1922.00
1433, 1924.00
1434, 1923.00
1435, 1923.00
1436, 1925.00
1437, 1924.00
1438, 1925.00
1439, 1925.00
1440, 1926.00
1441, 1927.00
1442, 1927.00
1443, 1927.00
1444, 1928.00
1445, 1928.00
1446, 1929.00
1447, 1930.00
1448, 1930.00
1449, 1931.00
1450, 1931.00
1451, 1931.00
1452, 1931.00
1453, 1933.00
1454, 1933.00
1455, 1934.00
1456, 1936.00
1457, 1935.00
1458, 1937.00
1459, 1937.00
1460, 1938.00
1461, 1939.00
1462, 1940.00
1463, 1940.00
1464, 1940.00
1465, 1942.00
1466, 1943.00
1467, 1943.00
1468, 1944.00
1469, 1947.00
1470, 1947.00
1471, 1947.00
1472, 1949.00
1473, 1950.00
1474, 1949.00
1475, 1952.00
1476, 1953.00
1477, 1954.00
1478, 1955.00
1479, 1955.00
1480, 1957.00
1481, 1958.00
1482, 1958.00
1483, 1960.00
1484, 1962.00
1485, 1962.00
1486, 1963.00
1487, 1965.00
1488, 1966.00
1489, 1967.00
1490, 1968.00
1491, 1970.00
1492, 1970.00
1493, 1971.00
1494, 1973.00
1495, 1975.00
1496, 1975.00
1497, 1978.00
1498, 1977.00
1499, 1981.00
1500, 1981.00
1501, 1982.00
1502, 1982.00
1503, 1985.00
1504, 1985.00
1505, 1986.00
1506, 1987.00
1507, 1989.00
1508, 1991.00
1509, 1992.00
1510, 1993.00
1511, 1993.00
1512, 1995.00
1513, 1997.00
1514, 1998.00
1515, 1999.00
1516, 2001.00
1517, 2001.00
1518, 2004.00
1519, 2006.00
1520, 2006.00
1521, 2009.00
1522, 2009.00
1523, 2011.00
1524, 2012.00
1525, 2014.00
1526, 2015.00
1527, 2016.00
1528, 2017.00
1529, 2019.00
1530, 2020.00
1531, 2022.00
1532, 2024.00
1533, 2025.00
1534, 2027.00
1535, 2028.00
1536, 2030.00
1537, 2032.00
1538, 2033.00
1539, 2032.00
1540, 2036.00
1541, 2036.00
1542, 2039.00
1543, 2040.00
1544, 2041.00
1545, 2043.00
1546, 2045.00
1547, 2045.00
1548, 2047.00
1549, 2049.00
1550, 2051.00
1551, 2054.00
1552, 2054.00
1553, 2056.00
1554, 2057.00
1555, 2059.00
1556, 2061.00
1557, 2062.00
1558, 2064.00
1559, 2067.00
1560, 2068.00
1561, 2068.00
1562, 2071.00
1563, 2072.00
1564, 2073.00
1565, 2075.00
1566, 2077.00
1567, 2080.00
1568, 2081.00
1569, 2083.00
1570, 2084.00
1571, 2085.00
1572, 2087.00
1573, 2089.00
1574, 2090.00
1575, 2093.00
1576, 2093.00
1577, 2095.00
1578, 2097.00
1579, 2099.00
1580, 2099.00
1581, 2101.00
1582, 2104.00
1583, 2104.00
1584, 2105.00
1585, 2108.00
1586, 2108.00
1587, 2110.00
1588, 2111.00
1589, 2112.00
1590, 2114.00
1591, 2115.00
1592, 2117.00
1593, 2119.00
1594, 2120.00
1595, 2121.00
1596, 2123.00
1597, 2124.00
1598, 2126.00
1599, 2126.00
1600, 2129.00
1601, 2130.00
1602, 2131.00
1603, 2134.00
1604, 2134.00
1605, 2137.00
1606, 2139.00
1607, 2140.00
1608, 2141.00
1609, 2143.00
1610, 2145.00
1611, 2147.00
1612, 2147.00
1613, 2150.00
1614, 2152.00
1615, 2154.00
1616, 2156.00
1617, 2158.00
1618, 2159.00
1619, 2161.00
1620, 2163.00
1621, 2166.00
1622, 2167.00
1623, 2169.00
1624, 2171.00
1625, 2172.00
1626, 2175.00
1627, 2176.00
1628, 2177.00
1629, 2180.00
1630, 2181.00
1631, 2182.00
1632, 2184.00
1633, 2185.00
1634, 2188.00
1635, 2190.00
1636, 2191.00
1637, 2193.00
1638, 2194.00
1639, 2196.00
1640, 2196.00
1641, 2199.00
1642, 2200.00
1643, 2201.00
1644, 2202.00
1645, 2204.00
1646, 2206.00
1647, 2207.00
1648, 2209.00
1649, 2210.00
1650, 2212.00

1750, 2687.00
1751, 2687.00
1752, 2686.00
1753, 2688.00
1754, 2686.00
1755, 2686.00
1756, 2687.00
1757, 2686.00
1758, 2686.00
1759, 2687.00
1760, 2686.00
1761, 2687.00
1762, 2685.00
1763, 2686.00
1764, 2686.00
1765, 2684.00
1766, 2686.00
1767, 2686.00
1768, 2684.00
1769, 2684.00
1770, 2683.00
1771, 2685.00
1772, 2682.00
1773, 2684.00
1774, 2682.00
1775, 2679.00
1776, 2685.00
1777, 2682.00
1778, 2680.00
1779, 2680.00
1780, 2678.00
1781, 2677.00
1782, 2678.00
1783, 2675.00
1784, 2677.00
1785, 2676.00
1786, 2673.00
1787, 2674.00
1788, 2674.00
1789, 2673.00
1790, 2673.00
1791, 2673.00
1792, 2671.00
1793, 2670.00
1794, 2670.00
1795, 2671.00
1796, 2669.00
1797, 2669.00
1798, 2667.00
1799, 2668.00
1800, 2667.00
1801, 2665.00
1802, 2665.00
1803, 2665.00
1804, 2665.00
1805, 2665.00
1806, 2663.00
1807, 2664.00
1808, 2663.00
1809, 2662.00
1810, 2661.00
1811, 2661.00
1812, 2660.00
1813, 2659.00
1814, 2658.00
1815, 2656.00
1816, 2658.00
1817, 2656.00
1818, 2653.00
1819, 2653.00
1820, 2651.00
1821, 2653.00
1822, 2651.00
1823, 2649.00
1824, 2646.00
1825, 2647.00
1826, 2644.00
1827, 2644.00
1828, 2642.00
1829, 2641.00
1830, 2639.00
1831, 2636.00
1832, 2636.00
1833, 2633.00
1834, 2631.00
1835, 2628.00
1836, 2624.00
1837, 2623.00
1838, 2623.00
1839, 2620.00
1840, 2617.00
1841, 2616.00
1842, 2611.00
1843, 2610.00
1844, 2605.00
1845, 2604.00
1846, 2601.00
1847, 2599.00
1848, 2597.00
1849, 2594.00
1850, 2591.00
1851, 2588.00
1852, 2585.00
1853, 2583.00
1854, 2579.00
1855, 2576.00
1856, 2576.00
1857, 2572.00
1858, 2570.00
1859, 2569.00
1860, 2566.00
1861, 2561.00
1862, 2561.00
1863, 2557.00
1864, 2556.00
1865, 2555.00
1866, 2554.00
1867, 2550.00
1868, 2549.00
1869, 2549.00
1870, 2543.00
1871, 2543.00
1872, 2542.00
1873, 2542.00
1874, 2542.00
1875, 2540.00
1876, 2538.00
1877, 2535.00
1878, 2535.00
1879, 2534.00
1880, 2535.00
1881, 2533.00
1882, 2532.00
1883, 2534.00
1884, 2530.00
1885, 2529.00
1886, 2529.00
1887, 2529.00
1888, 2529.00
1889, 2527.00
1890, 2526.00
1891, 2525.00
1892, 2523.00
1893, 2525.00
1894, 2525.00
1895, 2526.00
1896, 2524.00
1897, 2523.00
1898, 2522.00
1899, 2522.00
1900, 2522.00
1901, 2522.00
1902, 2521.00
1903, 2522.00
1904, 2520.00
1905, 2519.00
1906, 2519.00
1907, 2520.00
1908, 2519.00
1909, 2519.00
1910, 2520.00
1911, 2518.00
1912, 2517.00
1913, 2518.00
1914, 2515.00
1915, 2517.00
1916, 2518.00
1917, 2517.00
1918, 2518.00
1919, 2517.00
1920, 2514.00
1921, 2517.00
1922, 2517.00
1923, 2516.00
1924, 2518.00
1925, 2517.00
1926, 2516.00
1927, 2517.00
1928, 2514.00
1929, 2516.00
1930, 2517.00
1931, 2517.00
1932, 2516.00
1933, 2515.00
1934, 2516.00
1935, 2515.00
1936, 2519.00
1937, 2516.00
1938, 2518.00
1939, 2517.00
1940, 2519.00
1941, 2519.00
1942, 2519.00
1943, 2517.00
1944, 2518.00
1945, 2518.00
1946, 2519.00
1947, 2521.00
1948, 2518.00
1949, 2520.00
1950, 2520.00
1951, 2521.00
1952, 2521.00
1953, 2522.00
1954, 2523.00
1955, 2522.00
1956, 2523.00
1957, 2525.00
1958, 2523.00
1959, 2524.00
1960, 2523.00
1961, 2525.00
1962, 2526.00
1963, 2526.00
1964, 2528.00
1965, 2525.00
1966, 2529.00
1967, 2529.00
1968, 2528.00
1969, 2529.00
1970, 2531.00
1971, 2531.00
1972, 2529.00
1973, 2533.00
1974, 2531.00
1975, 2532.00
1976, 2534.00
1977, 2536.00
1978, 2535.00
1979, 2534.00
1980, 2535.00
1981, 2538.00
1982, 2538.00
1983, 2537.00
1984, 2539.00
1985, 2539.00
1986, 2538.00
1987, 2541.00
1988, 2540.00
1989, 2543.00
1990, 2543.00
1991, 2544.00
1992, 2543.00
1993, 2544.00
1994, 2545.00
1995, 2547.00
1996, 2544.00
1997, 2547.00
1998, 2547.00
1999, 2548.00
2000, 2547.00
2001, 2549.00
2002, 2549.00
2003, 2550.00
2004, 2552.00
2005, 2553.00
2006, 2552.00
2007, 2552.00
2008, 2553.00
2009, 2553.00
2010, 2557.00
2011, 2556.00
2012, 2555.00
2013, 2557.00
2014, 2556.00
2015, 2559.00
2016, 2557.00
2017, 2559.00
2018, 2559.00
2019, 2560.00
2020, 2561.00
2021, 2563.00
2022, 2563.00
2023, 2563.00
2024, 2562.00
2025, 2562.00
2026, 2564.00
2027, 2565.00
2028, 2565.00
2029, 2569.00
2030, 2567.00
2031, 2569.00
2032, 2568.00
2033, 2573.00
2034, 2570.00
2035, 2572.00
2036, 2572.00
2037, 2573.00
2038, 2573.00
2039, 2576.00
2040, 2574.00
2041, 2577.00
2042, 2577.00
2043, 2576.00
2044, 2576.00
2045, 2579.00
2046, 2581.00
2047, 2581.00
2048, 2583.00
2049, 2583.00
2050, 2582.00
2051, 2585.00
2052, 2587.00
2053, 2586.00
2054, 2588.00
2055, 2587.00
2056, 2590.00
2057, 2590.00
2058, 2591.00
2059, 2593.00
2060, 2593.00
2061, 2595.00
2062, 2594.00
2063, 2597.00
2064, 2599.00
2065, 2601.00
2066, 2599.00
2067, 2600.00
2068, 2603.00
2069, 2604.00
2070, 2603.00
2071, 2603.00
2072, 2607.00
2073, 2606.00
2074, 2605.00
2075, 2607.00
2076, 2611.00
2077, 2609.00
2078, 2610.00
2079, 2612.00
2080, 2613.00
2081, 2612.00
2082, 2613.00
2083, 2618.00
2084, 2616.00
2085, 2617.00
2086, 2616.00
2087, 2617.00
2088, 2618.00
2089, 2618.00
2090, 2619.00
2091, 2621.00
2092, 2621.00
2093, 2623.00
2094, 2623.00
2095, 2624.00
2096, 2622.00
2097, 2625.00
2098, 2626.00
2099, 2627.00
2100, 2629.00
2101, 2628.00
2102, 2626.00
2103, 2630.00
2104, 2630.00
2105, 2631.00
2106, 2628.00
2107, 2630.00
2108, 2631.00
2109, 2632.00
2110, 2632.00
2111, 2632.00
2112, 2633.00
2113, 2634.00
2114, 2635.00
2115, 2636.00
2116, 2635.00
2117, 2636.00
2118, 2637.00
2119, 2635.00
2120, 2636.00
2121, 2638.00
2122, 2640.00
2123, 2636.00
2124, 2639.00
2125, 2638.00
2126, 2639.00
2127, 2640.00
2128, 2640.00
2129, 2639.00
2130, 2640.00
2131, 2641.00
2132, 2641.00
2133, 2642.00
2134, 2643.00
2135, 2642.00
2136, 2644.00
2137, 2643.00
2138, 2642.00
2139, 2642.00
2140, 2643.00
2141, 2644.00
2142, 2645.00
2143, 2645.00
2144, 2645.00
2145, 2644.00
2146, 2646.00
2147, 2646.00
2148, 2648.00
2149, 2648.00
2150, 2648.00
