FW version: 24
Log Version: 3.0.3

General Info:
       Command/Macro Performed,            Timestamp,             Device ID, COM Port, UART/I2C, Test Name, Host Major, Host Minor, Host Revision, Host Git Commit
            Single_measurement,  2023_07_11_11_07_04,       Insight2_F4_xxx,    USB-C,      USB,          ,          0,          1,             1,      4031237645

Show Spectrometer Status:
l0_version, f4_version, battery_perc, battery_mVolt, accelerometer_temp, accelerometer_x, accelerometer_y, accelerometer_z, compass_temp, compass_x, compass_y, compass_z, lamp_0, lamp_1, gain_0, gain_1
        17,         24,           49,          1909,               6672,           65132,            1060,           18724,            0,     65407,     65390,     18815,   2047,   2047,      1,      1

Temperature Statistic Info:
NTC AVG [°C], NTC2 AVG [°C]
      40.558,        40.263

Statistic Info:
M1:  num,      min,      max,   median,      AVG,      STD,M2:  num,      min,      max,   median,      AVG,      STD
     301,   767.00,   896.00,   796.00,   811.01,  40.9635,     401,  1141.00,  1221.00,  1177.00,  1178.54,  26.5002,

Measurements:
Wavelength, Data Amplitude
1350, 786.00
1351, 786.00
1352, 785.00
1353, 785.00
1354, 784.00
1355, 785.00
1356, 785.00
1357, 783.00
1358, 784.00
1359, 783.00
1360, 782.00
1361, 781.00
1362, 782.00
1363, 781.00
1364, 780.00
1365, 780.00
1366, 779.00
1367, 779.00
1368, 778.00
1369, 777.00
1370, 778.00
1371, 777.00
1372, 776.00
1373, 775.00
1374, 776.00
1375, 775.00
1376, 775.00
1377, 774.00
1378, 774.00
1379, 773.00
1380, 773.00
1381, 773.00
1382, 772.00
1383, 772.00
1384, 772.00
1385, 772.00
1386, 771.00
1387, 770.00
1388, 771.00
1389, 770.00
1390, 770.00
1391, 769.00
1392, 770.00
1393, 770.00
1394, 769.00
1395, 769.00
1396, 769.00
1397, 769.00
1398, 768.00
1399, 769.00
1400, 769.00
1401, 768.00
1402, 768.00
1403, 767.00
1404, 768.00
1405, 769.00
1406, 769.00
1407, 769.00
1408, 768.00
1409, 768.00
1410, 767.00
1411, 768.00
1412, 769.00
1413, 767.00
1414, 768.00
1415, 768.00
1416, 768.00
1417, 768.00
1418, 767.00
1419, 768.00
1420, 768.00
1421, 768.00
1422, 768.00
1423, 769.00
1424, 769.00
1425, 769.00
1426, 768.00
1427, 769.00
1428, 768.00
1429, 769.00
1430, 769.00
1431, 769.00
1432, 769.00
1433, 769.00
1434, 770.00
1435, 769.00
1436, 771.00
1437, 771.00
1438, 771.00
1439, 771.00
1440, 771.00
1441, 770.00
1442, 772.00
1443, 772.00
1444, 772.00
1445, 771.00
1446, 772.00
1447, 773.00
1448, 772.00
1449, 773.00
1450, 773.00
1451, 774.00
1452, 774.00
1453, 774.00
1454, 774.00
1455, 775.00
1456, 775.00
1457, 776.00
1458, 776.00
1459, 776.00
1460, 776.00
1461, 778.00
1462, 777.00
1463, 778.00
1464, 778.00
1465, 778.00
1466, 779.00
1467, 779.00
1468, 780.00
1469, 780.00
1470, 780.00
1471, 781.00
1472, 782.00
1473, 782.00
1474, 782.00
1475, 783.00
1476, 782.00
1477, 784.00
1478, 784.00
1479, 784.00
1480, 786.00
1481, 787.00
1482, 786.00
1483, 788.00
1484, 788.00
1485, 788.00
1486, 789.00
1487, 789.00
1488, 789.00
1489, 791.00
1490, 790.00
1491, 791.00
1492, 791.00
1493, 792.00
1494, 793.00
1495, 793.00
1496, 794.00
1497, 795.00
1498, 795.00
1499, 796.00
1500, 795.00
1501, 797.00
1502, 797.00
1503, 798.00
1504, 799.00
1505, 800.00
1506, 800.00
1507, 800.00
1508, 801.00
1509, 801.00
1510, 802.00
1511, 803.00
1512, 803.00
1513, 803.00
1514, 804.00
1515, 805.00
1516, 806.00
1517, 807.00
1518, 807.00
1519, 807.00
1520, 808.00
1521, 809.00
1522, 809.00
1523, 810.00
1524, 811.00
1525, 812.00
1526, 812.00
1527, 812.00
1528, 814.00
1529, 815.00
1530, 815.00
1531, 815.00
1532, 816.00
1533, 817.00
1534, 817.00
1535, 818.00
1536, 819.00
1537, 819.00
1538, 821.00
1539, 821.00
1540, 822.00
1541, 821.00
1542, 823.00
1543, 823.00
1544, 824.00
1545, 825.00
1546, 825.00
1547, 827.00
1548, 827.00
1549, 828.00
1550, 828.00
1551, 829.00
1552, 830.00
1553, 831.00
1554, 830.00
1555, 831.00
1556, 833.00
1557, 833.00
1558, 834.00
1559, 835.00
1560, 835.00
1561, 836.00
1562, 837.00
1563, 836.00
1564, 838.00
1565, 838.00
1566, 839.00
1567, 840.00
1568, 841.00
1569, 842.00
1570, 842.00
1571, 842.00
1572, 842.00
1573, 844.00
1574, 845.00
1575, 845.00
1576, 846.00
1577, 847.00
1578, 847.00
1579, 848.00
1580, 849.00
1581, 850.00
1582, 850.00
1583, 852.00
1584, 852.00
1585, 852.00
1586, 852.00
1587, 853.00
1588, 853.00
1589, 855.00
1590, 855.00
1591, 855.00
1592, 856.00
1593, 857.00
1594, 857.00
1595, 859.00
1596, 859.00
1597, 860.00
1598, 860.00
1599, 861.00
1600, 862.00
1601, 861.00
1602, 863.00
1603, 862.00
1604, 864.00
1605, 865.00
1606, 866.00
1607, 867.00
1608, 866.00
1609, 868.00
1610, 869.00
1611, 870.00
1612, 870.00
1613, 871.00
1614, 872.00
1615, 873.00
1616, 873.00
1617, 875.00
1618, 874.00
1619, 876.00
1620, 877.00
1621, 878.00
1622, 878.00
1623, 878.00
1624, 881.00
1625, 881.00
1626, 881.00
1627, 882.00
1628, 883.00
1629, 883.00
1630, 885.00
1631, 885.00
1632, 885.00
1633, 887.00
1634, 887.00
1635, 888.00
1636, 889.00
1637, 888.00
1638, 889.00
1639, 890.00
1640, 891.00
1641, 891.00
1642, 891.00
1643, 892.00
1644, 893.00
1645, 893.00
1646, 894.00
1647, 895.00
1648, 895.00
1649, 895.00
1650, 896.00

1750, 1220.00
1751, 1220.00
1752, 1219.00
1753, 1219.00
1754, 1221.00
1755, 1220.00
1756, 1220.00
1757, 1220.00
1758, 1219.00
1759, 1219.00
1760, 1221.00
1761, 1220.00
1762, 1219.00
1763, 1220.00
1764, 1219.00
1765, 1221.00
1766, 1217.00
1767, 1219.00
1768, 1220.00
1769, 1219.00
1770, 1220.00
1771, 1218.00
1772, 1217.00
1773, 1218.00
1774, 1218.00
1775, 1216.00
1776, 1220.00
1777, 1218.00
1778, 1217.00
1779, 1216.00
1780, 1217.00
1781, 1216.00
1782, 1216.00
1783, 1216.00
1784, 1217.00
1785, 1215.00
1786, 1215.00
1787, 1215.00
1788, 1215.00
1789, 1214.00
1790, 1215.00
1791, 1213.00
1792, 1213.00
1793, 1214.00
1794, 1214.00
1795, 1214.00
1796, 1211.00
1797, 1212.00
1798, 1213.00
1799, 1212.00
1800, 1213.00
1801, 1209.00
1802, 1211.00
1803, 1212.00
1804, 1211.00
1805, 1211.00
1806, 1210.00
1807, 1210.00
1808, 1210.00
1809, 1209.00
1810, 1208.00
1811, 1210.00
1812, 1211.00
1813, 1208.00
1814, 1208.00
1815, 1207.00
1816, 1207.00
1817, 1207.00
1818, 1204.00
1819, 1206.00
1820, 1208.00
1821, 1205.00
1822, 1205.00
1823, 1204.00
1824, 1205.00
1825, 1203.00
1826, 1201.00
1827, 1201.00
1828, 1200.00
1829, 1201.00
1830, 1198.00
1831, 1199.00
1832, 1197.00
1833, 1197.00
1834, 1196.00
1835, 1195.00
1836, 1194.00
1837, 1192.00
1838, 1193.00
1839, 1189.00
1840, 1191.00
1841, 1189.00
1842, 1189.00
1843, 1187.00
1844, 1184.00
1845, 1182.00
1846, 1184.00
1847, 1181.00
1848, 1181.00
1849, 1178.00
1850, 1178.00
1851, 1178.00
1852, 1175.00
1853, 1174.00
1854, 1170.00
1855, 1171.00
1856, 1170.00
1857, 1169.00
1858, 1166.00
1859, 1168.00
1860, 1165.00
1861, 1165.00
1862, 1163.00
1863, 1161.00
1864, 1160.00
1865, 1161.00
1866, 1159.00
1867, 1158.00
1868, 1159.00
1869, 1158.00
1870, 1155.00
1871, 1156.00
1872, 1154.00
1873, 1155.00
1874, 1154.00
1875, 1153.00
1876, 1153.00
1877, 1152.00
1878, 1151.00
1879, 1153.00
1880, 1152.00
1881, 1150.00
1882, 1149.00
1883, 1149.00
1884, 1150.00
1885, 1147.00
1886, 1148.00
1887, 1148.00
1888, 1147.00
1889, 1148.00
1890, 1149.00
1891, 1148.00
1892, 1147.00
1893, 1147.00
1894, 1145.00
1895, 1146.00
1896, 1147.00
1897, 1146.00
1898, 1146.00
1899, 1147.00
1900, 1144.00
1901, 1145.00
1902, 1145.00
1903, 1145.00
1904, 1146.00
1905, 1144.00
1906, 1142.00
1907, 1144.00
1908, 1145.00
1909, 1145.00
1910, 1144.00
1911, 1143.00
1912, 1143.00
1913, 1144.00
1914, 1144.00
1915, 1143.00
1916, 1143.00
1917, 1142.00
1918, 1143.00
1919, 1145.00
1920, 1142.00
1921, 1143.00
1922, 1144.00
1923, 1144.00
1924, 1142.00
1925, 1142.00
1926, 1144.00
1927, 1143.00
1928, 1144.00
1929, 1143.00
1930, 1142.00
1931, 1142.00
1932, 1143.00
1933, 1143.00
1934, 1143.00
1935, 1144.00
1936, 1141.00
1937, 1144.00
1938, 1144.00
1939, 1143.00
1940, 1144.00
1941, 1145.00
1942, 1142.00
1943, 1143.00
1944, 1145.00
1945, 1143.00
1946, 1143.00
1947, 1144.00
1948, 1145.00
1949, 1145.00
1950, 1144.00
1951, 1144.00
1952, 1147.00
1953, 1146.00
1954, 1146.00
1955, 1145.00
1956, 1146.00
1957, 1146.00
1958, 1148.00
1959, 1148.00
1960, 1147.00
1961, 1147.00
1962, 1147.00
1963, 1148.00
1964, 1148.00
1965, 1149.00
1966, 1149.00
1967, 1147.00
1968, 1151.00
1969, 1150.00
1970, 1150.00
1971, 1148.00
1972, 1149.00
1973, 1151.00
1974, 1151.00
1975, 1151.00
1976, 1151.00
1977, 1152.00
1978, 1153.00
1979, 1152.00
1980, 1153.00
1981, 1152.00
1982, 1156.00
1983, 1154.00
1984, 1154.00
1985, 1153.00
1986, 1156.00
1987, 1154.00
1988, 1155.00
1989, 1154.00
1990, 1157.00
1991, 1156.00
1992, 1158.00
1993, 1157.00
1994, 1157.00
1995, 1158.00
1996, 1158.00
1997, 1158.00
1998, 1160.00
1999, 1158.00
2000, 1156.00
2001, 1158.00
2002, 1159.00
2003, 1161.00
2004, 1161.00
2005, 1162.00
2006, 1161.00
2007, 1161.00
2008, 1160.00
2009, 1161.00
2010, 1161.00
2011, 1163.00
2012, 1162.00
2013, 1162.00
2014, 1164.00
2015, 1163.00
2016, 1165.00
2017, 1164.00
2018, 1164.00
2019, 1163.00
2020, 1165.00
2021, 1164.00
2022, 1166.00
2023, 1165.00
2024, 1166.00
2025, 1168.00
2026, 1166.00
2027, 1165.00
2028, 1168.00
2029, 1168.00
2030, 1168.00
2031, 1169.00
2032, 1169.00
2033, 1170.00
2034, 1170.00
2035, 1171.00
2036, 1169.00
2037, 1173.00
2038, 1172.00
2039, 1171.00
2040, 1173.00
2041, 1173.00
2042, 1172.00
2043, 1173.00
2044, 1173.00
2045, 1174.00
2046, 1176.00
2047, 1174.00
2048, 1175.00
2049, 1176.00
2050, 1177.00
2051, 1177.00
2052, 1177.00
2053, 1177.00
2054, 1178.00
2055, 1180.00
2056, 1178.00
2057, 1180.00
2058, 1181.00
2059, 1180.00
2060, 1180.00
2061, 1181.00
2062, 1183.00
2063, 1184.00
2064, 1185.00
2065, 1183.00
2066, 1184.00
2067, 1184.00
2068, 1185.00
2069, 1184.00
2070, 1186.00
2071, 1186.00
2072, 1187.00
2073, 1186.00
2074, 1189.00
2075, 1189.00
2076, 1189.00
2077, 1191.00
2078, 1190.00
2079, 1192.00
2080, 1193.00
2081, 1192.00
2082, 1193.00
2083, 1193.00
2084, 1191.00
2085, 1193.00
2086, 1194.00
2087, 1194.00
2088, 1194.00
2089, 1195.00
2090, 1195.00
2091, 1195.00
2092, 1197.00
2093, 1197.00
2094, 1198.00
2095, 1197.00
2096, 1198.00
2097, 1197.00
2098, 1200.00
2099, 1198.00
2100, 1200.00
2101, 1199.00
2102, 1199.00
2103, 1198.00
2104, 1201.00
2105, 1201.00
2106, 1201.00
2107, 1200.00
2108, 1199.00
2109, 1201.00
2110, 1202.00
2111, 1201.00
2112, 1201.00
2113, 1202.00
2114, 1200.00
2115, 1201.00
2116, 1203.00
2117, 1203.00
2118, 1203.00
2119, 1201.00
2120, 1204.00
2121, 1204.00
2122, 1203.00
2123, 1205.00
2124, 1206.00
2125, 1206.00
2126, 1203.00
2127, 1205.00
2128, 1206.00
2129, 1207.00
2130, 1203.00
2131, 1208.00
2132, 1205.00
2133, 1206.00
2134, 1207.00
2135, 1206.00
2136, 1207.00
2137, 1207.00
2138, 1208.00
2139, 1206.00
2140, 1208.00
2141, 1208.00
2142, 1208.00
2143, 1208.00
2144, 1207.00
2145, 1207.00
2146, 1207.00
2147, 1210.00
2148, 1209.00
2149, 1209.00
2150, 1210.00
