FW version: 24
Log Version: 3.0.3

General Info:
       Command/Macro Performed,            Timestamp,             Device ID, COM Port, UART/I2C, Test Name, Host Major, Host Minor, Host Revision, Host Git Commit
            Single_measurement,  2023_07_11_11_08_03,       Insight2_F4_xxx,    USB-C,      USB,          ,          0,          1,             1,      4031237645

Show Spectrometer Status:
l0_version, f4_version, battery_perc, battery_mVolt, accelerometer_temp, accelerometer_x, accelerometer_y, accelerometer_z, compass_temp, compass_x, compass_y, compass_z, lamp_0, lamp_1, gain_0, gain_1
        17,         24,           49,          1904,               6704,           65120,            1096,           18732,            0,     65398,     65356,     18813,   3276,   3276,      1,      1

Temperature Statistic Info:
NTC AVG [°C], NTC2 AVG [°C]
      41.057,        40.646

Statistic Info:
M1:  num,      min,      max,   median,      AVG,      STD,M2:  num,      min,      max,   median,      AVG,      STD
     301,  1921.00,  2214.00,  1982.00,  2017.85,  91.3130,     401,  2517.00,  2689.00,  2588.00,  2592.27,  56.7280,

Measurements:
Wavelength, Data Amplitude
1350, 1974.00
1351, 1974.00
1352, 1972.00
1353, 1971.00
1354, 1970.00
1355, 1969.00
1356, 1969.00
1357, 1967.00
1358, 1965.00
1359, 1964.00
1360, 1964.00
1361, 1962.00
1362, 1961.00
1363, 1959.00
1364, 1957.00
1365, 1957.00
1366, 1954.00
1367, 1955.00
1368, 1953.00
1369, 1950.00
1370, 1949.00
1371, 1947.00
1372, 1946.00
1373, 1946.00
1374, 1944.00
1375, 1943.00
1376, 1942.00
1377, 1940.00
1378, 1939.00
1379, 1938.00
1380, 1937.00
1381, 1936.00
1382, 1935.00
1383, 1933.00
1384, 1933.00
1385, 1932.00
1386, 1932.00
1387, 1931.00
1388, 1930.00
1389, 1930.00
1390, 1929.00
1391, 1929.00
1392, 1927.00
1393, 1928.00
1394, 1927.00
1395, 1927.00
1396, 1926.00
1397, 1926.00
1398, 1925.00
1399, 1924.00
1400, 1925.00
1401, 1925.00
1402, 1924.00
1403, 1925.00
1404, 1924.00
1405, 1924.00
1406, 1924.00
1407, 1923.00
1408, 1923.00
1409, 1923.00
1410, 1922.00
1411, 1923.00
1412, 1922.00
1413, 1923.00
1414, 1921.00
1415, 1922.00
1416, 1921.00
1417, 1922.00
1418, 1921.00
1419, 1921.00
1420, 1922.00
1421, 1923.00
1422, 1921.00
1423, 1922.00
1424, 1922.00
1425, 1922.00
1426, 1922.00
1427, 1921.00
1428, 1923.00
1429, 1923.00
1430, 1924.00
1431, 1924.00
1432, 1924.00
1433, 1924.00
1434, 1924.00
1435, 1926.00
1436, 1926.00
1437, 1927.00
1438, 1927.00
1439, 1926.00
1440, 1927.00
1441, 1927.00
1442, 1928.00
1443, 1928.00
1444, 1929.00
1445, 1930.00
1446, 1930.00
1447, 1931.00
1448, 1931.00
1449, 1932.00
1450, 1932.00
1451, 1933.00
1452, 1933.00
1453, 1935.00
1454, 1936.00
1455, 1937.00
1456, 1936.00
1457, 1937.00
1458, 1938.00
1459, 1939.00
1460, 1940.00
1461, 1941.00
1462, 1941.00
1463, 1942.00
1464, 1943.00
1465, 1943.00
1466, 1944.00
1467, 1943.00
1468, 1945.00
1469, 1947.00
1470, 1948.00
1471, 1949.00
1472, 1950.00
1473, 1951.00
1474, 1953.00
1475, 1953.00
1476, 1955.00
1477, 1955.00
1478, 1956.00
1479, 1956.00
1480, 1959.00
1481, 1960.00
1482, 1961.00
1483, 1961.00
1484, 1963.00
1485, 1963.00
1486, 1966.00
1487, 1966.00
1488, 1968.00
1489, 1968.00
1490, 1969.00
1491, 1971.00
1492, 1972.00
1493, 1974.00
1494, 1975.00
1495, 1976.00
1496, 1977.00
1497, 1977.00
1498, 1980.00
1499, 1981.00
1500, 1982.00
1501, 1983.00
1502, 1984.00
1503, 1986.00
1504, 1987.00
1505, 1988.00
1506, 1989.00
1507, 1991.00
1508, 1991.00
1509, 1993.00
1510, 1994.00
1511, 1995.00
1512, 1996.00
1513, 1998.00
1514, 1999.00
1515, 2000.00
1516, 2002.00
1517, 2004.00
1518, 2005.00
1519, 2007.00
1520, 2007.00
1521, 2009.00
1522, 2010.00
1523, 2012.00
1524, 2014.00
1525, 2014.00
1526, 2015.00
1527, 2017.00
1528, 2020.00
1529, 2021.00
1530, 2022.00
1531, 2023.00
1532, 2025.00
1533, 2027.00
1534, 2029.00
1535, 2030.00
1536, 2031.00
1537, 2033.00
1538, 2034.00
1539, 2035.00
1540, 2037.00
1541, 2039.00
1542, 2038.00
1543, 2042.00
1544, 2044.00
1545, 2044.00
1546, 2047.00
1547, 2047.00
1548, 2050.00
1549, 2051.00
1550, 2053.00
1551, 2054.00
1552, 2056.00
1553, 2057.00
1554, 2059.00
1555, 2060.00
1556, 2062.00
1557, 2065.00
1558, 2066.00
1559, 2067.00
1560, 2069.00
1561, 2071.00
1562, 2072.00
1563, 2073.00
1564, 2075.00
1565, 2077.00
1566, 2079.00
1567, 2081.00
1568, 2083.00
1569, 2085.00
1570, 2086.00
1571, 2089.00
1572, 2089.00
1573, 2090.00
1574, 2091.00
1575, 2094.00
1576, 2095.00
1577, 2098.00
1578, 2099.00
1579, 2100.00
1580, 2101.00
1581, 2102.00
1582, 2103.00
1583, 2106.00
1584, 2108.00
1585, 2108.00
1586, 2110.00
1587, 2111.00
1588, 2113.00
1589, 2113.00
1590, 2115.00
1591, 2117.00
1592, 2119.00
1593, 2120.00
1594, 2121.00
1595, 2122.00
1596, 2124.00
1597, 2126.00
1598, 2129.00
1599, 2129.00
1600, 2131.00
1601, 2132.00
1602, 2135.00
1603, 2134.00
1604, 2137.00
1605, 2139.00
1606, 2140.00
1607, 2141.00
1608, 2143.00
1609, 2145.00
1610, 2147.00
1611, 2148.00
1612, 2150.00
1613, 2152.00
1614, 2154.00
1615, 2156.00
1616, 2157.00
1617, 2159.00
1618, 2162.00
1619, 2163.00
1620, 2165.00
1621, 2166.00
1622, 2169.00
1623, 2170.00
1624, 2172.00
1625, 2174.00
1626, 2175.00
1627, 2177.00
1628, 2179.00
1629, 2181.00
1630, 2183.00
1631, 2185.00
1632, 2186.00
1633, 2188.00
1634, 2189.00
1635, 2192.00
1636, 2193.00
1637, 2194.00
1638, 2197.00
1639, 2198.00
1640, 2198.00
1641, 2200.00
1642, 2201.00
1643, 2203.00
1644, 2203.00
1645, 2207.00
1646, 2207.00
1647, 2208.00
1648, 2210.00
1649, 2212.00
1650, 2214.00

1750, 2687.00
1751, 2688.00
1752, 2687.00
1753, 2688.00
1754, 2687.00
1755, 2689.00
1756, 2689.00
1757, 2687.00
1758, 2688.00
1759, 2689.00
1760, 2687.00
1761, 2688.00
1762, 2687.00
1763, 2686.00
1764, 2687.00
1765, 2687.00
1766, 2687.00
1767, 2685.00
1768, 2688.00
1769, 2687.00
1770, 2687.00
1771, 2687.00
1772, 2686.00
1773, 2685.00
1774, 2682.00
1775, 2683.00
1776, 2682.00
1777, 2681.00
1778, 2681.00
1779, 2681.00
1780, 2679.00
1781, 2679.00
1782, 2680.00
1783, 2678.00
1784, 2679.00
1785, 2677.00
1786, 2677.00
1787, 2676.00
1788, 2674.00
1789, 2677.00
1790, 2676.00
1791, 2673.00
1792, 2671.00
1793, 2671.00
1794, 2671.00
1795, 2671.00
1796, 2671.00
1797, 2671.00
1798, 2670.00
1799, 2669.00
1800, 2669.00
1801, 2667.00
1802, 2667.00
1803, 2668.00
1804, 2666.00
1805, 2666.00
1806, 2665.00
1807, 2666.00
1808, 2663.00
1809, 2663.00
1810, 2664.00
1811, 2663.00
1812, 2661.00
1813, 2660.00
1814, 2661.00
1815, 2659.00
1816, 2657.00
1817, 2659.00
1818, 2655.00
1819, 2655.00
1820, 2656.00
1821, 2655.00
1822, 2654.00
1823, 2650.00
1824, 2649.00
1825, 2647.00
1826, 2647.00
1827, 2644.00
1828, 2644.00
1829, 2640.00
1830, 2640.00
1831, 2638.00
1832, 2635.00
1833, 2633.00
1834, 2632.00
1835, 2630.00
1836, 2628.00
1837, 2625.00
1838, 2622.00
1839, 2621.00
1840, 2617.00
1841, 2616.00
1842, 2614.00
1843, 2612.00
1844, 2609.00
1845, 2605.00
1846, 2605.00
1847, 2600.00
1848, 2597.00
1849, 2594.00
1850, 2589.00
1851, 2590.00
1852, 2587.00
1853, 2585.00
1854, 2581.00
1855, 2578.00
1856, 2575.00
1857, 2576.00
1858, 2570.00
1859, 2570.00
1860, 2568.00
1861, 2565.00
1862, 2563.00
1863, 2561.00
1864, 2558.00
1865, 2556.00
1866, 2555.00
1867, 2553.00
1868, 2549.00
1869, 2549.00
1870, 2546.00
1871, 2546.00
1872, 2544.00
1873, 2541.00
1874, 2543.00
1875, 2539.00
1876, 2538.00
1877, 2534.00
1878, 2536.00
1879, 2535.00
1880, 2534.00
1881, 2536.00
1882, 2534.00
1883, 2529.00
1884, 2531.00
1885, 2530.00
1886, 2528.00
1887, 2528.00
1888, 2528.00
1889, 2527.00
1890, 2527.00
1891, 2527.00
1892, 2525.00
1893, 2526.00
1894, 2524.00
1895, 2526.00
1896, 2524.00
1897, 2523.00
1898, 2523.00
1899, 2522.00
1900, 2522.00
1901, 2522.00
1902, 2521.00
1903, 2523.00
1904, 2521.00
1905, 2523.00
1906, 2521.00
1907, 2517.00
1908, 2520.00
1909, 2520.00
1910, 2519.00
1911, 2521.00
1912, 2519.00
1913, 2518.00
1914, 2520.00
1915, 2520.00
1916, 2519.00
1917, 2518.00
1918, 2518.00
1919, 2518.00
1920, 2519.00
1921, 2518.00
1922, 2519.00
1923, 2517.00
1924, 2518.00
1925, 2517.00
1926, 2518.00
1927, 2517.00
1928, 2518.00
1929, 2518.00
1930, 2519.00
1931, 2517.00
1932, 2520.00
1933, 2519.00
1934, 2520.00
1935, 2519.00
1936, 2521.00
1937, 2519.00
1938, 2520.00
1939, 2519.00
1940, 2518.00
1941, 2519.00
1942, 2522.00
1943, 2520.00
1944, 2520.00
1945, 2520.00
1946, 2520.00
1947, 2521.00
1948, 2521.00
1949, 2521.00
1950, 2523.00
1951, 2522.00
1952, 2525.00
1953, 2522.00
1954, 2523.00
1955, 2523.00
1956, 2524.00
1957, 2524.00
1958, 2523.00
1959, 2526.00
1960, 2526.00
1961, 2529.00
1962, 2527.00
1963, 2528.00
1964, 2528.00
1965, 2529.00
1966, 2530.00
1967, 2531.00
1968, 2530.00
1969, 2531.00
1970, 2529.00
1971, 2533.00
1972, 2533.00
1973, 2531.00
1974, 2534.00
1975, 2535.00
1976, 2535.00
1977, 2535.00
1978, 2535.00
1979, 2536.00
1980, 2537.00
1981, 2538.00
1982, 2538.00
1983, 2539.00
1984, 2541.00
1985, 2540.00
1986, 2543.00
1987, 2541.00
1988, 2543.00
1989, 2544.00
1990, 2543.00
1991, 2542.00
1992, 2545.00
1993, 2545.00
1994, 2545.00
1995, 2545.00
1996, 2546.00
1997, 2549.00
1998, 2547.00
1999, 2549.00
2000, 2547.00
2001, 2552.00
2002, 2550.00
2003, 2550.00
2004, 2552.00
2005, 2553.00
2006, 2554.00
2007, 2552.00
2008, 2554.00
2009, 2555.00
2010, 2555.00
2011, 2556.00
2012, 2556.00
2013, 2558.00
2014, 2557.00
2015, 2560.00
2016, 2558.00
2017, 2561.00
2018, 2562.00
2019, 2561.00
2020, 2561.00
2021, 2562.00
2022, 2562.00
2023, 2563.00
2024, 2565.00
2025, 2566.00
2026, 2567.00
2027, 2565.00
2028, 2566.00
2029, 2569.00
2030, 2569.00
2031, 2569.00
2032, 2571.00
2033, 2571.00
2034, 2572.00
2035, 2574.00
2036, 2573.00
2037, 2573.00
2038, 2575.00
2039, 2575.00
2040, 2577.00
2041, 2577.00
2042, 2578.00
2043, 2577.00
2044, 2580.00
2045, 2582.00
2046, 2582.00
2047, 2581.00
2048, 2584.00
2049, 2585.00
2050, 2585.00
2051, 2589.00
2052, 2586.00
2053, 2588.00
2054, 2589.00
2055, 2590.00
2056, 2593.00
2057, 2592.00
2058, 2594.00
2059, 2593.00
2060, 2595.00
2061, 2597.00
2062, 2597.00
2063, 2598.00
2064, 2599.00
2065, 2599.00
2066, 2599.00
2067, 2603.00
2068, 2604.00
2069, 2605.00
2070, 2604.00
2071, 2605.00
2072, 2609.00
2073, 2608.00
2074, 2608.00
2075, 2609.00
2076, 2609.00
2077, 2611.00
2078, 2612.00
2079, 2612.00
2080, 2613.00
2081, 2614.00
2082, 2614.00
2083, 2615.00
2084, 2617.00
2085, 2617.00
2086, 2620.00
2087, 2621.00
2088, 2621.00
2089, 2622.00
2090, 2622.00
2091, 2623.00
2092, 2622.00
2093, 2625.00
2094, 2626.00
2095, 2626.00
2096, 2624.00
2097, 2630.00
2098, 2629.00
2099, 2627.00
2100, 2626.00
2101, 2628.00
2102, 2631.00
2103, 2630.00
2104, 2630.00
2105, 2629.00
2106, 2629.00
2107, 2633.00
2108, 2632.00
2109, 2633.00
2110, 2635.00
2111, 2632.00
2112, 2633.00
2113, 2635.00
2114, 2637.00
2115, 2635.00
2116, 2636.00
2117, 2635.00
2118, 2637.00
2119, 2637.00
2120, 2639.00
2121, 2639.00
2122, 2641.00
2123, 2639.00
2124, 2638.00
2125, 2641.00
2126, 2639.00
2127, 2640.00
2128, 2641.00
2129, 2640.00
2130, 2640.00
2131, 2642.00
2132, 2641.00
2133, 2645.00
2134, 2645.00
2135, 2642.00
2136, 2646.00
2137, 2646.00
2138, 2643.00
2139, 2646.00
2140, 2647.00
2141, 2645.00
2142, 2646.00
2143, 2647.00
2144, 2646.00
2145, 2649.00
2146, 2648.00
2147, 2647.00
2148, 2647.00
2149, 2649.00
2150, 2647.00
