FW version: 24
Log Version: 3.0.3

General Info:
       Command/Macro Performed,            Timestamp,             Device ID, COM Port, UART/I2C, Test Name, Host Major, Host Minor, Host Revision, Host Git Commit
            Single_measurement,  2023_07_11_11_07_43,       Insight2_F4_xxx,    USB-C,      USB,          ,          0,          1,             1,      4031237645

Show Spectrometer Status:
l0_version, f4_version, battery_perc, battery_mVolt, accelerometer_temp, accelerometer_x, accelerometer_y, accelerometer_z, compass_temp, compass_x, compass_y, compass_z, lamp_0, lamp_1, gain_0, gain_1
        17,         24,           49,          1904,               6672,           65120,            1068,           18744,            0,     65399,     65391,     18809,   2866,   2866,      1,      1

Temperature Statistic Info:
NTC AVG [°C], NTC2 AVG [°C]
      40.851,        40.529

Statistic Info:
M1:  num,      min,      max,   median,      AVG,      STD,M2:  num,      min,      max,   median,      AVG,      STD
     301,  1495.00,  1732.00,  1545.00,  1573.35,  73.3197,     401,  2028.00,  2168.00,  2087.00,  2090.82,  46.2619,

Measurements:
Wavelength, Data Amplitude
1350, 1537.00
1351, 1535.00
1352, 1534.00
1353, 1534.00
1354, 1533.00
1355, 1532.00
1356, 1533.00
1357, 1532.00
1358, 1530.00
1359, 1529.00
1360, 1527.00
1361, 1527.00
1362, 1526.00
1363, 1525.00
1364, 1524.00
1365, 1522.00
1366, 1521.00
1367, 1521.00
1368, 1519.00
1369, 1518.00
1370, 1517.00
1371, 1516.00
1372, 1516.00
1373, 1513.00
1374, 1513.00
1375, 1512.00
1376, 1512.00
1377, 1511.00
1378, 1508.00
1379, 1509.00
1380, 1508.00
1381, 1507.00
1382, 1506.00
1383, 1505.00
1384, 1504.00
1385, 1504.00
1386, 1504.00
1387, 1503.00
1388, 1503.00
1389, 1503.00
1390, 1503.00
1391, 1502.00
1392, 1500.00
1393, 1501.00
1394, 1501.00
1395, 1499.00
1396, 1500.00
1397, 1500.00
1398, 1499.00
1399, 1498.00
1400, 1499.00
1401, 1499.00
1402, 1499.00
1403, 1497.00
1404, 1498.00
1405, 1498.00
1406, 1497.00
1407, 1498.00
1408, 1496.00
1409, 1497.00
1410, 1498.00
1411, 1497.00
1412, 1497.00
1413, 1497.00
1414, 1497.00
1415, 1498.00
1416, 1497.00
1417, 1497.00
1418, 1496.00
1419, 1496.00
1420, 1497.00
1421, 1495.00
1422, 1497.00
1423, 1496.00
1424, 1496.00
1425, 1496.00
1426, 1497.00
1427, 1497.00
1428, 1497.00
1429, 1498.00
1430, 1497.00
1431, 1500.00
1432, 1499.00
1433, 1499.00
1434, 1499.00
1435, 1499.00
1436, 1498.00
1437, 1500.00
1438, 1499.00
1439, 1500.00
1440, 1501.00
1441, 1501.00
1442, 1502.00
1443, 1502.00
1444, 1503.00
1445, 1502.00
1446, 1503.00
1447, 1503.00
1448, 1504.00
1449, 1504.00
1450, 1505.00
1451, 1505.00
1452, 1505.00
1453, 1506.00
1454, 1507.00
1455, 1508.00
1456, 1507.00
1457, 1508.00
1458, 1510.00
1459, 1509.00
1460, 1510.00
1461, 1511.00
1462, 1512.00
1463, 1512.00
1464, 1514.00
1465, 1514.00
1466, 1515.00
1467, 1515.00
1468, 1516.00
1469, 1516.00
1470, 1518.00
1471, 1518.00
1472, 1519.00
1473, 1520.00
1474, 1521.00
1475, 1522.00
1476, 1523.00
1477, 1523.00
1478, 1525.00
1479, 1526.00
1480, 1526.00
1481, 1526.00
1482, 1529.00
1483, 1529.00
1484, 1530.00
1485, 1530.00
1486, 1532.00
1487, 1531.00
1488, 1533.00
1489, 1535.00
1490, 1536.00
1491, 1537.00
1492, 1537.00
1493, 1538.00
1494, 1539.00
1495, 1541.00
1496, 1541.00
1497, 1542.00
1498, 1543.00
1499, 1544.00
1500, 1545.00
1501, 1545.00
1502, 1547.00
1503, 1547.00
1504, 1550.00
1505, 1550.00
1506, 1551.00
1507, 1553.00
1508, 1552.00
1509, 1555.00
1510, 1556.00
1511, 1555.00
1512, 1557.00
1513, 1557.00
1514, 1559.00
1515, 1560.00
1516, 1561.00
1517, 1562.00
1518, 1565.00
1519, 1564.00
1520, 1566.00
1521, 1568.00
1522, 1568.00
1523, 1570.00
1524, 1571.00
1525, 1571.00
1526, 1573.00
1527, 1575.00
1528, 1576.00
1529, 1576.00
1530, 1578.00
1531, 1578.00
1532, 1579.00
1533, 1580.00
1534, 1582.00
1535, 1583.00
1536, 1584.00
1537, 1586.00
1538, 1587.00
1539, 1589.00
1540, 1589.00
1541, 1591.00
1542, 1592.00
1543, 1593.00
1544, 1595.00
1545, 1596.00
1546, 1598.00
1547, 1598.00
1548, 1599.00
1549, 1600.00
1550, 1601.00
1551, 1603.00
1552, 1605.00
1553, 1605.00
1554, 1606.00
1555, 1608.00
1556, 1608.00
1557, 1610.00
1558, 1612.00
1559, 1612.00
1560, 1614.00
1561, 1615.00
1562, 1617.00
1563, 1617.00
1564, 1620.00
1565, 1621.00
1566, 1622.00
1567, 1624.00
1568, 1625.00
1569, 1626.00
1570, 1628.00
1571, 1628.00
1572, 1630.00
1573, 1631.00
1574, 1633.00
1575, 1634.00
1576, 1635.00
1577, 1636.00
1578, 1638.00
1579, 1639.00
1580, 1641.00
1581, 1641.00
1582, 1641.00
1583, 1643.00
1584, 1645.00
1585, 1645.00
1586, 1648.00
1587, 1647.00
1588, 1650.00
1589, 1651.00
1590, 1652.00
1591, 1653.00
1592, 1655.00
1593, 1654.00
1594, 1656.00
1595, 1657.00
1596, 1658.00
1597, 1660.00
1598, 1661.00
1599, 1663.00
1600, 1663.00
1601, 1664.00
1602, 1666.00
1603, 1667.00
1604, 1668.00
1605, 1669.00
1606, 1671.00
1607, 1672.00
1608, 1673.00
1609, 1676.00
1610, 1676.00
1611, 1678.00
1612, 1680.00
1613, 1681.00
1614, 1683.00
1615, 1684.00
1616, 1685.00
1617, 1687.00
1618, 1689.00
1619, 1689.00
1620, 1691.00
1621, 1693.00
1622, 1694.00
1623, 1696.00
1624, 1696.00
1625, 1698.00
1626, 1700.00
1627, 1701.00
1628, 1703.00
1629, 1704.00
1630, 1706.00
1631, 1708.00
1632, 1707.00
1633, 1710.00
1634, 1711.00
1635, 1713.00
1636, 1714.00
1637, 1714.00
1638, 1717.00
1639, 1718.00
1640, 1719.00
1641, 1721.00
1642, 1721.00
1643, 1722.00
1644, 1724.00
1645, 1725.00
1646, 1725.00
1647, 1728.00
1648, 1728.00
1649, 1730.00
1650, 1732.00

1750, 2166.00
1751, 2167.00
1752, 2167.00
1753, 2166.00
1754, 2165.00
1755, 2168.00
1756, 2168.00
1757, 2168.00
1758, 2167.00
1759, 2167.00
1760, 2167.00
1761, 2166.00
1762, 2167.00
1763, 2166.00
1764, 2166.00
1765, 2166.00
1766, 2166.00
1767, 2165.00
1768, 2166.00
1769, 2165.00
1770, 2164.00
1771, 2165.00
1772, 2165.00
1773, 2165.00
1774, 2163.00
1775, 2164.00
1776, 2165.00
1777, 2164.00
1778, 2163.00
1779, 2161.00
1780, 2161.00
1781, 2161.00
1782, 2161.00
1783, 2161.00
1784, 2159.00
1785, 2160.00
1786, 2156.00
1787, 2158.00
1788, 2158.00
1789, 2157.00
1790, 2157.00
1791, 2158.00
1792, 2155.00
1793, 2154.00
1794, 2155.00
1795, 2152.00
1796, 2153.00
1797, 2152.00
1798, 2152.00
1799, 2152.00
1800, 2152.00
1801, 2153.00
1802, 2150.00
1803, 2150.00
1804, 2150.00
1805, 2150.00
1806, 2149.00
1807, 2150.00
1808, 2149.00
1809, 2148.00
1810, 2147.00
1811, 2146.00
1812, 2146.00
1813, 2144.00
1814, 2145.00
1815, 2145.00
1816, 2144.00
1817, 2144.00
1818, 2142.00
1819, 2141.00
1820, 2140.00
1821, 2138.00
1822, 2138.00
1823, 2137.00
1824, 2138.00
1825, 2136.00
1826, 2135.00
1827, 2135.00
1828, 2133.00
1829, 2130.00
1830, 2129.00
1831, 2128.00
1832, 2127.00
1833, 2124.00
1834, 2122.00
1835, 2123.00
1836, 2118.00
1837, 2116.00
1838, 2117.00
1839, 2114.00
1840, 2112.00
1841, 2110.00
1842, 2109.00
1843, 2105.00
1844, 2103.00
1845, 2101.00
1846, 2098.00
1847, 2096.00
1848, 2095.00
1849, 2093.00
1850, 2091.00
1851, 2087.00
1852, 2085.00
1853, 2085.00
1854, 2081.00
1855, 2077.00
1856, 2077.00
1857, 2077.00
1858, 2072.00
1859, 2071.00
1860, 2069.00
1861, 2067.00
1862, 2067.00
1863, 2064.00
1864, 2063.00
1865, 2061.00
1866, 2060.00
1867, 2060.00
1868, 2056.00
1869, 2055.00
1870, 2055.00
1871, 2050.00
1872, 2049.00
1873, 2048.00
1874, 2049.00
1875, 2047.00
1876, 2048.00
1877, 2046.00
1878, 2045.00
1879, 2044.00
1880, 2045.00
1881, 2041.00
1882, 2040.00
1883, 2041.00
1884, 2040.00
1885, 2041.00
1886, 2039.00
1887, 2039.00
1888, 2037.00
1889, 2038.00
1890, 2038.00
1891, 2038.00
1892, 2037.00
1893, 2036.00
1894, 2035.00
1895, 2035.00
1896, 2035.00
1897, 2034.00
1898, 2035.00
1899, 2033.00
1900, 2034.00
1901, 2033.00
1902, 2034.00
1903, 2033.00
1904, 2032.00
1905, 2032.00
1906, 2030.00
1907, 2031.00
1908, 2030.00
1909, 2030.00
1910, 2032.00
1911, 2031.00
1912, 2032.00
1913, 2031.00
1914, 2030.00
1915, 2031.00
1916, 2030.00
1917, 2030.00
1918, 2029.00
1919, 2030.00
1920, 2029.00
1921, 2028.00
1922, 2028.00
1923, 2031.00
1924, 2029.00
1925, 2031.00
1926, 2031.00
1927, 2029.00
1928, 2030.00
1929, 2029.00
1930, 2030.00
1931, 2030.00
1932, 2031.00
1933, 2029.00
1934, 2030.00
1935, 2030.00
1936, 2029.00
1937, 2030.00
1938, 2032.00
1939, 2031.00
1940, 2030.00
1941, 2031.00
1942, 2031.00
1943, 2031.00
1944, 2031.00
1945, 2033.00
1946, 2032.00
1947, 2034.00
1948, 2032.00
1949, 2033.00
1950, 2032.00
1951, 2031.00
1952, 2034.00
1953, 2033.00
1954, 2034.00
1955, 2034.00
1956, 2035.00
1957, 2036.00
1958, 2037.00
1959, 2038.00
1960, 2037.00
1961, 2035.00
1962, 2038.00
1963, 2037.00
1964, 2038.00
1965, 2039.00
1966, 2038.00
1967, 2039.00
1968, 2040.00
1969, 2041.00
1970, 2042.00
1971, 2042.00
1972, 2043.00
1973, 2043.00
1974, 2042.00
1975, 2044.00
1976, 2043.00
1977, 2043.00
1978, 2045.00
1979, 2046.00
1980, 2046.00
1981, 2045.00
1982, 2047.00
1983, 2047.00
1984, 2047.00
1985, 2047.00
1986, 2048.00
1987, 2049.00
1988, 2050.00
1989, 2052.00
1990, 2052.00
1991, 2051.00
1992, 2052.00
1993, 2050.00
1994, 2052.00
1995, 2053.00
1996, 2053.00
1997, 2054.00
1998, 2055.00
1999, 2055.00
2000, 2057.00
2001, 2055.00
2002, 2058.00
2003, 2059.00
2004, 2059.00
2005, 2061.00
2006, 2060.00
2007, 2059.00
2008, 2059.00
2009, 2060.00
2010, 2060.00
2011, 2062.00
2012, 2064.00
2013, 2062.00
2014, 2063.00
2015, 2062.00
2016, 2065.00
2017, 2066.00
2018, 2064.00
2019, 2066.00
2020, 2069.00
2021, 2067.00
2022, 2067.00
2023, 2069.00
2024, 2070.00
2025, 2069.00
2026, 2071.00
2027, 2071.00
2028, 2072.00
2029, 2071.00
2030, 2073.00
2031, 2073.00
2032, 2075.00
2033, 2074.00
2034, 2077.00
2035, 2073.00
2036, 2076.00
2037, 2076.00
2038, 2076.00
2039, 2078.00
2040, 2078.00
2041, 2079.00
2042, 2079.00
2043, 2080.00
2044, 2081.00
2045, 2082.00
2046, 2082.00
2047, 2084.00
2048, 2084.00
2049, 2085.00
2050, 2086.00
2051, 2089.00
2052, 2086.00
2053, 2089.00
2054, 2088.00
2055, 2090.00
2056, 2091.00
2057, 2093.00
2058, 2093.00
2059, 2092.00
2060, 2094.00
2061, 2095.00
2062, 2095.00
2063, 2097.00
2064, 2097.00
2065, 2099.00
2066, 2099.00
2067, 2100.00
2068, 2099.00
2069, 2101.00
2070, 2103.00
2071, 2103.00
2072, 2104.00
2073, 2104.00
2074, 2105.00
2075, 2105.00
2076, 2106.00
2077, 2108.00
2078, 2108.00
2079, 2108.00
2080, 2108.00
2081, 2111.00
2082, 2109.00
2083, 2112.00
2084, 2112.00
2085, 2112.00
2086, 2114.00
2087, 2115.00
2088, 2115.00
2089, 2116.00
2090, 2115.00
2091, 2116.00
2092, 2118.00
2093, 2118.00
2094, 2121.00
2095, 2119.00
2096, 2119.00
2097, 2119.00
2098, 2119.00
2099, 2122.00
2100, 2119.00
2101, 2123.00
2102, 2123.00
2103, 2123.00
2104, 2124.00
2105, 2125.00
2106, 2124.00
2107, 2127.00
2108, 2126.00
2109, 2125.00
2110, 2127.00
2111, 2126.00
2112, 2127.00
2113, 2127.00
2114, 2128.00
2115, 2128.00
2116, 2128.00
2117, 2128.00
2118, 2128.00
2119, 2128.00
2120, 2130.00
2121, 2132.00
2122, 2129.00
2123, 2130.00
2124, 2130.00
2125, 2132.00
2126, 2133.00
2127, 2132.00
2128, 2132.00
2129, 2133.00
2130, 2131.00
2131, 2133.00
2132, 2136.00
2133, 2136.00
2134, 2134.00
2135, 2135.00
2136, 2136.00
2137, 2136.00
2138, 2136.00
2139, 2137.00
2140, 2135.00
2141, 2137.00
2142, 2137.00
2143, 2136.00
2144, 2139.00
2145, 2137.00
2146, 2138.00
2147, 2139.00
2148, 2139.00
2149, 2138.00
2150, 2138.00
