FW version: 24
Log Version: 3.0.3

General Info:
       Command/Macro Performed,            Timestamp,             Device ID, COM Port, UART/I2C, Test Name, Host Major, Host Minor, Host Revision, Host Git Commit
            Single_measurement,  2023_06_27_11_06_50,       Insight2_F4_xxx,    USB-C,      USB,          ,          0,          1,             1,      4031237645

Show Spectrometer Status:
l0_version, f4_version, battery_perc, battery_mVolt, accelerometer_temp, accelerometer_x, accelerometer_y, accelerometer_z, compass_temp, compass_x, compass_y, compass_z, lamp_0, lamp_1, gain_0, gain_1
        17,         24,           95,          2074,               5520,           65388,              96,           18488,            0,     65404,     65403,     65403,   3276,   3276,    1,    1

Temperature Statistic Info:
NTC AVG [°C], NTC2 AVG [°C]
      37.439,        37.150

Statistic Info:
M1:  num,      min,      max,   median,      AVG,      STD,M2:  num,      min,      max,   median,      AVG,      STD
     301,  1721.00,  1971.00,  1773.00,  1803.44,  77.5002,     401,  2284.00,  2429.00,  2342.00,  2346.45,  46.8902,

Measurements:
Wavelength, Data Amplitude
1350, 1766.00
1351, 1766.00
1352, 1765.00
1353, 1764.00
1354, 1763.00
1355, 1762.00
1356, 1762.00
1357, 1760.00
1358, 1759.00
1359, 1758.00
1360, 1758.00
1361, 1756.00
1362, 1756.00
1363, 1755.00
1364, 1753.00
1365, 1753.00
1366, 1752.00
1367, 1751.00
1368, 1750.00
1369, 1747.00
1370, 1748.00
1371, 1745.00
1372, 1745.00
1373, 1743.00
1374, 1743.00
1375, 1741.00
1376, 1740.00
1377, 1739.00
1378, 1738.00
1379, 1736.00
1380, 1735.00
1381, 1735.00
1382, 1734.00
1383, 1732.00
1384, 1731.00
1385, 1731.00
1386, 1730.00
1387, 1730.00
1388, 1729.00
1389, 1731.00
1390, 1729.00
1391, 1728.00
1392, 1728.00
1393, 1727.00
1394, 1726.00
1395, 1727.00
1396, 1725.00
1397, 1725.00
1398, 1725.00
1399, 1725.00
1400, 1725.00
1401, 1725.00
1402, 1724.00
1403, 1722.00
1404, 1725.00
1405, 1723.00
1406, 1723.00
1407, 1723.00
1408, 1722.00
1409, 1722.00
1410, 1723.00
1411, 1723.00
1412, 1723.00
1413, 1723.00
1414, 1722.00
1415, 1723.00
1416, 1722.00
1417, 1722.00
1418, 1721.00
1419, 1721.00
1420, 1722.00
1421, 1721.00
1422, 1722.00
1423, 1722.00
1424, 1722.00
1425, 1723.00
1426, 1723.00
1427, 1722.00
1428, 1724.00
1429, 1723.00
1430, 1723.00
1431, 1723.00
1432, 1725.00
1433, 1723.00
1434, 1725.00
1435, 1723.00
1436, 1725.00
1437, 1724.00
1438, 1725.00
1439, 1726.00
1440, 1726.00
1441, 1727.00
1442, 1727.00
1443, 1727.00
1444, 1727.00
1445, 1729.00
1446, 1729.00
1447, 1730.00
1448, 1729.00
1449, 1731.00
1450, 1731.00
1451, 1731.00
1452, 1732.00
1453, 1733.00
1454, 1733.00
1455, 1734.00
1456, 1732.00
1457, 1734.00
1458, 1735.00
1459, 1736.00
1460, 1736.00
1461, 1737.00
1462, 1739.00
1463, 1738.00
1464, 1740.00
1465, 1740.00
1466, 1741.00
1467, 1742.00
1468, 1742.00
1469, 1743.00
1470, 1743.00
1471, 1745.00
1472, 1745.00
1473, 1747.00
1474, 1746.00
1475, 1748.00
1476, 1748.00
1477, 1749.00
1478, 1751.00
1479, 1751.00
1480, 1753.00
1481, 1753.00
1482, 1755.00
1483, 1755.00
1484, 1757.00
1485, 1758.00
1486, 1759.00
1487, 1760.00
1488, 1760.00
1489, 1761.00
1490, 1763.00
1491, 1764.00
1492, 1765.00
1493, 1766.00
1494, 1766.00
1495, 1767.00
1496, 1769.00
1497, 1769.00
1498, 1771.00
1499, 1773.00
1500, 1772.00
1501, 1774.00
1502, 1775.00
1503, 1775.00
1504, 1777.00
1505, 1778.00
1506, 1780.00
1507, 1781.00
1508, 1781.00
1509, 1782.00
1510, 1783.00
1511, 1785.00
1512, 1786.00
1513, 1788.00
1514, 1788.00
1515, 1789.00
1516, 1790.00
1517, 1792.00
1518, 1794.00
1519, 1794.00
1520, 1796.00
1521, 1796.00
1522, 1797.00
1523, 1798.00
1524, 1800.00
1525, 1802.00
1526, 1802.00
1527, 1804.00
1528, 1805.00
1529, 1806.00
1530, 1808.00
1531, 1809.00
1532, 1808.00
1533, 1810.00
1534, 1812.00
1535, 1813.00
1536, 1815.00
1537, 1816.00
1538, 1818.00
1539, 1819.00
1540, 1819.00
1541, 1821.00
1542, 1821.00
1543, 1823.00
1544, 1824.00
1545, 1825.00
1546, 1827.00
1547, 1828.00
1548, 1829.00
1549, 1831.00
1550, 1831.00
1551, 1834.00
1552, 1835.00
1553, 1836.00
1554, 1837.00
1555, 1839.00
1556, 1840.00
1557, 1841.00
1558, 1843.00
1559, 1844.00
1560, 1845.00
1561, 1847.00
1562, 1849.00
1563, 1849.00
1564, 1851.00
1565, 1853.00
1566, 1854.00
1567, 1855.00
1568, 1856.00
1569, 1858.00
1570, 1859.00
1571, 1861.00
1572, 1863.00
1573, 1864.00
1574, 1866.00
1575, 1867.00
1576, 1868.00
1577, 1871.00
1578, 1871.00
1579, 1872.00
1580, 1874.00
1581, 1875.00
1582, 1876.00
1583, 1877.00
1584, 1878.00
1585, 1881.00
1586, 1881.00
1587, 1882.00
1588, 1883.00
1589, 1885.00
1590, 1885.00
1591, 1887.00
1592, 1889.00
1593, 1889.00
1594, 1891.00
1595, 1893.00
1596, 1894.00
1597, 1895.00
1598, 1896.00
1599, 1898.00
1600, 1899.00
1601, 1900.00
1602, 1902.00
1603, 1902.00
1604, 1904.00
1605, 1905.00
1606, 1907.00
1607, 1908.00
1608, 1910.00
1609, 1911.00
1610, 1913.00
1611, 1914.00
1612, 1915.00
1613, 1918.00
1614, 1919.00
1615, 1921.00
1616, 1922.00
1617, 1924.00
1618, 1925.00
1619, 1927.00
1620, 1928.00
1621, 1931.00
1622, 1932.00
1623, 1933.00
1624, 1935.00
1625, 1937.00
1626, 1938.00
1627, 1940.00
1628, 1940.00
1629, 1943.00
1630, 1944.00
1631, 1946.00
1632, 1948.00
1633, 1947.00
1634, 1951.00
1635, 1951.00
1636, 1952.00
1637, 1953.00
1638, 1955.00
1639, 1956.00
1640, 1958.00
1641, 1959.00
1642, 1960.00
1643, 1961.00
1644, 1963.00
1645, 1964.00
1646, 1966.00
1647, 1967.00
1648, 1968.00
1649, 1969.00
1650, 1971.00

1750, 2426.00
1751, 2428.00
1752, 2427.00
1753, 2429.00
1754, 2426.00
1755, 2427.00
1756, 2427.00
1757, 2427.00
1758, 2428.00
1759, 2428.00
1760, 2428.00
1761, 2425.00
1762, 2426.00
1763, 2426.00
1764, 2427.00
1765, 2427.00
1766, 2426.00
1767, 2426.00
1768, 2426.00
1769, 2425.00
1770, 2425.00
1771, 2425.00
1772, 2424.00
1773, 2424.00
1774, 2423.00
1775, 2423.00
1776, 2423.00
1777, 2424.00
1778, 2421.00
1779, 2420.00
1780, 2422.00
1781, 2418.00
1782, 2419.00
1783, 2418.00
1784, 2420.00
1785, 2418.00
1786, 2419.00
1787, 2417.00
1788, 2417.00
1789, 2417.00
1790, 2415.00
1791, 2415.00
1792, 2415.00
1793, 2413.00
1794, 2415.00
1795, 2413.00
1796, 2412.00
1797, 2412.00
1798, 2412.00
1799, 2411.00
1800, 2411.00
1801, 2409.00
1802, 2409.00
1803, 2409.00
1804, 2408.00
1805, 2407.00
1806, 2407.00
1807, 2408.00
1808, 2407.00
1809, 2405.00
1810, 2405.00
1811, 2405.00
1812, 2404.00
1813, 2405.00
1814, 2403.00
1815, 2401.00
1816, 2402.00
1817, 2403.00
1818, 2399.00
1819, 2400.00
1820, 2399.00
1821, 2400.00
1822, 2400.00
1823, 2396.00
1824, 2395.00
1825, 2395.00
1826, 2392.00
1827, 2393.00
1828, 2391.00
1829, 2389.00
1830, 2387.00
1831, 2387.00
1832, 2385.00
1833, 2383.00
1834, 2383.00
1835, 2382.00
1836, 2380.00
1837, 2377.00
1838, 2375.00
1839, 2373.00
1840, 2370.00
1841, 2370.00
1842, 2367.00
1843, 2365.00
1844, 2363.00
1845, 2361.00
1846, 2359.00
1847, 2357.00
1848, 2355.00
1849, 2352.00
1850, 2350.00
1851, 2347.00
1852, 2344.00
1853, 2342.00
1854, 2341.00
1855, 2339.00
1856, 2335.00
1857, 2336.00
1858, 2331.00
1859, 2330.00
1860, 2328.00
1861, 2325.00
1862, 2324.00
1863, 2324.00
1864, 2321.00
1865, 2318.00
1866, 2317.00
1867, 2314.00
1868, 2313.00
1869, 2311.00
1870, 2311.00
1871, 2309.00
1872, 2308.00
1873, 2307.00
1874, 2306.00
1875, 2307.00
1876, 2304.00
1877, 2304.00
1878, 2303.00
1879, 2300.00
1880, 2300.00
1881, 2300.00
1882, 2299.00
1883, 2298.00
1884, 2297.00
1885, 2297.00
1886, 2298.00
1887, 2295.00
1888, 2295.00
1889, 2294.00
1890, 2294.00
1891, 2296.00
1892, 2293.00
1893, 2292.00
1894, 2292.00
1895, 2291.00
1896, 2291.00
1897, 2291.00
1898, 2292.00
1899, 2291.00
1900, 2290.00
1901, 2290.00
1902, 2289.00
1903, 2289.00
1904, 2289.00
1905, 2288.00
1906, 2290.00
1907, 2289.00
1908, 2288.00
1909, 2287.00
1910, 2287.00
1911, 2287.00
1912, 2287.00
1913, 2288.00
1914, 2287.00
1915, 2285.00
1916, 2287.00
1917, 2286.00
1918, 2286.00
1919, 2287.00
1920, 2286.00
1921, 2286.00
1922, 2285.00
1923, 2284.00
1924, 2285.00
1925, 2285.00
1926, 2284.00
1927, 2285.00
1928, 2286.00
1929, 2286.00
1930, 2287.00
1931, 2286.00
1932, 2286.00
1933, 2285.00
1934, 2286.00
1935, 2286.00
1936, 2285.00
1937, 2285.00
1938, 2286.00
1939, 2285.00
1940, 2287.00
1941, 2287.00
1942, 2287.00
1943, 2287.00
1944, 2286.00
1945, 2286.00
1946, 2289.00
1947, 2287.00
1948, 2287.00
1949, 2289.00
1950, 2288.00
1951, 2289.00
1952, 2288.00
1953, 2289.00
1954, 2291.00
1955, 2289.00
1956, 2292.00
1957, 2290.00
1958, 2290.00
1959, 2291.00
1960, 2290.00
1961, 2291.00
1962, 2294.00
1963, 2291.00
1964, 2293.00
1965, 2293.00
1966, 2294.00
1967, 2294.00
1968, 2293.00
1969, 2297.00
1970, 2297.00
1971, 2296.00
1972, 2297.00
1973, 2296.00
1974, 2299.00
1975, 2299.00
1976, 2301.00
1977, 2299.00
1978, 2298.00
1979, 2300.00
1980, 2299.00
1981, 2301.00
1982, 2302.00
1983, 2302.00
1984, 2303.00
1985, 2301.00
1986, 2304.00
1987, 2305.00
1988, 2304.00
1989, 2304.00
1990, 2304.00
1991, 2306.00
1992, 2305.00
1993, 2307.00
1994, 2307.00
1995, 2309.00
1996, 2307.00
1997, 2308.00
1998, 2310.00
1999, 2310.00
2000, 2310.00
2001, 2311.00
2002, 2312.00
2003, 2312.00
2004, 2313.00
2005, 2311.00
2006, 2313.00
2007, 2313.00
2008, 2314.00
2009, 2314.00
2010, 2314.00
2011, 2315.00
2012, 2316.00
2013, 2317.00
2014, 2317.00
2015, 2318.00
2016, 2320.00
2017, 2319.00
2018, 2319.00
2019, 2319.00
2020, 2320.00
2021, 2322.00
2022, 2321.00
2023, 2322.00
2024, 2321.00
2025, 2323.00
2026, 2323.00
2027, 2323.00
2028, 2325.00
2029, 2326.00
2030, 2325.00
2031, 2327.00
2032, 2328.00
2033, 2328.00
2034, 2329.00
2035, 2329.00
2036, 2330.00
2037, 2332.00
2038, 2329.00
2039, 2330.00
2040, 2333.00
2041, 2332.00
2042, 2332.00
2043, 2334.00
2044, 2335.00
2045, 2335.00
2046, 2337.00
2047, 2337.00
2048, 2337.00
2049, 2339.00
2050, 2340.00
2051, 2339.00
2052, 2341.00
2053, 2341.00
2054, 2344.00
2055, 2342.00
2056, 2345.00
2057, 2345.00
2058, 2347.00
2059, 2345.00
2060, 2345.00
2061, 2348.00
2062, 2347.00
2063, 2349.00
2064, 2348.00
2065, 2351.00
2066, 2351.00
2067, 2352.00
2068, 2355.00
2069, 2354.00
2070, 2354.00
2071, 2356.00
2072, 2356.00
2073, 2358.00
2074, 2359.00
2075, 2358.00
2076, 2361.00
2077, 2360.00
2078, 2359.00
2079, 2362.00
2080, 2363.00
2081, 2363.00
2082, 2363.00
2083, 2363.00
2084, 2365.00
2085, 2366.00
2086, 2365.00
2087, 2367.00
2088, 2368.00
2089, 2368.00
2090, 2369.00
2091, 2371.00
2092, 2370.00
2093, 2370.00
2094, 2371.00
2095, 2372.00
2096, 2373.00
2097, 2373.00
2098, 2372.00
2099, 2374.00
2100, 2375.00
2101, 2374.00
2102, 2374.00
2103, 2376.00
2104, 2377.00
2105, 2375.00
2106, 2378.00
2107, 2376.00
2108, 2376.00
2109, 2379.00
2110, 2380.00
2111, 2379.00
2112, 2378.00
2113, 2379.00
2114, 2379.00
2115, 2379.00
2116, 2381.00
2117, 2380.00
2118, 2381.00
2119, 2380.00
2120, 2382.00
2121, 2381.00
2122, 2383.00
2123, 2383.00
2124, 2384.00
2125, 2382.00
2126, 2385.00
2127, 2382.00
2128, 2385.00
2129, 2384.00
2130, 2384.00
2131, 2385.00
2132, 2384.00
2133, 2387.00
2134, 2385.00
2135, 2387.00
2136, 2386.00
2137, 2386.00
2138, 2387.00
2139, 2389.00
2140, 2388.00
2141, 2388.00
2142, 2388.00
2143, 2388.00
2144, 2389.00
2145, 2390.00
2146, 2390.00
2147, 2389.00
2148, 2390.00
2149, 2389.00
2150, 2390.00
