FW version: 24
Log Version: 3.0.3

General Info:
       Command/Macro Performed,            Timestamp,             Device ID, COM Port, UART/I2C, Test Name, Host Major, Host Minor, Host Revision, Host Git Commit
            Single_measurement,  2023_06_27_11_06_53,       Insight2_F4_xxx,    USB-C,      USB,          ,          0,          1,             1,      4031237645

Show Spectrometer Status:
l0_version, f4_version, battery_perc, battery_mVolt, accelerometer_temp, accelerometer_x, accelerometer_y, accelerometer_z, compass_temp, compass_x, compass_y, compass_z, lamp_0, lamp_1, gain_0, gain_1
        17,         24,           95,          2074,               5504,           65400,             108,           18492,            0,     65406,     65406,     65407,   3276,   3276,    1,    1

Temperature Statistic Info:
NTC AVG [°C], NTC2 AVG [°C]
      37.439,        37.150

Statistic Info:
M1:  num,      min,      max,   median,      AVG,      STD,M2:  num,      min,      max,   median,      AVG,      STD
     301,  1720.00,  1970.00,  1772.00,  1802.61,  77.5116,     401,  2284.00,  2428.00,  2341.00,  2345.80,  46.8043,

Measurements:
Wavelength, Data Amplitude
1350, 1764.00
1351, 1764.00
1352, 1764.00
1353, 1764.00
1354, 1761.00
1355, 1762.00
1356, 1761.00
1357, 1759.00
1358, 1759.00
1359, 1757.00
1360, 1758.00
1361, 1755.00
1362, 1755.00
1363, 1754.00
1364, 1752.00
1365, 1753.00
1366, 1750.00
1367, 1749.00
1368, 1748.00
1369, 1746.00
1370, 1746.00
1371, 1745.00
1372, 1743.00
1373, 1742.00
1374, 1741.00
1375, 1740.00
1376, 1739.00
1377, 1737.00
1378, 1735.00
1379, 1737.00
1380, 1735.00
1381, 1735.00
1382, 1734.00
1383, 1733.00
1384, 1731.00
1385, 1730.00
1386, 1731.00
1387, 1730.00
1388, 1729.00
1389, 1728.00
1390, 1728.00
1391, 1727.00
1392, 1727.00
1393, 1726.00
1394, 1725.00
1395, 1727.00
1396, 1725.00
1397, 1725.00
1398, 1725.00
1399, 1724.00
1400, 1723.00
1401, 1723.00
1402, 1723.00
1403, 1724.00
1404, 1723.00
1405, 1723.00
1406, 1723.00
1407, 1723.00
1408, 1722.00
1409, 1722.00
1410, 1721.00
1411, 1721.00
1412, 1722.00
1413, 1721.00
1414, 1722.00
1415, 1720.00
1416, 1721.00
1417, 1721.00
1418, 1721.00
1419, 1721.00
1420, 1721.00
1421, 1721.00
1422, 1720.00
1423, 1722.00
1424, 1721.00
1425, 1721.00
1426, 1722.00
1427, 1721.00
1428, 1721.00
1429, 1721.00
1430, 1723.00
1431, 1721.00
1432, 1723.00
1433, 1723.00
1434, 1724.00
1435, 1723.00
1436, 1724.00
1437, 1725.00
1438, 1724.00
1439, 1724.00
1440, 1725.00
1441, 1727.00
1442, 1726.00
1443, 1727.00
1444, 1727.00
1445, 1727.00
1446, 1729.00
1447, 1729.00
1448, 1729.00
1449, 1730.00
1450, 1730.00
1451, 1731.00
1452, 1732.00
1453, 1731.00
1454, 1732.00
1455, 1732.00
1456, 1733.00
1457, 1732.00
1458, 1734.00
1459, 1734.00
1460, 1736.00
1461, 1736.00
1462, 1737.00
1463, 1737.00
1464, 1738.00
1465, 1739.00
1466, 1740.00
1467, 1741.00
1468, 1741.00
1469, 1743.00
1470, 1743.00
1471, 1744.00
1472, 1744.00
1473, 1746.00
1474, 1747.00
1475, 1747.00
1476, 1748.00
1477, 1748.00
1478, 1751.00
1479, 1752.00
1480, 1752.00
1481, 1753.00
1482, 1754.00
1483, 1754.00
1484, 1755.00
1485, 1755.00
1486, 1757.00
1487, 1760.00
1488, 1759.00
1489, 1761.00
1490, 1761.00
1491, 1763.00
1492, 1764.00
1493, 1766.00
1494, 1765.00
1495, 1767.00
1496, 1768.00
1497, 1769.00
1498, 1770.00
1499, 1771.00
1500, 1772.00
1501, 1775.00
1502, 1775.00
1503, 1775.00
1504, 1776.00
1505, 1778.00
1506, 1780.00
1507, 1779.00
1508, 1781.00
1509, 1781.00
1510, 1783.00
1511, 1783.00
1512, 1785.00
1513, 1785.00
1514, 1787.00
1515, 1789.00
1516, 1790.00
1517, 1791.00
1518, 1792.00
1519, 1792.00
1520, 1793.00
1521, 1795.00
1522, 1797.00
1523, 1797.00
1524, 1800.00
1525, 1799.00
1526, 1802.00
1527, 1803.00
1528, 1803.00
1529, 1805.00
1530, 1807.00
1531, 1807.00
1532, 1809.00
1533, 1810.00
1534, 1812.00
1535, 1813.00
1536, 1814.00
1537, 1815.00
1538, 1817.00
1539, 1818.00
1540, 1818.00
1541, 1820.00
1542, 1822.00
1543, 1823.00
1544, 1825.00
1545, 1825.00
1546, 1826.00
1547, 1827.00
1548, 1828.00
1549, 1829.00
1550, 1831.00
1551, 1833.00
1552, 1833.00
1553, 1835.00
1554, 1836.00
1555, 1838.00
1556, 1839.00
1557, 1841.00
1558, 1841.00
1559, 1843.00
1560, 1845.00
1561, 1846.00
1562, 1847.00
1563, 1849.00
1564, 1850.00
1565, 1852.00
1566, 1854.00
1567, 1855.00
1568, 1857.00
1569, 1857.00
1570, 1860.00
1571, 1861.00
1572, 1863.00
1573, 1864.00
1574, 1865.00
1575, 1867.00
1576, 1867.00
1577, 1869.00
1578, 1869.00
1579, 1872.00
1580, 1873.00
1581, 1874.00
1582, 1875.00
1583, 1877.00
1584, 1878.00
1585, 1879.00
1586, 1879.00
1587, 1882.00
1588, 1883.00
1589, 1885.00
1590, 1885.00
1591, 1886.00
1592, 1886.00
1593, 1889.00
1594, 1891.00
1595, 1892.00
1596, 1892.00
1597, 1893.00
1598, 1897.00
1599, 1897.00
1600, 1898.00
1601, 1899.00
1602, 1900.00
1603, 1901.00
1604, 1902.00
1605, 1905.00
1606, 1906.00
1607, 1908.00
1608, 1909.00
1609, 1910.00
1610, 1912.00
1611, 1913.00
1612, 1915.00
1613, 1916.00
1614, 1919.00
1615, 1919.00
1616, 1921.00
1617, 1923.00
1618, 1924.00
1619, 1925.00
1620, 1928.00
1621, 1928.00
1622, 1931.00
1623, 1931.00
1624, 1934.00
1625, 1937.00
1626, 1937.00
1627, 1938.00
1628, 1940.00
1629, 1941.00
1630, 1943.00
1631, 1945.00
1632, 1946.00
1633, 1948.00
1634, 1949.00
1635, 1950.00
1636, 1952.00
1637, 1953.00
1638, 1955.00
1639, 1955.00
1640, 1957.00
1641, 1958.00
1642, 1959.00
1643, 1961.00
1644, 1962.00
1645, 1963.00
1646, 1965.00
1647, 1967.00
1648, 1969.00
1649, 1970.00
1650, 1969.00

1750, 2425.00
1751, 2426.00
1752, 2427.00
1753, 2428.00
1754, 2426.00
1755, 2427.00
1756, 2426.00
1757, 2426.00
1758, 2425.00
1759, 2427.00
1760, 2425.00
1761, 2424.00
1762, 2426.00
1763, 2426.00
1764, 2428.00
1765, 2425.00
1766, 2426.00
1767, 2427.00
1768, 2425.00
1769, 2425.00
1770, 2422.00
1771, 2426.00
1772, 2423.00
1773, 2423.00
1774, 2423.00
1775, 2422.00
1776, 2423.00
1777, 2421.00
1778, 2422.00
1779, 2422.00
1780, 2421.00
1781, 2418.00
1782, 2419.00
1783, 2419.00
1784, 2419.00
1785, 2416.00
1786, 2417.00
1787, 2418.00
1788, 2416.00
1789, 2416.00
1790, 2415.00
1791, 2414.00
1792, 2413.00
1793, 2414.00
1794, 2412.00
1795, 2412.00
1796, 2411.00
1797, 2411.00
1798, 2412.00
1799, 2412.00
1800, 2409.00
1801, 2411.00
1802, 2410.00
1803, 2409.00
1804, 2410.00
1805, 2409.00
1806, 2406.00
1807, 2407.00
1808, 2407.00
1809, 2406.00
1810, 2405.00
1811, 2405.00
1812, 2403.00
1813, 2404.00
1814, 2402.00
1815, 2403.00
1816, 2402.00
1817, 2400.00
1818, 2400.00
1819, 2401.00
1820, 2401.00
1821, 2399.00
1822, 2395.00
1823, 2396.00
1824, 2395.00
1825, 2392.00
1826, 2392.00
1827, 2391.00
1828, 2390.00
1829, 2388.00
1830, 2387.00
1831, 2385.00
1832, 2383.00
1833, 2384.00
1834, 2381.00
1835, 2380.00
1836, 2377.00
1837, 2377.00
1838, 2373.00
1839, 2373.00
1840, 2371.00
1841, 2368.00
1842, 2365.00
1843, 2363.00
1844, 2361.00
1845, 2361.00
1846, 2358.00
1847, 2355.00
1848, 2354.00
1849, 2350.00
1850, 2348.00
1851, 2347.00
1852, 2343.00
1853, 2342.00
1854, 2339.00
1855, 2337.00
1856, 2335.00
1857, 2333.00
1858, 2331.00
1859, 2329.00
1860, 2327.00
1861, 2324.00
1862, 2323.00
1863, 2323.00
1864, 2320.00
1865, 2317.00
1866, 2317.00
1867, 2314.00
1868, 2313.00
1869, 2312.00
1870, 2311.00
1871, 2310.00
1872, 2308.00
1873, 2308.00
1874, 2304.00
1875, 2305.00
1876, 2304.00
1877, 2302.00
1878, 2300.00
1879, 2302.00
1880, 2302.00
1881, 2300.00
1882, 2299.00
1883, 2296.00
1884, 2298.00
1885, 2297.00
1886, 2295.00
1887, 2296.00
1888, 2295.00
1889, 2294.00
1890, 2292.00
1891, 2293.00
1892, 2294.00
1893, 2292.00
1894, 2291.00
1895, 2289.00
1896, 2292.00
1897, 2290.00
1898, 2291.00
1899, 2289.00
1900, 2291.00
1901, 2289.00
1902, 2288.00
1903, 2287.00
1904, 2289.00
1905, 2287.00
1906, 2288.00
1907, 2287.00
1908, 2287.00
1909, 2287.00
1910, 2287.00
1911, 2287.00
1912, 2287.00
1913, 2287.00
1914, 2287.00
1915, 2286.00
1916, 2288.00
1917, 2284.00
1918, 2286.00
1919, 2285.00
1920, 2284.00
1921, 2286.00
1922, 2286.00
1923, 2285.00
1924, 2286.00
1925, 2286.00
1926, 2285.00
1927, 2285.00
1928, 2284.00
1929, 2285.00
1930, 2284.00
1931, 2285.00
1932, 2286.00
1933, 2285.00
1934, 2284.00
1935, 2284.00
1936, 2285.00
1937, 2285.00
1938, 2284.00
1939, 2285.00
1940, 2285.00
1941, 2285.00
1942, 2287.00
1943, 2287.00
1944, 2287.00
1945, 2286.00
1946, 2287.00
1947, 2287.00
1948, 2287.00
1949, 2287.00
1950, 2287.00
1951, 2289.00
1952, 2288.00
1953, 2288.00
1954, 2290.00
1955, 2287.00
1956, 2289.00
1957, 2290.00
1958, 2291.00
1959, 2291.00
1960, 2291.00
1961, 2292.00
1962, 2291.00
1963, 2293.00
1964, 2294.00
1965, 2293.00
1966, 2294.00
1967, 2295.00
1968, 2295.00
1969, 2295.00
1970, 2296.00
1971, 2296.00
1972, 2298.00
1973, 2297.00
1974, 2298.00
1975, 2298.00
1976, 2298.00
1977, 2299.00
1978, 2298.00
1979, 2299.00
1980, 2303.00
1981, 2298.00
1982, 2301.00
1983, 2301.00
1984, 2303.00
1985, 2301.00
1986, 2302.00
1987, 2303.00
1988, 2304.00
1989, 2306.00
1990, 2305.00
1991, 2306.00
1992, 2304.00
1993, 2305.00
1994, 2307.00
1995, 2307.00
1996, 2309.00
1997, 2308.00
1998, 2311.00
1999, 2309.00
2000, 2307.00
2001, 2311.00
2002, 2311.00
2003, 2311.00
2004, 2312.00
2005, 2313.00
2006, 2312.00
2007, 2313.00
2008, 2315.00
2009, 2314.00
2010, 2316.00
2011, 2316.00
2012, 2316.00
2013, 2316.00
2014, 2316.00
2015, 2318.00
2016, 2319.00
2017, 2318.00
2018, 2318.00
2019, 2318.00
2020, 2320.00
2021, 2319.00
2022, 2320.00
2023, 2322.00
2024, 2323.00
2025, 2322.00
2026, 2322.00
2027, 2323.00
2028, 2325.00
2029, 2325.00
2030, 2326.00
2031, 2325.00
2032, 2326.00
2033, 2328.00
2034, 2328.00
2035, 2328.00
2036, 2328.00
2037, 2331.00
2038, 2328.00
2039, 2330.00
2040, 2331.00
2041, 2332.00
2042, 2332.00
2043, 2334.00
2044, 2333.00
2045, 2335.00
2046, 2335.00
2047, 2337.00
2048, 2337.00
2049, 2338.00
2050, 2338.00
2051, 2340.00
2052, 2340.00
2053, 2341.00
2054, 2339.00
2055, 2342.00
2056, 2344.00
2057, 2343.00
2058, 2345.00
2059, 2344.00
2060, 2345.00
2061, 2346.00
2062, 2348.00
2063, 2349.00
2064, 2349.00
2065, 2349.00
2066, 2352.00
2067, 2352.00
2068, 2352.00
2069, 2354.00
2070, 2353.00
2071, 2355.00
2072, 2355.00
2073, 2355.00
2074, 2357.00
2075, 2359.00
2076, 2358.00
2077, 2360.00
2078, 2359.00
2079, 2361.00
2080, 2361.00
2081, 2362.00
2082, 2362.00
2083, 2362.00
2084, 2365.00
2085, 2365.00
2086, 2365.00
2087, 2366.00
2088, 2368.00
2089, 2368.00
2090, 2367.00
2091, 2369.00
2092, 2370.00
2093, 2369.00
2094, 2369.00
2095, 2372.00
2096, 2371.00
2097, 2372.00
2098, 2373.00
2099, 2374.00
2100, 2374.00
2101, 2373.00
2102, 2373.00
2103, 2376.00
2104, 2376.00
2105, 2375.00
2106, 2376.00
2107, 2377.00
2108, 2373.00
2109, 2375.00
2110, 2376.00
2111, 2378.00
2112, 2377.00
2113, 2379.00
2114, 2378.00
2115, 2381.00
2116, 2380.00
2117, 2380.00
2118, 2381.00
2119, 2381.00
2120, 2380.00
2121, 2381.00
2122, 2382.00
2123, 2381.00
2124, 2381.00
2125, 2381.00
2126, 2383.00
2127, 2383.00
2128, 2383.00
2129, 2384.00
2130, 2384.00
2131, 2385.00
2132, 2385.00
2133, 2384.00
2134, 2386.00
2135, 2387.00
2136, 2384.00
2137, 2386.00
2138, 2386.00
2139, 2388.00
2140, 2387.00
2141, 2387.00
2142, 2389.00
2143, 2387.00
2144, 2388.00
2145, 2388.00
2146, 2387.00
2147, 2389.00
2148, 2386.00
2149, 2388.00
2150, 2390.00
