FW version: 24
Log Version: 3.0.3

General Info:
       Command/Macro Performed,            Timestamp,             Device ID, COM Port, UART/I2C, Test Name, Host Major, Host Minor, Host Revision, Host Git Commit
            Single_measurement,  2023_06_27_11_06_04,       Insight2_F4_xxx,    USB-C,      USB,          ,          0,          1,             1,      4031237645

Show Spectrometer Status:
l0_version, f4_version, battery_perc, battery_mVolt, accelerometer_temp, accelerometer_x, accelerometer_y, accelerometer_z, compass_temp, compass_x, compass_y, compass_z, lamp_0, lamp_1, gain_0, gain_1
        17,         24,           95,          2074,               5488,           65384,              88,           18408,            0,     65402,     65370,     65528,   3276,   3276,    0,    0

Temperature Statistic Info:
NTC AVG [°C], NTC2 AVG [°C]
      37.004,        36.750

Statistic Info:
M1:  num,      min,      max,   median,      AVG,      STD,M2:  num,      min,      max,   median,      AVG,      STD
     301,   596.00,   683.00,   614.00,   624.53,  26.6938,     401,   791.00,   842.00,   812.00,   813.40,  16.3539,

Measurements:
Wavelength, Data Amplitude
1350, 612.00
1351, 612.00
1352, 611.00
1353, 611.00
1354, 611.00
1355, 611.00
1356, 611.00
1357, 610.00
1358, 610.00
1359, 609.00
1360, 610.00
1361, 609.00
1362, 608.00
1363, 608.00
1364, 607.00
1365, 608.00
1366, 607.00
1367, 607.00
1368, 606.00
1369, 605.00
1370, 605.00
1371, 604.00
1372, 605.00
1373, 604.00
1374, 603.00
1375, 603.00
1376, 603.00
1377, 603.00
1378, 602.00
1379, 601.00
1380, 601.00
1381, 601.00
1382, 601.00
1383, 600.00
1384, 600.00
1385, 600.00
1386, 600.00
1387, 600.00
1388, 599.00
1389, 598.00
1390, 599.00
1391, 599.00
1392, 599.00
1393, 599.00
1394, 598.00
1395, 598.00
1396, 598.00
1397, 598.00
1398, 598.00
1399, 597.00
1400, 598.00
1401, 597.00
1402, 597.00
1403, 597.00
1404, 597.00
1405, 597.00
1406, 597.00
1407, 597.00
1408, 597.00
1409, 597.00
1410, 597.00
1411, 596.00
1412, 597.00
1413, 597.00
1414, 597.00
1415, 596.00
1416, 596.00
1417, 597.00
1418, 596.00
1419, 597.00
1420, 596.00
1421, 596.00
1422, 596.00
1423, 596.00
1424, 597.00
1425, 596.00
1426, 596.00
1427, 596.00
1428, 597.00
1429, 597.00
1430, 597.00
1431, 597.00
1432, 597.00
1433, 597.00
1434, 597.00
1435, 597.00
1436, 597.00
1437, 598.00
1438, 598.00
1439, 598.00
1440, 598.00
1441, 598.00
1442, 598.00
1443, 598.00
1444, 599.00
1445, 599.00
1446, 599.00
1447, 599.00
1448, 599.00
1449, 599.00
1450, 600.00
1451, 599.00
1452, 600.00
1453, 600.00
1454, 600.00
1455, 600.00
1456, 601.00
1457, 601.00
1458, 600.00
1459, 601.00
1460, 601.00
1461, 602.00
1462, 602.00
1463, 602.00
1464, 602.00
1465, 603.00
1466, 603.00
1467, 603.00
1468, 603.00
1469, 603.00
1470, 604.00
1471, 604.00
1472, 604.00
1473, 605.00
1474, 606.00
1475, 605.00
1476, 606.00
1477, 606.00
1478, 606.00
1479, 606.00
1480, 607.00
1481, 607.00
1482, 608.00
1483, 608.00
1484, 608.00
1485, 608.00
1486, 609.00
1487, 609.00
1488, 610.00
1489, 610.00
1490, 611.00
1491, 611.00
1492, 611.00
1493, 611.00
1494, 612.00
1495, 613.00
1496, 612.00
1497, 613.00
1498, 613.00
1499, 613.00
1500, 614.00
1501, 614.00
1502, 615.00
1503, 615.00
1504, 615.00
1505, 616.00
1506, 616.00
1507, 617.00
1508, 617.00
1509, 617.00
1510, 618.00
1511, 618.00
1512, 619.00
1513, 619.00
1514, 619.00
1515, 619.00
1516, 620.00
1517, 621.00
1518, 621.00
1519, 621.00
1520, 621.00
1521, 622.00
1522, 622.00
1523, 623.00
1524, 623.00
1525, 624.00
1526, 624.00
1527, 625.00
1528, 625.00
1529, 625.00
1530, 626.00
1531, 626.00
1532, 627.00
1533, 627.00
1534, 627.00
1535, 628.00
1536, 628.00
1537, 629.00
1538, 629.00
1539, 630.00
1540, 630.00
1541, 630.00
1542, 631.00
1543, 631.00
1544, 632.00
1545, 632.00
1546, 633.00
1547, 633.00
1548, 634.00
1549, 634.00
1550, 634.00
1551, 634.00
1552, 635.00
1553, 635.00
1554, 636.00
1555, 636.00
1556, 637.00
1557, 637.00
1558, 638.00
1559, 639.00
1560, 639.00
1561, 640.00
1562, 640.00
1563, 640.00
1564, 640.00
1565, 641.00
1566, 642.00
1567, 642.00
1568, 643.00
1569, 644.00
1570, 644.00
1571, 645.00
1572, 645.00
1573, 646.00
1574, 646.00
1575, 646.00
1576, 647.00
1577, 647.00
1578, 648.00
1579, 648.00
1580, 648.00
1581, 649.00
1582, 649.00
1583, 650.00
1584, 650.00
1585, 651.00
1586, 652.00
1587, 651.00
1588, 652.00
1589, 653.00
1590, 653.00
1591, 653.00
1592, 654.00
1593, 654.00
1594, 654.00
1595, 655.00
1596, 655.00
1597, 656.00
1598, 656.00
1599, 657.00
1600, 658.00
1601, 657.00
1602, 658.00
1603, 658.00
1604, 659.00
1605, 660.00
1606, 660.00
1607, 661.00
1608, 662.00
1609, 661.00
1610, 662.00
1611, 663.00
1612, 663.00
1613, 664.00
1614, 664.00
1615, 665.00
1616, 666.00
1617, 666.00
1618, 667.00
1619, 667.00
1620, 668.00
1621, 668.00
1622, 669.00
1623, 670.00
1624, 670.00
1625, 670.00
1626, 671.00
1627, 672.00
1628, 672.00
1629, 673.00
1630, 673.00
1631, 674.00
1632, 674.00
1633, 674.00
1634, 674.00
1635, 675.00
1636, 676.00
1637, 676.00
1638, 677.00
1639, 677.00
1640, 678.00
1641, 678.00
1642, 679.00
1643, 679.00
1644, 680.00
1645, 680.00
1646, 681.00
1647, 681.00
1648, 681.00
1649, 681.00
1650, 683.00

1750, 842.00
1751, 842.00
1752, 842.00
1753, 842.00
1754, 841.00
1755, 842.00
1756, 841.00
1757, 841.00
1758, 842.00
1759, 842.00
1760, 841.00
1761, 841.00
1762, 841.00
1763, 841.00
1764, 841.00
1765, 842.00
1766, 842.00
1767, 841.00
1768, 840.00
1769, 841.00
1770, 841.00
1771, 841.00
1772, 841.00
1773, 841.00
1774, 841.00
1775, 840.00
1776, 840.00
1777, 840.00
1778, 840.00
1779, 840.00
1780, 839.00
1781, 839.00
1782, 839.00
1783, 839.00
1784, 838.00
1785, 838.00
1786, 839.00
1787, 839.00
1788, 838.00
1789, 838.00
1790, 837.00
1791, 837.00
1792, 837.00
1793, 837.00
1794, 837.00
1795, 837.00
1796, 836.00
1797, 836.00
1798, 837.00
1799, 836.00
1800, 837.00
1801, 836.00
1802, 836.00
1803, 835.00
1804, 835.00
1805, 835.00
1806, 835.00
1807, 834.00
1808, 835.00
1809, 835.00
1810, 835.00
1811, 834.00
1812, 834.00
1813, 834.00
1814, 834.00
1815, 833.00
1816, 833.00
1817, 832.00
1818, 833.00
1819, 832.00
1820, 832.00
1821, 832.00
1822, 831.00
1823, 830.00
1824, 830.00
1825, 830.00
1826, 829.00
1827, 829.00
1828, 829.00
1829, 828.00
1830, 829.00
1831, 828.00
1832, 827.00
1833, 827.00
1834, 826.00
1835, 826.00
1836, 825.00
1837, 825.00
1838, 823.00
1839, 822.00
1840, 822.00
1841, 822.00
1842, 821.00
1843, 820.00
1844, 819.00
1845, 818.00
1846, 818.00
1847, 817.00
1848, 816.00
1849, 815.00
1850, 815.00
1851, 814.00
1852, 813.00
1853, 812.00
1854, 812.00
1855, 811.00
1856, 810.00
1857, 809.00
1858, 809.00
1859, 808.00
1860, 807.00
1861, 806.00
1862, 806.00
1863, 805.00
1864, 805.00
1865, 803.00
1866, 804.00
1867, 803.00
1868, 802.00
1869, 802.00
1870, 801.00
1871, 801.00
1872, 801.00
1873, 800.00
1874, 800.00
1875, 799.00
1876, 799.00
1877, 798.00
1878, 798.00
1879, 798.00
1880, 798.00
1881, 797.00
1882, 797.00
1883, 797.00
1884, 797.00
1885, 797.00
1886, 796.00
1887, 796.00
1888, 797.00
1889, 795.00
1890, 796.00
1891, 795.00
1892, 796.00
1893, 795.00
1894, 795.00
1895, 794.00
1896, 795.00
1897, 794.00
1898, 794.00
1899, 794.00
1900, 794.00
1901, 794.00
1902, 794.00
1903, 794.00
1904, 793.00
1905, 794.00
1906, 794.00
1907, 794.00
1908, 793.00
1909, 792.00
1910, 793.00
1911, 793.00
1912, 793.00
1913, 793.00
1914, 792.00
1915, 793.00
1916, 793.00
1917, 792.00
1918, 792.00
1919, 793.00
1920, 792.00
1921, 793.00
1922, 792.00
1923, 792.00
1924, 792.00
1925, 792.00
1926, 791.00
1927, 792.00
1928, 792.00
1929, 793.00
1930, 792.00
1931, 791.00
1932, 792.00
1933, 792.00
1934, 792.00
1935, 793.00
1936, 792.00
1937, 792.00
1938, 792.00
1939, 792.00
1940, 792.00
1941, 792.00
1942, 792.00
1943, 793.00
1944, 793.00
1945, 793.00
1946, 793.00
1947, 793.00
1948, 793.00
1949, 793.00
1950, 793.00
1951, 793.00
1952, 793.00
1953, 793.00
1954, 793.00
1955, 793.00
1956, 794.00
1957, 794.00
1958, 794.00
1959, 794.00
1960, 795.00
1961, 795.00
1962, 794.00
1963, 794.00
1964, 795.00
1965, 795.00
1966, 796.00
1967, 795.00
1968, 795.00
1969, 796.00
1970, 795.00
1971, 795.00
1972, 797.00
1973, 796.00
1974, 796.00
1975, 796.00
1976, 797.00
1977, 797.00
1978, 797.00
1979, 797.00
1980, 798.00
1981, 798.00
1982, 797.00
1983, 798.00
1984, 798.00
1985, 798.00
1986, 798.00
1987, 799.00
1988, 799.00
1989, 800.00
1990, 799.00
1991, 799.00
1992, 800.00
1993, 799.00
1994, 800.00
1995, 800.00
1996, 800.00
1997, 800.00
1998, 800.00
1999, 801.00
2000, 800.00
2001, 801.00
2002, 801.00
2003, 802.00
2004, 801.00
2005, 802.00
2006, 802.00
2007, 802.00
2008, 802.00
2009, 802.00
2010, 802.00
2011, 802.00
2012, 803.00
2013, 802.00
2014, 803.00
2015, 803.00
2016, 803.00
2017, 804.00
2018, 804.00
2019, 803.00
2020, 804.00
2021, 804.00
2022, 805.00
2023, 805.00
2024, 805.00
2025, 805.00
2026, 805.00
2027, 805.00
2028, 805.00
2029, 806.00
2030, 806.00
2031, 806.00
2032, 806.00
2033, 807.00
2034, 807.00
2035, 807.00
2036, 808.00
2037, 808.00
2038, 807.00
2039, 808.00
2040, 808.00
2041, 808.00
2042, 808.00
2043, 808.00
2044, 808.00
2045, 810.00
2046, 810.00
2047, 810.00
2048, 810.00
2049, 810.00
2050, 810.00
2051, 810.00
2052, 811.00
2053, 811.00
2054, 811.00
2055, 812.00
2056, 813.00
2057, 813.00
2058, 813.00
2059, 813.00
2060, 814.00
2061, 813.00
2062, 814.00
2063, 814.00
2064, 815.00
2065, 815.00
2066, 815.00
2067, 815.00
2068, 817.00
2069, 816.00
2070, 815.00
2071, 817.00
2072, 816.00
2073, 817.00
2074, 817.00
2075, 818.00
2076, 817.00
2077, 818.00
2078, 818.00
2079, 818.00
2080, 819.00
2081, 819.00
2082, 819.00
2083, 819.00
2084, 819.00
2085, 820.00
2086, 820.00
2087, 820.00
2088, 820.00
2089, 821.00
2090, 821.00
2091, 822.00
2092, 822.00
2093, 821.00
2094, 822.00
2095, 821.00
2096, 822.00
2097, 822.00
2098, 822.00
2099, 823.00
2100, 823.00
2101, 823.00
2102, 823.00
2103, 823.00
2104, 824.00
2105, 823.00
2106, 823.00
2107, 824.00
2108, 824.00
2109, 824.00
2110, 824.00
2111, 824.00
2112, 825.00
2113, 824.00
2114, 825.00
2115, 826.00
2116, 825.00
2117, 825.00
2118, 826.00
2119, 826.00
2120, 826.00
2121, 826.00
2122, 826.00
2123, 825.00
2124, 826.00
2125, 826.00
2126, 826.00
2127, 826.00
2128, 826.00
2129, 827.00
2130, 827.00
2131, 827.00
2132, 827.00
2133, 827.00
2134, 827.00
2135, 827.00
2136, 827.00
2137, 827.00
2138, 827.00
2139, 827.00
2140, 828.00
2141, 828.00
2142, 828.00
2143, 828.00
2144, 828.00
2145, 828.00
2146, 829.00
2147, 828.00
2148, 829.00
2149, 828.00
2150, 829.00
