FW version: 24
Log Version: 3.0.3

General Info:
       Command/Macro Performed,            Timestamp,             Device ID, COM Port, UART/I2C, Test Name, Host Major, Host Minor, Host Revision, Host Git Commit
            Single_measurement,  2023_06_27_11_06_47,       Insight2_F4_xxx,    USB-C,      USB,          ,          0,          1,             1,      4031237645

Show Spectrometer Status:
l0_version, f4_version, battery_perc, battery_mVolt, accelerometer_temp, accelerometer_x, accelerometer_y, accelerometer_z, compass_temp, compass_x, compass_y, compass_z, lamp_0, lamp_1, gain_0, gain_1
        17,         24,           95,          2074,               5488,           65340,             108,           18468,            0,     65407,     65404,     65380,   3276,   3276,    1,    1

Temperature Statistic Info:
NTC AVG [°C], NTC2 AVG [°C]
      37.411,        37.033

Statistic Info:
M1:  num,      min,      max,   median,      AVG,      STD,M2:  num,      min,      max,   median,      AVG,      STD
     301,  1722.00,  1973.00,  1774.00,  1804.06,  77.5358,     401,  2285.00,  2429.00,  2342.00,  2347.36,  46.8171,

Measurements:
Wavelength, Data Amplitude
1350, 1765.00
1351, 1765.00
1352, 1766.00
1353, 1764.00
1354, 1764.00
1355, 1763.00
1356, 1761.00
1357, 1761.00
1358, 1761.00
1359, 1759.00
1360, 1759.00
1361, 1758.00
1362, 1757.00
1363, 1755.00
1364, 1754.00
1365, 1753.00
1366, 1751.00
1367, 1750.00
1368, 1749.00
1369, 1748.00
1370, 1747.00
1371, 1745.00
1372, 1745.00
1373, 1744.00
1374, 1743.00
1375, 1742.00
1376, 1740.00
1377, 1739.00
1378, 1737.00
1379, 1737.00
1380, 1736.00
1381, 1735.00
1382, 1734.00
1383, 1733.00
1384, 1733.00
1385, 1733.00
1386, 1732.00
1387, 1731.00
1388, 1730.00
1389, 1730.00
1390, 1730.00
1391, 1730.00
1392, 1729.00
1393, 1729.00
1394, 1726.00
1395, 1728.00
1396, 1726.00
1397, 1726.00
1398, 1726.00
1399, 1725.00
1400, 1726.00
1401, 1726.00
1402, 1725.00
1403, 1723.00
1404, 1723.00
1405, 1724.00
1406, 1723.00
1407, 1723.00
1408, 1723.00
1409, 1723.00
1410, 1723.00
1411, 1724.00
1412, 1723.00
1413, 1723.00
1414, 1723.00
1415, 1723.00
1416, 1723.00
1417, 1723.00
1418, 1722.00
1419, 1723.00
1420, 1723.00
1421, 1723.00
1422, 1722.00
1423, 1722.00
1424, 1723.00
1425, 1722.00
1426, 1723.00
1427, 1723.00
1428, 1722.00
1429, 1722.00
1430, 1724.00
1431, 1723.00
1432, 1723.00
1433, 1725.00
1434, 1725.00
1435, 1726.00
1436, 1725.00
1437, 1726.00
1438, 1726.00
1439, 1726.00
1440, 1726.00
1441, 1727.00
1442, 1727.00
1443, 1728.00
1444, 1729.00
1445, 1730.00
1446, 1728.00
1447, 1730.00
1448, 1731.00
1449, 1731.00
1450, 1731.00
1451, 1732.00
1452, 1733.00
1453, 1733.00
1454, 1733.00
1455, 1734.00
1456, 1735.00
1457, 1735.00
1458, 1736.00
1459, 1736.00
1460, 1739.00
1461, 1737.00
1462, 1737.00
1463, 1739.00
1464, 1739.00
1465, 1740.00
1466, 1741.00
1467, 1743.00
1468, 1742.00
1469, 1744.00
1470, 1744.00
1471, 1745.00
1472, 1745.00
1473, 1746.00
1474, 1749.00
1475, 1749.00
1476, 1750.00
1477, 1751.00
1478, 1751.00
1479, 1751.00
1480, 1753.00
1481, 1755.00
1482, 1756.00
1483, 1755.00
1484, 1757.00
1485, 1758.00
1486, 1758.00
1487, 1761.00
1488, 1761.00
1489, 1763.00
1490, 1764.00
1491, 1765.00
1492, 1765.00
1493, 1766.00
1494, 1768.00
1495, 1769.00
1496, 1769.00
1497, 1771.00
1498, 1773.00
1499, 1773.00
1500, 1774.00
1501, 1775.00
1502, 1776.00
1503, 1776.00
1504, 1777.00
1505, 1779.00
1506, 1780.00
1507, 1780.00
1508, 1782.00
1509, 1783.00
1510, 1783.00
1511, 1787.00
1512, 1784.00
1513, 1788.00
1514, 1789.00
1515, 1790.00
1516, 1791.00
1517, 1792.00
1518, 1793.00
1519, 1795.00
1520, 1795.00
1521, 1798.00
1522, 1798.00
1523, 1799.00
1524, 1801.00
1525, 1802.00
1526, 1803.00
1527, 1804.00
1528, 1806.00
1529, 1807.00
1530, 1808.00
1531, 1809.00
1532, 1811.00
1533, 1811.00
1534, 1814.00
1535, 1815.00
1536, 1815.00
1537, 1817.00
1538, 1819.00
1539, 1819.00
1540, 1821.00
1541, 1822.00
1542, 1823.00
1543, 1824.00
1544, 1825.00
1545, 1827.00
1546, 1827.00
1547, 1829.00
1548, 1830.00
1549, 1831.00
1550, 1833.00
1551, 1833.00
1552, 1836.00
1553, 1837.00
1554, 1837.00
1555, 1840.00
1556, 1841.00
1557, 1842.00
1558, 1842.00
1559, 1844.00
1560, 1847.00
1561, 1848.00
1562, 1850.00
1563, 1850.00
1564, 1851.00
1565, 1853.00
1566, 1855.00
1567, 1856.00
1568, 1858.00
1569, 1859.00
1570, 1860.00
1571, 1862.00
1572, 1863.00
1573, 1864.00
1574, 1865.00
1575, 1868.00
1576, 1869.00
1577, 1870.00
1578, 1871.00
1579, 1873.00
1580, 1874.00
1581, 1875.00
1582, 1876.00
1583, 1878.00
1584, 1880.00
1585, 1880.00
1586, 1882.00
1587, 1882.00
1588, 1884.00
1589, 1886.00
1590, 1887.00
1591, 1888.00
1592, 1889.00
1593, 1891.00
1594, 1892.00
1595, 1892.00
1596, 1895.00
1597, 1895.00
1598, 1897.00
1599, 1899.00
1600, 1900.00
1601, 1901.00
1602, 1902.00
1603, 1903.00
1604, 1905.00
1605, 1906.00
1606, 1907.00
1607, 1910.00
1608, 1911.00
1609, 1913.00
1610, 1913.00
1611, 1915.00
1612, 1916.00
1613, 1918.00
1614, 1919.00
1615, 1921.00
1616, 1922.00
1617, 1924.00
1618, 1926.00
1619, 1927.00
1620, 1930.00
1621, 1931.00
1622, 1932.00
1623, 1934.00
1624, 1935.00
1625, 1937.00
1626, 1939.00
1627, 1940.00
1628, 1942.00
1629, 1943.00
1630, 1944.00
1631, 1947.00
1632, 1947.00
1633, 1948.00
1634, 1950.00
1635, 1952.00
1636, 1951.00
1637, 1956.00
1638, 1957.00
1639, 1957.00
1640, 1958.00
1641, 1960.00
1642, 1961.00
1643, 1963.00
1644, 1962.00
1645, 1965.00
1646, 1965.00
1647, 1967.00
1648, 1969.00
1649, 1971.00
1650, 1973.00

1750, 2427.00
1751, 2429.00
1752, 2427.00
1753, 2429.00
1754, 2429.00
1755, 2428.00
1756, 2427.00
1757, 2427.00
1758, 2427.00
1759, 2428.00
1760, 2428.00
1761, 2427.00
1762, 2427.00
1763, 2427.00
1764, 2428.00
1765, 2427.00
1766, 2425.00
1767, 2427.00
1768, 2426.00
1769, 2425.00
1770, 2427.00
1771, 2423.00
1772, 2426.00
1773, 2425.00
1774, 2425.00
1775, 2423.00
1776, 2421.00
1777, 2424.00
1778, 2423.00
1779, 2423.00
1780, 2421.00
1781, 2421.00
1782, 2423.00
1783, 2419.00
1784, 2419.00
1785, 2420.00
1786, 2417.00
1787, 2421.00
1788, 2417.00
1789, 2415.00
1790, 2416.00
1791, 2416.00
1792, 2414.00
1793, 2416.00
1794, 2414.00
1795, 2415.00
1796, 2414.00
1797, 2411.00
1798, 2413.00
1799, 2412.00
1800, 2411.00
1801, 2410.00
1802, 2411.00
1803, 2411.00
1804, 2409.00
1805, 2410.00
1806, 2410.00
1807, 2408.00
1808, 2408.00
1809, 2408.00
1810, 2408.00
1811, 2408.00
1812, 2406.00
1813, 2404.00
1814, 2405.00
1815, 2405.00
1816, 2403.00
1817, 2402.00
1818, 2401.00
1819, 2403.00
1820, 2401.00
1821, 2397.00
1822, 2398.00
1823, 2397.00
1824, 2397.00
1825, 2395.00
1826, 2394.00
1827, 2394.00
1828, 2391.00
1829, 2390.00
1830, 2390.00
1831, 2387.00
1832, 2387.00
1833, 2385.00
1834, 2383.00
1835, 2382.00
1836, 2381.00
1837, 2379.00
1838, 2376.00
1839, 2373.00
1840, 2370.00
1841, 2370.00
1842, 2368.00
1843, 2367.00
1844, 2364.00
1845, 2363.00
1846, 2359.00
1847, 2356.00
1848, 2356.00
1849, 2353.00
1850, 2349.00
1851, 2349.00
1852, 2346.00
1853, 2342.00
1854, 2341.00
1855, 2339.00
1856, 2337.00
1857, 2335.00
1858, 2333.00
1859, 2331.00
1860, 2328.00
1861, 2328.00
1862, 2325.00
1863, 2321.00
1864, 2322.00
1865, 2320.00
1866, 2317.00
1867, 2317.00
1868, 2316.00
1869, 2315.00
1870, 2313.00
1871, 2311.00
1872, 2308.00
1873, 2308.00
1874, 2309.00
1875, 2306.00
1876, 2305.00
1877, 2305.00
1878, 2304.00
1879, 2303.00
1880, 2303.00
1881, 2301.00
1882, 2299.00
1883, 2299.00
1884, 2299.00
1885, 2298.00
1886, 2297.00
1887, 2299.00
1888, 2295.00
1889, 2295.00
1890, 2295.00
1891, 2293.00
1892, 2297.00
1893, 2294.00
1894, 2293.00
1895, 2292.00
1896, 2292.00
1897, 2292.00
1898, 2289.00
1899, 2293.00
1900, 2290.00
1901, 2289.00
1902, 2290.00
1903, 2290.00
1904, 2290.00
1905, 2289.00
1906, 2289.00
1907, 2288.00
1908, 2289.00
1909, 2290.00
1910, 2286.00
1911, 2289.00
1912, 2286.00
1913, 2287.00
1914, 2289.00
1915, 2286.00
1916, 2286.00
1917, 2288.00
1918, 2287.00
1919, 2287.00
1920, 2286.00
1921, 2287.00
1922, 2287.00
1923, 2287.00
1924, 2285.00
1925, 2287.00
1926, 2287.00
1927, 2287.00
1928, 2287.00
1929, 2286.00
1930, 2287.00
1931, 2285.00
1932, 2287.00
1933, 2286.00
1934, 2288.00
1935, 2285.00
1936, 2287.00
1937, 2287.00
1938, 2286.00
1939, 2287.00
1940, 2289.00
1941, 2287.00
1942, 2287.00
1943, 2289.00
1944, 2287.00
1945, 2289.00
1946, 2290.00
1947, 2290.00
1948, 2288.00
1949, 2288.00
1950, 2289.00
1951, 2289.00
1952, 2291.00
1953, 2290.00
1954, 2291.00
1955, 2291.00
1956, 2293.00
1957, 2292.00
1958, 2293.00
1959, 2291.00
1960, 2293.00
1961, 2293.00
1962, 2294.00
1963, 2293.00
1964, 2294.00
1965, 2293.00
1966, 2294.00
1967, 2294.00
1968, 2297.00
1969, 2298.00
1970, 2298.00
1971, 2297.00
1972, 2298.00
1973, 2297.00
1974, 2299.00
1975, 2299.00
1976, 2299.00
1977, 2301.00
1978, 2300.00
1979, 2301.00
1980, 2301.00
1981, 2302.00
1982, 2303.00
1983, 2302.00
1984, 2304.00
1985, 2303.00
1986, 2305.00
1987, 2305.00
1988, 2304.00
1989, 2306.00
1990, 2305.00
1991, 2307.00
1992, 2306.00
1993, 2309.00
1994, 2308.00
1995, 2309.00
1996, 2311.00
1997, 2310.00
1998, 2309.00
1999, 2311.00
2000, 2313.00
2001, 2312.00
2002, 2312.00
2003, 2313.00
2004, 2313.00
2005, 2313.00
2006, 2315.00
2007, 2315.00
2008, 2316.00
2009, 2315.00
2010, 2317.00
2011, 2318.00
2012, 2319.00
2013, 2317.00
2014, 2319.00
2015, 2317.00
2016, 2319.00
2017, 2319.00
2018, 2321.00
2019, 2320.00
2020, 2322.00
2021, 2320.00
2022, 2323.00
2023, 2323.00
2024, 2324.00
2025, 2325.00
2026, 2324.00
2027, 2326.00
2028, 2324.00
2029, 2326.00
2030, 2325.00
2031, 2327.00
2032, 2328.00
2033, 2329.00
2034, 2328.00
2035, 2329.00
2036, 2330.00
2037, 2332.00
2038, 2331.00
2039, 2332.00
2040, 2333.00
2041, 2333.00
2042, 2333.00
2043, 2335.00
2044, 2336.00
2045, 2336.00
2046, 2336.00
2047, 2338.00
2048, 2339.00
2049, 2339.00
2050, 2340.00
2051, 2342.00
2052, 2341.00
2053, 2343.00
2054, 2342.00
2055, 2345.00
2056, 2344.00
2057, 2343.00
2058, 2346.00
2059, 2346.00
2060, 2347.00
2061, 2349.00
2062, 2350.00
2063, 2350.00
2064, 2350.00
2065, 2351.00
2066, 2353.00
2067, 2355.00
2068, 2355.00
2069, 2358.00
2070, 2356.00
2071, 2355.00
2072, 2357.00
2073, 2359.00
2074, 2358.00
2075, 2359.00
2076, 2360.00
2077, 2361.00
2078, 2361.00
2079, 2362.00
2080, 2362.00
2081, 2363.00
2082, 2366.00
2083, 2364.00
2084, 2362.00
2085, 2368.00
2086, 2366.00
2087, 2367.00
2088, 2369.00
2089, 2369.00
2090, 2370.00
2091, 2369.00
2092, 2369.00
2093, 2370.00
2094, 2371.00
2095, 2373.00
2096, 2373.00
2097, 2372.00
2098, 2373.00
2099, 2375.00
2100, 2374.00
2101, 2375.00
2102, 2376.00
2103, 2377.00
2104, 2376.00
2105, 2376.00
2106, 2378.00
2107, 2377.00
2108, 2378.00
2109, 2378.00
2110, 2379.00
2111, 2381.00
2112, 2380.00
2113, 2381.00
2114, 2381.00
2115, 2379.00
2116, 2380.00
2117, 2381.00
2118, 2383.00
2119, 2382.00
2120, 2382.00
2121, 2382.00
2122, 2384.00
2123, 2383.00
2124, 2384.00
2125, 2384.00
2126, 2386.00
2127, 2386.00
2128, 2385.00
2129, 2385.00
2130, 2385.00
2131, 2386.00
2132, 2387.00
2133, 2386.00
2134, 2385.00
2135, 2387.00
2136, 2387.00
2137, 2389.00
2138, 2388.00
2139, 2388.00
2140, 2389.00
2141, 2391.00
2142, 2389.00
2143, 2389.00
2144, 2391.00
2145, 2390.00
2146, 2391.00
2147, 2389.00
2148, 2389.00
2149, 2391.00
2150, 2390.00
