FW version: 24
Log Version: 3.0.3

General Info:
       Command/Macro Performed,            Timestamp,             Device ID, COM Port, UART/I2C, Test Name, Host Major, Host Minor, Host Revision, Host Git Commit
            Single_measurement,  2023_06_28_11_42_44,       Insight2_F4_xxx,    USB-C,      USB,          ,          0,          1,             1,      4031237645

Show Spectrometer Status:
l0_version, f4_version, battery_perc, battery_mVolt, accelerometer_temp, accelerometer_x, accelerometer_y, accelerometer_z, compass_temp, compass_x, compass_y, compass_z, lamp_0, lamp_1, gain_0, gain_1
        17,         24,           46,          1901,               6544,           65276,            1080,           18748,            0,     65532,     65470,     18751,   2047,   2047,      1,      1

Temperature Statistic Info:
NTC AVG [°C], NTC2 AVG [°C]
      40.024,        39.733

Statistic Info:
M1:  num,      min,      max,   median,      AVG,      STD,M2:  num,      min,      max,   median,      AVG,      STD
     301,   862.00,  1017.00,   895.00,   914.29,  48.6364,     401,  1241.00,  1337.00,  1281.00,  1283.39,  31.1885,

Measurements:
Wavelength, Data Amplitude
1350, 888.00
1351, 887.00
1352, 887.00
1353, 885.00
1354, 885.00
1355, 885.00
1356, 886.00
1357, 884.00
1358, 883.00
1359, 883.00
1360, 883.00
1361, 882.00
1362, 882.00
1363, 881.00
1364, 879.00
1365, 879.00
1366, 879.00
1367, 878.00
1368, 877.00
1369, 876.00
1370, 876.00
1371, 875.00
1372, 875.00
1373, 874.00
1374, 873.00
1375, 873.00
1376, 872.00
1377, 871.00
1378, 870.00
1379, 871.00
1380, 871.00
1381, 869.00
1382, 869.00
1383, 868.00
1384, 868.00
1385, 869.00
1386, 868.00
1387, 866.00
1388, 866.00
1389, 866.00
1390, 866.00
1391, 867.00
1392, 866.00
1393, 866.00
1394, 865.00
1395, 866.00
1396, 864.00
1397, 866.00
1398, 865.00
1399, 865.00
1400, 864.00
1401, 864.00
1402, 865.00
1403, 864.00
1404, 865.00
1405, 864.00
1406, 863.00
1407, 864.00
1408, 863.00
1409, 865.00
1410, 864.00
1411, 864.00
1412, 863.00
1413, 862.00
1414, 864.00
1415, 864.00
1416, 862.00
1417, 863.00
1418, 863.00
1419, 864.00
1420, 863.00
1421, 863.00
1422, 862.00
1423, 863.00
1424, 862.00
1425, 864.00
1426, 865.00
1427, 864.00
1428, 863.00
1429, 863.00
1430, 865.00
1431, 865.00
1432, 864.00
1433, 865.00
1434, 865.00
1435, 866.00
1436, 865.00
1437, 866.00
1438, 865.00
1439, 866.00
1440, 866.00
1441, 866.00
1442, 868.00
1443, 868.00
1444, 868.00
1445, 868.00
1446, 869.00
1447, 869.00
1448, 869.00
1449, 870.00
1450, 869.00
1451, 870.00
1452, 870.00
1453, 871.00
1454, 870.00
1455, 871.00
1456, 870.00
1457, 871.00
1458, 871.00
1459, 873.00
1460, 873.00
1461, 874.00
1462, 874.00
1463, 875.00
1464, 875.00
1465, 875.00
1466, 875.00
1467, 876.00
1468, 876.00
1469, 877.00
1470, 877.00
1471, 878.00
1472, 878.00
1473, 879.00
1474, 879.00
1475, 881.00
1476, 881.00
1477, 882.00
1478, 883.00
1479, 883.00
1480, 884.00
1481, 884.00
1482, 885.00
1483, 885.00
1484, 886.00
1485, 886.00
1486, 887.00
1487, 888.00
1488, 888.00
1489, 890.00
1490, 889.00
1491, 890.00
1492, 891.00
1493, 891.00
1494, 892.00
1495, 893.00
1496, 894.00
1497, 894.00
1498, 894.00
1499, 895.00
1500, 895.00
1501, 896.00
1502, 897.00
1503, 898.00
1504, 899.00
1505, 898.00
1506, 900.00
1507, 901.00
1508, 901.00
1509, 902.00
1510, 903.00
1511, 904.00
1512, 904.00
1513, 904.00
1514, 905.00
1515, 907.00
1516, 907.00
1517, 907.00
1518, 909.00
1519, 910.00
1520, 910.00
1521, 911.00
1522, 912.00
1523, 912.00
1524, 913.00
1525, 914.00
1526, 915.00
1527, 915.00
1528, 915.00
1529, 917.00
1530, 918.00
1531, 919.00
1532, 919.00
1533, 920.00
1534, 921.00
1535, 921.00
1536, 922.00
1537, 924.00
1538, 923.00
1539, 925.00
1540, 927.00
1541, 926.00
1542, 927.00
1543, 928.00
1544, 929.00
1545, 930.00
1546, 930.00
1547, 931.00
1548, 932.00
1549, 933.00
1550, 935.00
1551, 936.00
1552, 936.00
1553, 936.00
1554, 937.00
1555, 937.00
1556, 939.00
1557, 939.00
1558, 940.00
1559, 941.00
1560, 942.00
1561, 943.00
1562, 943.00
1563, 944.00
1564, 945.00
1565, 946.00
1566, 947.00
1567, 948.00
1568, 949.00
1569, 949.00
1570, 951.00
1571, 951.00
1572, 954.00
1573, 953.00
1574, 953.00
1575, 955.00
1576, 955.00
1577, 956.00
1578, 956.00
1579, 957.00
1580, 959.00
1581, 960.00
1582, 960.00
1583, 961.00
1584, 961.00
1585, 963.00
1586, 963.00
1587, 965.00
1588, 966.00
1589, 966.00
1590, 966.00
1591, 966.00
1592, 968.00
1593, 968.00
1594, 969.00
1595, 969.00
1596, 971.00
1597, 972.00
1598, 972.00
1599, 974.00
1600, 974.00
1601, 975.00
1602, 976.00
1603, 977.00
1604, 978.00
1605, 978.00
1606, 980.00
1607, 980.00
1608, 981.00
1609, 981.00
1610, 983.00
1611, 983.00
1612, 986.00
1613, 986.00
1614, 987.00
1615, 988.00
1616, 989.00
1617, 990.00
1618, 991.00
1619, 992.00
1620, 994.00
1621, 994.00
1622, 994.00
1623, 996.00
1624, 996.00
1625, 997.00
1626, 998.00
1627, 1000.00
1628, 999.00
1629, 1001.00
1630, 1002.00
1631, 1003.00
1632, 1004.00
1633, 1005.00
1634, 1005.00
1635, 1007.00
1636, 1008.00
1637, 1007.00
1638, 1009.00
1639, 1009.00
1640, 1010.00
1641, 1011.00
1642, 1011.00
1643, 1012.00
1644, 1012.00
1645, 1013.00
1646, 1013.00
1647, 1014.00
1648, 1016.00
1649, 1015.00
1650, 1017.00

1750, 1334.00
1751, 1334.00
1752, 1335.00
1753, 1333.00
1754, 1334.00
1755, 1334.00
1756, 1333.00
1757, 1333.00
1758, 1333.00
1759, 1337.00
1760, 1333.00
1761, 1332.00
1762, 1333.00
1763, 1335.00
1764, 1334.00
1765, 1332.00
1766, 1333.00
1767, 1334.00
1768, 1332.00
1769, 1332.00
1770, 1333.00
1771, 1333.00
1772, 1331.00
1773, 1333.00
1774, 1333.00
1775, 1330.00
1776, 1330.00
1777, 1331.00
1778, 1331.00
1779, 1330.00
1780, 1329.00
1781, 1329.00
1782, 1330.00
1783, 1330.00
1784, 1329.00
1785, 1328.00
1786, 1329.00
1787, 1329.00
1788, 1327.00
1789, 1328.00
1790, 1328.00
1791, 1326.00
1792, 1327.00
1793, 1326.00
1794, 1325.00
1795, 1324.00
1796, 1325.00
1797, 1323.00
1798, 1325.00
1799, 1325.00
1800, 1323.00
1801, 1325.00
1802, 1323.00
1803, 1322.00
1804, 1322.00
1805, 1322.00
1806, 1324.00
1807, 1324.00
1808, 1321.00
1809, 1320.00
1810, 1321.00
1811, 1319.00
1812, 1321.00
1813, 1321.00
1814, 1321.00
1815, 1321.00
1816, 1317.00
1817, 1318.00
1818, 1317.00
1819, 1317.00
1820, 1315.00
1821, 1316.00
1822, 1315.00
1823, 1315.00
1824, 1315.00
1825, 1313.00
1826, 1313.00
1827, 1312.00
1828, 1310.00
1829, 1311.00
1830, 1311.00
1831, 1309.00
1832, 1306.00
1833, 1307.00
1834, 1305.00
1835, 1303.00
1836, 1302.00
1837, 1301.00
1838, 1300.00
1839, 1299.00
1840, 1297.00
1841, 1295.00
1842, 1295.00
1843, 1293.00
1844, 1291.00
1845, 1289.00
1846, 1288.00
1847, 1286.00
1848, 1287.00
1849, 1283.00
1850, 1283.00
1851, 1279.00
1852, 1281.00
1853, 1279.00
1854, 1278.00
1855, 1275.00
1856, 1275.00
1857, 1273.00
1858, 1271.00
1859, 1269.00
1860, 1270.00
1861, 1269.00
1862, 1266.00
1863, 1265.00
1864, 1264.00
1865, 1265.00
1866, 1261.00
1867, 1262.00
1868, 1261.00
1869, 1259.00
1870, 1257.00
1871, 1259.00
1872, 1258.00
1873, 1256.00
1874, 1254.00
1875, 1255.00
1876, 1254.00
1877, 1255.00
1878, 1253.00
1879, 1253.00
1880, 1252.00
1881, 1251.00
1882, 1252.00
1883, 1249.00
1884, 1250.00
1885, 1250.00
1886, 1249.00
1887, 1249.00
1888, 1248.00
1889, 1248.00
1890, 1248.00
1891, 1248.00
1892, 1248.00
1893, 1247.00
1894, 1246.00
1895, 1247.00
1896, 1247.00
1897, 1246.00
1898, 1246.00
1899, 1245.00
1900, 1246.00
1901, 1245.00
1902, 1242.00
1903, 1244.00
1904, 1244.00
1905, 1244.00
1906, 1245.00
1907, 1245.00
1908, 1244.00
1909, 1243.00
1910, 1243.00
1911, 1245.00
1912, 1243.00
1913, 1242.00
1914, 1242.00
1915, 1244.00
1916, 1245.00
1917, 1241.00
1918, 1243.00
1919, 1243.00
1920, 1242.00
1921, 1242.00
1922, 1241.00
1923, 1242.00
1924, 1242.00
1925, 1242.00
1926, 1243.00
1927, 1242.00
1928, 1242.00
1929, 1242.00
1930, 1241.00
1931, 1242.00
1932, 1242.00
1933, 1242.00
1934, 1242.00
1935, 1242.00
1936, 1243.00
1937, 1241.00
1938, 1242.00
1939, 1241.00
1940, 1244.00
1941, 1243.00
1942, 1243.00
1943, 1244.00
1944, 1243.00
1945, 1242.00
1946, 1244.00
1947, 1244.00
1948, 1244.00
1949, 1244.00
1950, 1243.00
1951, 1243.00
1952, 1245.00
1953, 1246.00
1954, 1246.00
1955, 1246.00
1956, 1245.00
1957, 1245.00
1958, 1246.00
1959, 1247.00
1960, 1247.00
1961, 1246.00
1962, 1247.00
1963, 1247.00
1964, 1248.00
1965, 1248.00
1966, 1247.00
1967, 1249.00
1968, 1249.00
1969, 1249.00
1970, 1248.00
1971, 1249.00
1972, 1251.00
1973, 1252.00
1974, 1252.00
1975, 1252.00
1976, 1251.00
1977, 1251.00
1978, 1252.00
1979, 1252.00
1980, 1253.00
1981, 1253.00
1982, 1254.00
1983, 1255.00
1984, 1255.00
1985, 1255.00
1986, 1253.00
1987, 1255.00
1988, 1255.00
1989, 1256.00
1990, 1257.00
1991, 1258.00
1992, 1254.00
1993, 1257.00
1994, 1258.00
1995, 1257.00
1996, 1259.00
1997, 1259.00
1998, 1258.00
1999, 1258.00
2000, 1259.00
2001, 1260.00
2002, 1259.00
2003, 1260.00
2004, 1261.00
2005, 1261.00
2006, 1262.00
2007, 1261.00
2008, 1264.00
2009, 1261.00
2010, 1262.00
2011, 1261.00
2012, 1264.00
2013, 1264.00
2014, 1265.00
2015, 1264.00
2016, 1265.00
2017, 1265.00
2018, 1267.00
2019, 1265.00
2020, 1266.00
2021, 1266.00
2022, 1268.00
2023, 1269.00
2024, 1267.00
2025, 1270.00
2026, 1269.00
2027, 1268.00
2028, 1267.00
2029, 1269.00
2030, 1270.00
2031, 1272.00
2032, 1271.00
2033, 1271.00
2034, 1271.00
2035, 1273.00
2036, 1272.00
2037, 1272.00
2038, 1274.00
2039, 1274.00
2040, 1275.00
2041, 1278.00
2042, 1275.00
2043, 1277.00
2044, 1277.00
2045, 1277.00
2046, 1280.00
2047, 1277.00
2048, 1278.00
2049, 1279.00
2050, 1280.00
2051, 1281.00
2052, 1281.00
2053, 1282.00
2054, 1283.00
2055, 1283.00
2056, 1284.00
2057, 1283.00
2058, 1283.00
2059, 1283.00
2060, 1285.00
2061, 1286.00
2062, 1285.00
2063, 1287.00
2064, 1287.00
2065, 1288.00
2066, 1288.00
2067, 1290.00
2068, 1290.00
2069, 1291.00
2070, 1290.00
2071, 1292.00
2072, 1294.00
2073, 1295.00
2074, 1293.00
2075, 1293.00
2076, 1295.00
2077, 1295.00
2078, 1295.00
2079, 1297.00
2080, 1295.00
2081, 1297.00
2082, 1298.00
2083, 1298.00
2084, 1298.00
2085, 1300.00
2086, 1299.00
2087, 1299.00
2088, 1301.00
2089, 1299.00
2090, 1301.00
2091, 1302.00
2092, 1302.00
2093, 1304.00
2094, 1301.00
2095, 1304.00
2096, 1302.00
2097, 1304.00
2098, 1304.00
2099, 1305.00
2100, 1305.00
2101, 1304.00
2102, 1308.00
2103, 1306.00
2104, 1308.00
2105, 1307.00
2106, 1308.00
2107, 1308.00
2108, 1305.00
2109, 1308.00
2110, 1308.00
2111, 1309.00
2112, 1308.00
2113, 1308.00
2114, 1309.00
2115, 1309.00
2116, 1310.00
2117, 1309.00
2118, 1310.00
2119, 1311.00
2120, 1309.00
2121, 1312.00
2122, 1310.00
2123, 1311.00
2124, 1313.00
2125, 1312.00
2126, 1312.00
2127, 1313.00
2128, 1312.00
2129, 1313.00
2130, 1314.00
2131, 1312.00
2132, 1315.00
2133, 1314.00
2134, 1314.00
2135, 1314.00
2136, 1316.00
2137, 1314.00
2138, 1317.00
2139, 1315.00
2140, 1317.00
2141, 1316.00
2142, 1318.00
2143, 1316.00
2144, 1316.00
2145, 1317.00
2146, 1316.00
2147, 1318.00
2148, 1318.00
2149, 1319.00
2150, 1317.00
