FW version: 24
Log Version: 3.0.3

General Info:
       Command/Macro Performed,            Timestamp,             Device ID, COM Port, UART/I2C, Test Name, Host Major, Host Minor, Host Revision, Host Git Commit
            Single_measurement,  2023_06_28_11_43_26,       Insight2_F4_xxx,    USB-C,      USB,          ,          0,          1,             1,      4031237645

Show Spectrometer Status:
l0_version, f4_version, battery_perc, battery_mVolt, accelerometer_temp, accelerometer_x, accelerometer_y, accelerometer_z, compass_temp, compass_x, compass_y, compass_z, lamp_0, lamp_1, gain_0, gain_1
        17,         24,           46,          1903,               6544,           65324,            1212,           18764,            0,     65454,     65471,     18815,   2866,   2866,      1,      1

Temperature Statistic Info:
NTC AVG [°C], NTC2 AVG [°C]
      40.322,        39.966

Statistic Info:
M1:  num,      min,      max,   median,      AVG,      STD,M2:  num,      min,      max,   median,      AVG,      STD
     301,  1683.00,  1965.00,  1740.00,  1775.08,  87.5843,     401,  2206.00,  2372.00,  2273.00,  2278.50,  54.2614,

Measurements:
Wavelength, Data Amplitude
1350, 1734.00
1351, 1734.00
1352, 1733.00
1353, 1732.00
1354, 1731.00
1355, 1729.00
1356, 1729.00
1357, 1728.00
1358, 1726.00
1359, 1725.00
1360, 1725.00
1361, 1722.00
1362, 1722.00
1363, 1720.00
1364, 1719.00
1365, 1717.00
1366, 1715.00
1367, 1715.00
1368, 1713.00
1369, 1712.00
1370, 1710.00
1371, 1709.00
1372, 1707.00
1373, 1705.00
1374, 1706.00
1375, 1704.00
1376, 1703.00
1377, 1701.00
1378, 1700.00
1379, 1700.00
1380, 1698.00
1381, 1698.00
1382, 1697.00
1383, 1695.00
1384, 1695.00
1385, 1694.00
1386, 1694.00
1387, 1692.00
1388, 1693.00
1389, 1692.00
1390, 1691.00
1391, 1692.00
1392, 1690.00
1393, 1689.00
1394, 1688.00
1395, 1688.00
1396, 1687.00
1397, 1687.00
1398, 1687.00
1399, 1688.00
1400, 1687.00
1401, 1686.00
1402, 1685.00
1403, 1685.00
1404, 1686.00
1405, 1685.00
1406, 1685.00
1407, 1685.00
1408, 1685.00
1409, 1684.00
1410, 1684.00
1411, 1684.00
1412, 1684.00
1413, 1683.00
1414, 1684.00
1415, 1685.00
1416, 1683.00
1417, 1684.00
1418, 1683.00
1419, 1683.00
1420, 1684.00
1421, 1684.00
1422, 1684.00
1423, 1683.00
1424, 1684.00
1425, 1685.00
1426, 1684.00
1427, 1684.00
1428, 1685.00
1429, 1683.00
1430, 1686.00
1431, 1685.00
1432, 1685.00
1433, 1686.00
1434, 1686.00
1435, 1686.00
1436, 1686.00
1437, 1687.00
1438, 1689.00
1439, 1687.00
1440, 1689.00
1441, 1689.00
1442, 1689.00
1443, 1689.00
1444, 1690.00
1445, 1691.00
1446, 1693.00
1447, 1692.00
1448, 1692.00
1449, 1692.00
1450, 1692.00
1451, 1694.00
1452, 1693.00
1453, 1695.00
1454, 1695.00
1455, 1697.00
1456, 1697.00
1457, 1698.00
1458, 1698.00
1459, 1699.00
1460, 1700.00
1461, 1700.00
1462, 1701.00
1463, 1702.00
1464, 1702.00
1465, 1703.00
1466, 1705.00
1467, 1705.00
1468, 1705.00
1469, 1706.00
1470, 1708.00
1471, 1708.00
1472, 1709.00
1473, 1710.00
1474, 1711.00
1475, 1712.00
1476, 1712.00
1477, 1713.00
1478, 1715.00
1479, 1715.00
1480, 1717.00
1481, 1719.00
1482, 1720.00
1483, 1720.00
1484, 1721.00
1485, 1723.00
1486, 1724.00
1487, 1725.00
1488, 1726.00
1489, 1729.00
1490, 1729.00
1491, 1730.00
1492, 1731.00
1493, 1731.00
1494, 1734.00
1495, 1734.00
1496, 1735.00
1497, 1737.00
1498, 1738.00
1499, 1739.00
1500, 1740.00
1501, 1742.00
1502, 1742.00
1503, 1744.00
1504, 1744.00
1505, 1745.00
1506, 1746.00
1507, 1748.00
1508, 1748.00
1509, 1751.00
1510, 1752.00
1511, 1753.00
1512, 1752.00
1513, 1754.00
1514, 1756.00
1515, 1758.00
1516, 1760.00
1517, 1761.00
1518, 1762.00
1519, 1763.00
1520, 1763.00
1521, 1765.00
1522, 1767.00
1523, 1769.00
1524, 1770.00
1525, 1772.00
1526, 1774.00
1527, 1775.00
1528, 1777.00
1529, 1777.00
1530, 1779.00
1531, 1780.00
1532, 1782.00
1533, 1782.00
1534, 1785.00
1535, 1785.00
1536, 1787.00
1537, 1787.00
1538, 1789.00
1539, 1790.00
1540, 1793.00
1541, 1795.00
1542, 1796.00
1543, 1798.00
1544, 1798.00
1545, 1800.00
1546, 1801.00
1547, 1802.00
1548, 1803.00
1549, 1805.00
1550, 1807.00
1551, 1808.00
1552, 1810.00
1553, 1811.00
1554, 1814.00
1555, 1814.00
1556, 1816.00
1557, 1818.00
1558, 1820.00
1559, 1821.00
1560, 1823.00
1561, 1823.00
1562, 1825.00
1563, 1828.00
1564, 1829.00
1565, 1831.00
1566, 1833.00
1567, 1835.00
1568, 1836.00
1569, 1837.00
1570, 1838.00
1571, 1840.00
1572, 1842.00
1573, 1843.00
1574, 1845.00
1575, 1847.00
1576, 1848.00
1577, 1849.00
1578, 1851.00
1579, 1852.00
1580, 1854.00
1581, 1855.00
1582, 1857.00
1583, 1858.00
1584, 1861.00
1585, 1862.00
1586, 1863.00
1587, 1863.00
1588, 1865.00
1589, 1867.00
1590, 1868.00
1591, 1871.00
1592, 1872.00
1593, 1873.00
1594, 1874.00
1595, 1875.00
1596, 1877.00
1597, 1879.00
1598, 1880.00
1599, 1882.00
1600, 1883.00
1601, 1884.00
1602, 1885.00
1603, 1888.00
1604, 1889.00
1605, 1890.00
1606, 1892.00
1607, 1894.00
1608, 1896.00
1609, 1897.00
1610, 1897.00
1611, 1901.00
1612, 1903.00
1613, 1905.00
1614, 1906.00
1615, 1908.00
1616, 1909.00
1617, 1911.00
1618, 1913.00
1619, 1917.00
1620, 1917.00
1621, 1919.00
1622, 1921.00
1623, 1922.00
1624, 1925.00
1625, 1926.00
1626, 1927.00
1627, 1929.00
1628, 1930.00
1629, 1933.00
1630, 1934.00
1631, 1936.00
1632, 1938.00
1633, 1939.00
1634, 1941.00
1635, 1943.00
1636, 1944.00
1637, 1945.00
1638, 1946.00
1639, 1947.00
1640, 1950.00
1641, 1951.00
1642, 1953.00
1643, 1954.00
1644, 1955.00
1645, 1957.00
1646, 1959.00
1647, 1960.00
1648, 1962.00
1649, 1963.00
1650, 1965.00

1750, 2372.00
1751, 2371.00
1752, 2371.00
1753, 2371.00
1754, 2372.00
1755, 2372.00
1756, 2372.00
1757, 2370.00
1758, 2368.00
1759, 2370.00
1760, 2371.00
1761, 2370.00
1762, 2370.00
1763, 2370.00
1764, 2370.00
1765, 2367.00
1766, 2370.00
1767, 2369.00
1768, 2368.00
1769, 2370.00
1770, 2366.00
1771, 2367.00
1772, 2367.00
1773, 2367.00
1774, 2366.00
1775, 2365.00
1776, 2366.00
1777, 2363.00
1778, 2363.00
1779, 2363.00
1780, 2363.00
1781, 2362.00
1782, 2363.00
1783, 2362.00
1784, 2362.00
1785, 2361.00
1786, 2361.00
1787, 2363.00
1788, 2359.00
1789, 2357.00
1790, 2359.00
1791, 2355.00
1792, 2356.00
1793, 2357.00
1794, 2357.00
1795, 2354.00
1796, 2353.00
1797, 2353.00
1798, 2354.00
1799, 2354.00
1800, 2351.00
1801, 2351.00
1802, 2352.00
1803, 2350.00
1804, 2349.00
1805, 2349.00
1806, 2349.00
1807, 2349.00
1808, 2349.00
1809, 2347.00
1810, 2346.00
1811, 2346.00
1812, 2346.00
1813, 2345.00
1814, 2344.00
1815, 2345.00
1816, 2342.00
1817, 2342.00
1818, 2340.00
1819, 2340.00
1820, 2339.00
1821, 2335.00
1822, 2338.00
1823, 2335.00
1824, 2334.00
1825, 2331.00
1826, 2331.00
1827, 2329.00
1828, 2328.00
1829, 2328.00
1830, 2324.00
1831, 2324.00
1832, 2321.00
1833, 2319.00
1834, 2317.00
1835, 2317.00
1836, 2316.00
1837, 2312.00
1838, 2310.00
1839, 2307.00
1840, 2306.00
1841, 2301.00
1842, 2299.00
1843, 2297.00
1844, 2295.00
1845, 2292.00
1846, 2290.00
1847, 2289.00
1848, 2285.00
1849, 2281.00
1850, 2280.00
1851, 2275.00
1852, 2277.00
1853, 2273.00
1854, 2270.00
1855, 2267.00
1856, 2266.00
1857, 2262.00
1858, 2260.00
1859, 2256.00
1860, 2257.00
1861, 2253.00
1862, 2252.00
1863, 2249.00
1864, 2246.00
1865, 2245.00
1866, 2245.00
1867, 2241.00
1868, 2240.00
1869, 2237.00
1870, 2237.00
1871, 2235.00
1872, 2234.00
1873, 2233.00
1874, 2232.00
1875, 2230.00
1876, 2228.00
1877, 2226.00
1878, 2226.00
1879, 2222.00
1880, 2226.00
1881, 2224.00
1882, 2224.00
1883, 2221.00
1884, 2221.00
1885, 2221.00
1886, 2221.00
1887, 2220.00
1888, 2218.00
1889, 2218.00
1890, 2217.00
1891, 2215.00
1892, 2215.00
1893, 2217.00
1894, 2215.00
1895, 2216.00
1896, 2217.00
1897, 2213.00
1898, 2214.00
1899, 2214.00
1900, 2214.00
1901, 2214.00
1902, 2213.00
1903, 2211.00
1904, 2212.00
1905, 2212.00
1906, 2212.00
1907, 2209.00
1908, 2208.00
1909, 2211.00
1910, 2209.00
1911, 2209.00
1912, 2209.00
1913, 2209.00
1914, 2208.00
1915, 2208.00
1916, 2207.00
1917, 2209.00
1918, 2209.00
1919, 2208.00
1920, 2208.00
1921, 2208.00
1922, 2208.00
1923, 2208.00
1924, 2206.00
1925, 2209.00
1926, 2209.00
1927, 2207.00
1928, 2208.00
1929, 2208.00
1930, 2208.00
1931, 2209.00
1932, 2208.00
1933, 2209.00
1934, 2208.00
1935, 2209.00
1936, 2208.00
1937, 2208.00
1938, 2209.00
1939, 2208.00
1940, 2209.00
1941, 2207.00
1942, 2210.00
1943, 2208.00
1944, 2208.00
1945, 2210.00
1946, 2210.00
1947, 2210.00
1948, 2211.00
1949, 2211.00
1950, 2210.00
1951, 2210.00
1952, 2210.00
1953, 2212.00
1954, 2212.00
1955, 2212.00
1956, 2214.00
1957, 2213.00
1958, 2215.00
1959, 2215.00
1960, 2215.00
1961, 2213.00
1962, 2217.00
1963, 2216.00
1964, 2217.00
1965, 2217.00
1966, 2218.00
1967, 2218.00
1968, 2219.00
1969, 2221.00
1970, 2220.00
1971, 2222.00
1972, 2221.00
1973, 2221.00
1974, 2223.00
1975, 2220.00
1976, 2223.00
1977, 2224.00
1978, 2224.00
1979, 2223.00
1980, 2224.00
1981, 2228.00
1982, 2226.00
1983, 2227.00
1984, 2226.00
1985, 2229.00
1986, 2227.00
1987, 2230.00
1988, 2230.00
1989, 2230.00
1990, 2229.00
1991, 2232.00
1992, 2231.00
1993, 2234.00
1994, 2235.00
1995, 2234.00
1996, 2234.00
1997, 2233.00
1998, 2237.00
1999, 2237.00
2000, 2236.00
2001, 2238.00
2002, 2240.00
2003, 2240.00
2004, 2239.00
2005, 2239.00
2006, 2240.00
2007, 2241.00
2008, 2241.00
2009, 2242.00
2010, 2243.00
2011, 2244.00
2012, 2244.00
2013, 2245.00
2014, 2246.00
2015, 2245.00
2016, 2247.00
2017, 2247.00
2018, 2248.00
2019, 2247.00
2020, 2245.00
2021, 2249.00
2022, 2249.00
2023, 2249.00
2024, 2251.00
2025, 2252.00
2026, 2253.00
2027, 2255.00
2028, 2255.00
2029, 2254.00
2030, 2255.00
2031, 2257.00
2032, 2256.00
2033, 2256.00
2034, 2258.00
2035, 2257.00
2036, 2260.00
2037, 2258.00
2038, 2261.00
2039, 2260.00
2040, 2263.00
2041, 2263.00
2042, 2263.00
2043, 2265.00
2044, 2265.00
2045, 2267.00
2046, 2268.00
2047, 2269.00
2048, 2269.00
2049, 2271.00
2050, 2272.00
2051, 2270.00
2052, 2272.00
2053, 2272.00
2054, 2275.00
2055, 2277.00
2056, 2275.00
2057, 2277.00
2058, 2279.00
2059, 2279.00
2060, 2282.00
2061, 2280.00
2062, 2283.00
2063, 2284.00
2064, 2284.00
2065, 2285.00
2066, 2286.00
2067, 2287.00
2068, 2287.00
2069, 2288.00
2070, 2289.00
2071, 2291.00
2072, 2291.00
2073, 2291.00
2074, 2292.00
2075, 2293.00
2076, 2295.00
2077, 2293.00
2078, 2296.00
2079, 2297.00
2080, 2297.00
2081, 2298.00
2082, 2300.00
2083, 2301.00
2084, 2301.00
2085, 2302.00
2086, 2302.00
2087, 2304.00
2088, 2304.00
2089, 2305.00
2090, 2306.00
2091, 2305.00
2092, 2307.00
2093, 2308.00
2094, 2309.00
2095, 2309.00
2096, 2309.00
2097, 2310.00
2098, 2313.00
2099, 2311.00
2100, 2312.00
2101, 2313.00
2102, 2313.00
2103, 2314.00
2104, 2314.00
2105, 2315.00
2106, 2315.00
2107, 2317.00
2108, 2316.00
2109, 2317.00
2110, 2317.00
2111, 2318.00
2112, 2318.00
2113, 2316.00
2114, 2319.00
2115, 2319.00
2116, 2318.00
2117, 2320.00
2118, 2320.00
2119, 2320.00
2120, 2321.00
2121, 2321.00
2122, 2321.00
2123, 2322.00
2124, 2323.00
2125, 2325.00
2126, 2323.00
2127, 2324.00
2128, 2324.00
2129, 2324.00
2130, 2325.00
2131, 2324.00
2132, 2325.00
2133, 2327.00
2134, 2328.00
2135, 2327.00
2136, 2326.00
2137, 2329.00
2138, 2327.00
2139, 2329.00
2140, 2328.00
2141, 2329.00
2142, 2328.00
2143, 2331.00
2144, 2329.00
2145, 2331.00
2146, 2331.00
2147, 2333.00
2148, 2330.00
2149, 2331.00
2150, 2332.00
