FW version: 24
Log Version: 3.0.3

General Info:
       Command/Macro Performed,            Timestamp,             Device ID, COM Port, UART/I2C, Test Name, Host Major, Host Minor, Host Revision, Host Git Commit
            Single_measurement,  2023_06_28_11_43_31,       Insight2_F4_xxx,    USB-C,      USB,          ,          0,          1,             1,      4031237645

Show Spectrometer Status:
l0_version, f4_version, battery_perc, battery_mVolt, accelerometer_temp, accelerometer_x, accelerometer_y, accelerometer_z, compass_temp, compass_x, compass_y, compass_z, lamp_0, lamp_1, gain_0, gain_1
        17,         24,           46,          1901,               6560,           65280,            1288,           18820,            0,     65415,     65434,     18877,   2866,   2866,      1,      1

Temperature Statistic Info:
NTC AVG [°C], NTC2 AVG [°C]
      40.381,        40.024

Statistic Info:
M1:  num,      min,      max,   median,      AVG,      STD,M2:  num,      min,      max,   median,      AVG,      STD
     301,  1682.00,  1964.00,  1739.00,  1774.41,  87.5768,     401,  2205.00,  2371.00,  2273.00,  2277.91,  54.3096,

Measurements:
Wavelength, Data Amplitude
1350, 1734.00
1351, 1734.00
1352, 1732.00
1353, 1731.00
1354, 1730.00
1355, 1729.00
1356, 1728.00
1357, 1726.00
1358, 1726.00
1359, 1725.00
1360, 1724.00
1361, 1722.00
1362, 1720.00
1363, 1720.00
1364, 1718.00
1365, 1717.00
1366, 1717.00
1367, 1715.00
1368, 1713.00
1369, 1711.00
1370, 1710.00
1371, 1709.00
1372, 1706.00
1373, 1706.00
1374, 1704.00
1375, 1702.00
1376, 1701.00
1377, 1701.00
1378, 1699.00
1379, 1699.00
1380, 1698.00
1381, 1697.00
1382, 1695.00
1383, 1695.00
1384, 1694.00
1385, 1693.00
1386, 1692.00
1387, 1691.00
1388, 1691.00
1389, 1690.00
1390, 1689.00
1391, 1688.00
1392, 1689.00
1393, 1689.00
1394, 1688.00
1395, 1687.00
1396, 1689.00
1397, 1687.00
1398, 1686.00
1399, 1687.00
1400, 1685.00
1401, 1686.00
1402, 1686.00
1403, 1686.00
1404, 1684.00
1405, 1685.00
1406, 1683.00
1407, 1685.00
1408, 1683.00
1409, 1684.00
1410, 1684.00
1411, 1684.00
1412, 1683.00
1413, 1683.00
1414, 1683.00
1415, 1682.00
1416, 1682.00
1417, 1682.00
1418, 1683.00
1419, 1684.00
1420, 1684.00
1421, 1682.00
1422, 1683.00
1423, 1682.00
1424, 1683.00
1425, 1682.00
1426, 1683.00
1427, 1683.00
1428, 1684.00
1429, 1684.00
1430, 1683.00
1431, 1684.00
1432, 1685.00
1433, 1685.00
1434, 1685.00
1435, 1686.00
1436, 1687.00
1437, 1686.00
1438, 1688.00
1439, 1687.00
1440, 1689.00
1441, 1688.00
1442, 1689.00
1443, 1690.00
1444, 1690.00
1445, 1690.00
1446, 1690.00
1447, 1691.00
1448, 1692.00
1449, 1692.00
1450, 1692.00
1451, 1693.00
1452, 1694.00
1453, 1694.00
1454, 1694.00
1455, 1695.00
1456, 1696.00
1457, 1697.00
1458, 1697.00
1459, 1699.00
1460, 1699.00
1461, 1700.00
1462, 1700.00
1463, 1701.00
1464, 1702.00
1465, 1703.00
1466, 1703.00
1467, 1704.00
1468, 1706.00
1469, 1706.00
1470, 1707.00
1471, 1707.00
1472, 1709.00
1473, 1710.00
1474, 1712.00
1475, 1712.00
1476, 1713.00
1477, 1714.00
1478, 1713.00
1479, 1716.00
1480, 1717.00
1481, 1718.00
1482, 1719.00
1483, 1720.00
1484, 1721.00
1485, 1723.00
1486, 1723.00
1487, 1724.00
1488, 1725.00
1489, 1726.00
1490, 1727.00
1491, 1728.00
1492, 1729.00
1493, 1731.00
1494, 1732.00
1495, 1734.00
1496, 1734.00
1497, 1735.00
1498, 1737.00
1499, 1738.00
1500, 1739.00
1501, 1740.00
1502, 1741.00
1503, 1741.00
1504, 1744.00
1505, 1745.00
1506, 1747.00
1507, 1747.00
1508, 1749.00
1509, 1750.00
1510, 1752.00
1511, 1752.00
1512, 1753.00
1513, 1754.00
1514, 1756.00
1515, 1758.00
1516, 1759.00
1517, 1761.00
1518, 1761.00
1519, 1762.00
1520, 1764.00
1521, 1766.00
1522, 1767.00
1523, 1768.00
1524, 1770.00
1525, 1771.00
1526, 1772.00
1527, 1774.00
1528, 1775.00
1529, 1775.00
1530, 1777.00
1531, 1779.00
1532, 1780.00
1533, 1782.00
1534, 1784.00
1535, 1785.00
1536, 1786.00
1537, 1786.00
1538, 1789.00
1539, 1790.00
1540, 1792.00
1541, 1793.00
1542, 1795.00
1543, 1796.00
1544, 1799.00
1545, 1798.00
1546, 1801.00
1547, 1803.00
1548, 1803.00
1549, 1805.00
1550, 1807.00
1551, 1808.00
1552, 1810.00
1553, 1812.00
1554, 1813.00
1555, 1814.00
1556, 1815.00
1557, 1818.00
1558, 1819.00
1559, 1821.00
1560, 1822.00
1561, 1823.00
1562, 1825.00
1563, 1827.00
1564, 1829.00
1565, 1830.00
1566, 1832.00
1567, 1833.00
1568, 1835.00
1569, 1835.00
1570, 1839.00
1571, 1839.00
1572, 1841.00
1573, 1843.00
1574, 1845.00
1575, 1847.00
1576, 1848.00
1577, 1848.00
1578, 1851.00
1579, 1852.00
1580, 1854.00
1581, 1855.00
1582, 1857.00
1583, 1859.00
1584, 1860.00
1585, 1861.00
1586, 1862.00
1587, 1864.00
1588, 1864.00
1589, 1867.00
1590, 1867.00
1591, 1869.00
1592, 1871.00
1593, 1872.00
1594, 1874.00
1595, 1875.00
1596, 1875.00
1597, 1879.00
1598, 1879.00
1599, 1881.00
1600, 1881.00
1601, 1883.00
1602, 1885.00
1603, 1886.00
1604, 1889.00
1605, 1890.00
1606, 1891.00
1607, 1894.00
1608, 1895.00
1609, 1898.00
1610, 1898.00
1611, 1900.00
1612, 1902.00
1613, 1903.00
1614, 1906.00
1615, 1907.00
1616, 1910.00
1617, 1911.00
1618, 1913.00
1619, 1915.00
1620, 1917.00
1621, 1918.00
1622, 1919.00
1623, 1921.00
1624, 1924.00
1625, 1924.00
1626, 1927.00
1627, 1930.00
1628, 1929.00
1629, 1931.00
1630, 1933.00
1631, 1934.00
1632, 1936.00
1633, 1938.00
1634, 1940.00
1635, 1942.00
1636, 1943.00
1637, 1945.00
1638, 1946.00
1639, 1946.00
1640, 1951.00
1641, 1950.00
1642, 1951.00
1643, 1953.00
1644, 1955.00
1645, 1956.00
1646, 1957.00
1647, 1960.00
1648, 1961.00
1649, 1961.00
1650, 1964.00

1750, 2370.00
1751, 2368.00
1752, 2371.00
1753, 2371.00
1754, 2371.00
1755, 2370.00
1756, 2369.00
1757, 2369.00
1758, 2370.00
1759, 2371.00
1760, 2370.00
1761, 2370.00
1762, 2371.00
1763, 2369.00
1764, 2369.00
1765, 2367.00
1766, 2367.00
1767, 2370.00
1768, 2368.00
1769, 2368.00
1770, 2367.00
1771, 2366.00
1772, 2367.00
1773, 2364.00
1774, 2367.00
1775, 2366.00
1776, 2363.00
1777, 2365.00
1778, 2363.00
1779, 2365.00
1780, 2364.00
1781, 2361.00
1782, 2360.00
1783, 2360.00
1784, 2361.00
1785, 2359.00
1786, 2359.00
1787, 2358.00
1788, 2357.00
1789, 2357.00
1790, 2359.00
1791, 2357.00
1792, 2357.00
1793, 2356.00
1794, 2356.00
1795, 2353.00
1796, 2352.00
1797, 2354.00
1798, 2354.00
1799, 2353.00
1800, 2354.00
1801, 2350.00
1802, 2350.00
1803, 2351.00
1804, 2352.00
1805, 2349.00
1806, 2349.00
1807, 2349.00
1808, 2348.00
1809, 2348.00
1810, 2347.00
1811, 2346.00
1812, 2345.00
1813, 2344.00
1814, 2343.00
1815, 2344.00
1816, 2342.00
1817, 2342.00
1818, 2341.00
1819, 2337.00
1820, 2338.00
1821, 2338.00
1822, 2335.00
1823, 2334.00
1824, 2332.00
1825, 2329.00
1826, 2332.00
1827, 2329.00
1828, 2327.00
1829, 2327.00
1830, 2323.00
1831, 2324.00
1832, 2320.00
1833, 2319.00
1834, 2318.00
1835, 2314.00
1836, 2313.00
1837, 2310.00
1838, 2308.00
1839, 2306.00
1840, 2304.00
1841, 2302.00
1842, 2299.00
1843, 2297.00
1844, 2294.00
1845, 2290.00
1846, 2289.00
1847, 2287.00
1848, 2285.00
1849, 2279.00
1850, 2278.00
1851, 2275.00
1852, 2274.00
1853, 2273.00
1854, 2268.00
1855, 2266.00
1856, 2263.00
1857, 2261.00
1858, 2259.00
1859, 2256.00
1860, 2255.00
1861, 2252.00
1862, 2252.00
1863, 2248.00
1864, 2246.00
1865, 2244.00
1866, 2243.00
1867, 2240.00
1868, 2239.00
1869, 2237.00
1870, 2235.00
1871, 2232.00
1872, 2231.00
1873, 2229.00
1874, 2233.00
1875, 2229.00
1876, 2229.00
1877, 2228.00
1878, 2226.00
1879, 2224.00
1880, 2225.00
1881, 2223.00
1882, 2223.00
1883, 2221.00
1884, 2221.00
1885, 2221.00
1886, 2218.00
1887, 2220.00
1888, 2217.00
1889, 2218.00
1890, 2218.00
1891, 2215.00
1892, 2214.00
1893, 2215.00
1894, 2214.00
1895, 2213.00
1896, 2214.00
1897, 2213.00
1898, 2211.00
1899, 2211.00
1900, 2210.00
1901, 2213.00
1902, 2211.00
1903, 2208.00
1904, 2209.00
1905, 2212.00
1906, 2209.00
1907, 2208.00
1908, 2210.00
1909, 2209.00
1910, 2208.00
1911, 2208.00
1912, 2211.00
1913, 2207.00
1914, 2208.00
1915, 2209.00
1916, 2209.00
1917, 2208.00
1918, 2207.00
1919, 2208.00
1920, 2207.00
1921, 2207.00
1922, 2209.00
1923, 2207.00
1924, 2208.00
1925, 2210.00
1926, 2207.00
1927, 2205.00
1928, 2206.00
1929, 2206.00
1930, 2206.00
1931, 2208.00
1932, 2205.00
1933, 2208.00
1934, 2206.00
1935, 2209.00
1936, 2206.00
1937, 2208.00
1938, 2209.00
1939, 2207.00
1940, 2207.00
1941, 2208.00
1942, 2209.00
1943, 2211.00
1944, 2209.00
1945, 2209.00
1946, 2210.00
1947, 2209.00
1948, 2211.00
1949, 2210.00
1950, 2211.00
1951, 2211.00
1952, 2213.00
1953, 2212.00
1954, 2212.00
1955, 2213.00
1956, 2213.00
1957, 2213.00
1958, 2214.00
1959, 2214.00
1960, 2214.00
1961, 2214.00
1962, 2215.00
1963, 2216.00
1964, 2216.00
1965, 2218.00
1966, 2217.00
1967, 2220.00
1968, 2219.00
1969, 2218.00
1970, 2219.00
1971, 2221.00
1972, 2220.00
1973, 2221.00
1974, 2220.00
1975, 2221.00
1976, 2222.00
1977, 2223.00
1978, 2224.00
1979, 2223.00
1980, 2226.00
1981, 2227.00
1982, 2227.00
1983, 2228.00
1984, 2228.00
1985, 2228.00
1986, 2227.00
1987, 2229.00
1988, 2231.00
1989, 2230.00
1990, 2230.00
1991, 2231.00
1992, 2231.00
1993, 2233.00
1994, 2233.00
1995, 2234.00
1996, 2235.00
1997, 2233.00
1998, 2234.00
1999, 2236.00
2000, 2235.00
2001, 2235.00
2002, 2237.00
2003, 2239.00
2004, 2239.00
2005, 2241.00
2006, 2239.00
2007, 2240.00
2008, 2241.00
2009, 2243.00
2010, 2242.00
2011, 2243.00
2012, 2245.00
2013, 2244.00
2014, 2246.00
2015, 2244.00
2016, 2245.00
2017, 2248.00
2018, 2247.00
2019, 2247.00
2020, 2247.00
2021, 2247.00
2022, 2249.00
2023, 2248.00
2024, 2252.00
2025, 2252.00
2026, 2253.00
2027, 2252.00
2028, 2252.00
2029, 2255.00
2030, 2255.00
2031, 2256.00
2032, 2256.00
2033, 2258.00
2034, 2258.00
2035, 2259.00
2036, 2257.00
2037, 2260.00
2038, 2259.00
2039, 2262.00
2040, 2262.00
2041, 2263.00
2042, 2265.00
2043, 2263.00
2044, 2264.00
2045, 2267.00
2046, 2266.00
2047, 2266.00
2048, 2269.00
2049, 2269.00
2050, 2271.00
2051, 2272.00
2052, 2273.00
2053, 2273.00
2054, 2273.00
2055, 2275.00
2056, 2275.00
2057, 2276.00
2058, 2276.00
2059, 2278.00
2060, 2278.00
2061, 2280.00
2062, 2283.00
2063, 2282.00
2064, 2283.00
2065, 2283.00
2066, 2284.00
2067, 2286.00
2068, 2285.00
2069, 2288.00
2070, 2287.00
2071, 2290.00
2072, 2290.00
2073, 2292.00
2074, 2293.00
2075, 2295.00
2076, 2294.00
2077, 2293.00
2078, 2294.00
2079, 2297.00
2080, 2298.00
2081, 2297.00
2082, 2299.00
2083, 2300.00
2084, 2301.00
2085, 2301.00
2086, 2302.00
2087, 2302.00
2088, 2302.00
2089, 2304.00
2090, 2304.00
2091, 2305.00
2092, 2307.00
2093, 2307.00
2094, 2308.00
2095, 2308.00
2096, 2309.00
2097, 2310.00
2098, 2311.00
2099, 2311.00
2100, 2312.00
2101, 2312.00
2102, 2313.00
2103, 2314.00
2104, 2314.00
2105, 2314.00
2106, 2314.00
2107, 2314.00
2108, 2317.00
2109, 2313.00
2110, 2316.00
2111, 2317.00
2112, 2317.00
2113, 2320.00
2114, 2320.00
2115, 2318.00
2116, 2321.00
2117, 2318.00
2118, 2320.00
2119, 2320.00
2120, 2321.00
2121, 2320.00
2122, 2322.00
2123, 2322.00
2124, 2323.00
2125, 2323.00
2126, 2323.00
2127, 2323.00
2128, 2325.00
2129, 2325.00
2130, 2324.00
2131, 2326.00
2132, 2326.00
2133, 2325.00
2134, 2326.00
2135, 2324.00
2136, 2326.00
2137, 2328.00
2138, 2329.00
2139, 2329.00
2140, 2328.00
2141, 2328.00
2142, 2330.00
2143, 2329.00
2144, 2331.00
2145, 2331.00
2146, 2331.00
2147, 2331.00
2148, 2330.00
2149, 2331.00
2150, 2332.00
