FW version: 24
Log Version: 3.0.3

General Info:
       Command/Macro Performed,            Timestamp,             Device ID, COM Port, UART/I2C, Test Name, Host Major, Host Minor, Host Revision, Host Git Commit
            Single_measurement,  2023_06_27_11_32_12,       Insight2_F4_xxx,    USB-C,      USB,          ,          0,          1,             1,      4031237645

Show Spectrometer Status:
l0_version, f4_version, battery_perc, battery_mVolt, accelerometer_temp, accelerometer_x, accelerometer_y, accelerometer_z, compass_temp, compass_x, compass_y, compass_z, lamp_0, lamp_1, gain_0, gain_1
        17,         24,           95,          2078,               5312,           65188,           65516,           18432,            0,     65462,     65516,     65466,   2047,   2047,    1,    1

Temperature Statistic Info:
NTC AVG [°C], NTC2 AVG [°C]
      36.265,        35.948

Statistic Info:
M1:  num,      min,      max,   median,      AVG,      STD,M2:  num,      min,      max,   median,      AVG,      STD
     301,   607.00,   690.00,   626.00,   634.50,  25.0879,     401,   918.00,   976.00,   942.00,   944.19,  18.8284,

Measurements:
Wavelength, Data Amplitude
1350, 620.00
1351, 619.00
1352, 619.00
1353, 620.00
1354, 618.00
1355, 619.00
1356, 618.00
1357, 619.00
1358, 618.00
1359, 617.00
1360, 618.00
1361, 617.00
1362, 617.00
1363, 616.00
1364, 616.00
1365, 616.00
1366, 615.00
1367, 614.00
1368, 615.00
1369, 615.00
1370, 614.00
1371, 615.00
1372, 613.00
1373, 614.00
1374, 614.00
1375, 612.00
1376, 612.00
1377, 612.00
1378, 611.00
1379, 612.00
1380, 611.00
1381, 611.00
1382, 610.00
1383, 611.00
1384, 610.00
1385, 611.00
1386, 610.00
1387, 610.00
1388, 610.00
1389, 610.00
1390, 609.00
1391, 609.00
1392, 609.00
1393, 609.00
1394, 609.00
1395, 609.00
1396, 609.00
1397, 608.00
1398, 608.00
1399, 608.00
1400, 608.00
1401, 608.00
1402, 609.00
1403, 608.00
1404, 608.00
1405, 608.00
1406, 608.00
1407, 608.00
1408, 608.00
1409, 607.00
1410, 608.00
1411, 609.00
1412, 608.00
1413, 608.00
1414, 608.00
1415, 609.00
1416, 608.00
1417, 608.00
1418, 608.00
1419, 609.00
1420, 608.00
1421, 608.00
1422, 608.00
1423, 608.00
1424, 608.00
1425, 609.00
1426, 608.00
1427, 608.00
1428, 608.00
1429, 608.00
1430, 608.00
1431, 608.00
1432, 608.00
1433, 608.00
1434, 609.00
1435, 608.00
1436, 609.00
1437, 610.00
1438, 610.00
1439, 609.00
1440, 609.00
1441, 610.00
1442, 610.00
1443, 610.00
1444, 610.00
1445, 611.00
1446, 611.00
1447, 611.00
1448, 612.00
1449, 611.00
1450, 611.00
1451, 612.00
1452, 612.00
1453, 612.00
1454, 613.00
1455, 612.00
1456, 612.00
1457, 612.00
1458, 613.00
1459, 613.00
1460, 613.00
1461, 613.00
1462, 612.00
1463, 613.00
1464, 614.00
1465, 615.00
1466, 614.00
1467, 615.00
1468, 615.00
1469, 615.00
1470, 616.00
1471, 616.00
1472, 616.00
1473, 617.00
1474, 617.00
1475, 617.00
1476, 616.00
1477, 618.00
1478, 618.00
1479, 618.00
1480, 619.00
1481, 618.00
1482, 619.00
1483, 620.00
1484, 620.00
1485, 620.00
1486, 620.00
1487, 622.00
1488, 622.00
1489, 622.00
1490, 622.00
1491, 622.00
1492, 623.00
1493, 624.00
1494, 623.00
1495, 625.00
1496, 625.00
1497, 624.00
1498, 626.00
1499, 627.00
1500, 626.00
1501, 627.00
1502, 626.00
1503, 627.00
1504, 627.00
1505, 628.00
1506, 628.00
1507, 629.00
1508, 629.00
1509, 630.00
1510, 630.00
1511, 630.00
1512, 630.00
1513, 631.00
1514, 631.00
1515, 632.00
1516, 631.00
1517, 634.00
1518, 633.00
1519, 632.00
1520, 634.00
1521, 635.00
1522, 636.00
1523, 636.00
1524, 635.00
1525, 636.00
1526, 636.00
1527, 637.00
1528, 638.00
1529, 638.00
1530, 638.00
1531, 639.00
1532, 640.00
1533, 639.00
1534, 640.00
1535, 639.00
1536, 640.00
1537, 640.00
1538, 641.00
1539, 641.00
1540, 641.00
1541, 642.00
1542, 641.00
1543, 643.00
1544, 642.00
1545, 643.00
1546, 644.00
1547, 644.00
1548, 645.00
1549, 645.00
1550, 645.00
1551, 645.00
1552, 646.00
1553, 646.00
1554, 646.00
1555, 647.00
1556, 647.00
1557, 647.00
1558, 648.00
1559, 647.00
1560, 648.00
1561, 649.00
1562, 650.00
1563, 650.00
1564, 650.00
1565, 650.00
1566, 651.00
1567, 651.00
1568, 652.00
1569, 651.00
1570, 652.00
1571, 653.00
1572, 653.00
1573, 654.00
1574, 654.00
1575, 655.00
1576, 655.00
1577, 655.00
1578, 656.00
1579, 657.00
1580, 656.00
1581, 656.00
1582, 657.00
1583, 658.00
1584, 658.00
1585, 659.00
1586, 659.00
1587, 658.00
1588, 660.00
1589, 661.00
1590, 659.00
1591, 660.00
1592, 662.00
1593, 662.00
1594, 663.00
1595, 663.00
1596, 664.00
1597, 664.00
1598, 663.00
1599, 664.00
1600, 664.00
1601, 665.00
1602, 664.00
1603, 666.00
1604, 665.00
1605, 667.00
1606, 667.00
1607, 668.00
1608, 668.00
1609, 668.00
1610, 669.00
1611, 670.00
1612, 670.00
1613, 671.00
1614, 672.00
1615, 672.00
1616, 673.00
1617, 673.00
1618, 673.00
1619, 674.00
1620, 674.00
1621, 675.00
1622, 675.00
1623, 676.00
1624, 676.00
1625, 677.00
1626, 678.00
1627, 678.00
1628, 678.00
1629, 678.00
1630, 680.00
1631, 680.00
1632, 680.00
1633, 681.00
1634, 682.00
1635, 682.00
1636, 683.00
1637, 683.00
1638, 683.00
1639, 684.00
1640, 684.00
1641, 685.00
1642, 686.00
1643, 686.00
1644, 686.00
1645, 686.00
1646, 687.00
1647, 687.00
1648, 688.00
1649, 688.00
1650, 690.00

1750, 974.00
1751, 975.00
1752, 973.00
1753, 976.00
1754, 976.00
1755, 975.00
1756, 975.00
1757, 975.00
1758, 974.00
1759, 974.00
1760, 976.00
1761, 974.00
1762, 976.00
1763, 974.00
1764, 975.00
1765, 975.00
1766, 974.00
1767, 975.00
1768, 975.00
1769, 974.00
1770, 973.00
1771, 974.00
1772, 975.00
1773, 974.00
1774, 975.00
1775, 973.00
1776, 973.00
1777, 974.00
1778, 973.00
1779, 972.00
1780, 974.00
1781, 973.00
1782, 973.00
1783, 972.00
1784, 974.00
1785, 972.00
1786, 973.00
1787, 972.00
1788, 972.00
1789, 971.00
1790, 971.00
1791, 972.00
1792, 971.00
1793, 971.00
1794, 970.00
1795, 970.00
1796, 970.00
1797, 971.00
1798, 969.00
1799, 969.00
1800, 970.00
1801, 968.00
1802, 969.00
1803, 969.00
1804, 968.00
1805, 967.00
1806, 967.00
1807, 967.00
1808, 968.00
1809, 968.00
1810, 968.00
1811, 967.00
1812, 966.00
1813, 965.00
1814, 966.00
1815, 967.00
1816, 965.00
1817, 965.00
1818, 966.00
1819, 963.00
1820, 966.00
1821, 966.00
1822, 964.00
1823, 963.00
1824, 963.00
1825, 961.00
1826, 962.00
1827, 961.00
1828, 962.00
1829, 962.00
1830, 961.00
1831, 959.00
1832, 959.00
1833, 959.00
1834, 958.00
1835, 957.00
1836, 957.00
1837, 955.00
1838, 956.00
1839, 955.00
1840, 954.00
1841, 952.00
1842, 952.00
1843, 951.00
1844, 949.00
1845, 949.00
1846, 950.00
1847, 946.00
1848, 946.00
1849, 945.00
1850, 943.00
1851, 943.00
1852, 944.00
1853, 943.00
1854, 941.00
1855, 941.00
1856, 940.00
1857, 939.00
1858, 937.00
1859, 937.00
1860, 937.00
1861, 935.00
1862, 936.00
1863, 933.00
1864, 933.00
1865, 934.00
1866, 931.00
1867, 932.00
1868, 931.00
1869, 929.00
1870, 930.00
1871, 928.00
1872, 929.00
1873, 929.00
1874, 927.00
1875, 927.00
1876, 927.00
1877, 926.00
1878, 924.00
1879, 926.00
1880, 925.00
1881, 926.00
1882, 925.00
1883, 925.00
1884, 924.00
1885, 925.00
1886, 924.00
1887, 924.00
1888, 924.00
1889, 924.00
1890, 923.00
1891, 922.00
1892, 924.00
1893, 924.00
1894, 923.00
1895, 922.00
1896, 921.00
1897, 921.00
1898, 923.00
1899, 921.00
1900, 921.00
1901, 922.00
1902, 920.00
1903, 921.00
1904, 921.00
1905, 920.00
1906, 920.00
1907, 920.00
1908, 920.00
1909, 919.00
1910, 920.00
1911, 921.00
1912, 921.00
1913, 920.00
1914, 920.00
1915, 921.00
1916, 921.00
1917, 919.00
1918, 921.00
1919, 920.00
1920, 920.00
1921, 921.00
1922, 920.00
1923, 919.00
1924, 919.00
1925, 919.00
1926, 919.00
1927, 919.00
1928, 921.00
1929, 920.00
1930, 920.00
1931, 920.00
1932, 919.00
1933, 918.00
1934, 920.00
1935, 919.00
1936, 920.00
1937, 919.00
1938, 919.00
1939, 920.00
1940, 919.00
1941, 920.00
1942, 921.00
1943, 919.00
1944, 921.00
1945, 921.00
1946, 921.00
1947, 921.00
1948, 921.00
1949, 921.00
1950, 921.00
1951, 922.00
1952, 921.00
1953, 921.00
1954, 922.00
1955, 921.00
1956, 922.00
1957, 923.00
1958, 920.00
1959, 922.00
1960, 922.00
1961, 921.00
1962, 922.00
1963, 922.00
1964, 922.00
1965, 922.00
1966, 923.00
1967, 923.00
1968, 924.00
1969, 924.00
1970, 922.00
1971, 925.00
1972, 924.00
1973, 925.00
1974, 925.00
1975, 925.00
1976, 925.00
1977, 926.00
1978, 926.00
1979, 926.00
1980, 926.00
1981, 925.00
1982, 925.00
1983, 925.00
1984, 926.00
1985, 927.00
1986, 928.00
1987, 928.00
1988, 926.00
1989, 927.00
1990, 928.00
1991, 928.00
1992, 929.00
1993, 928.00
1994, 928.00
1995, 927.00
1996, 928.00
1997, 928.00
1998, 929.00
1999, 930.00
2000, 929.00
2001, 929.00
2002, 930.00
2003, 930.00
2004, 929.00
2005, 931.00
2006, 930.00
2007, 932.00
2008, 930.00
2009, 930.00
2010, 930.00
2011, 932.00
2012, 933.00
2013, 932.00
2014, 932.00
2015, 931.00
2016, 932.00
2017, 933.00
2018, 933.00
2019, 934.00
2020, 935.00
2021, 933.00
2022, 935.00
2023, 934.00
2024, 934.00
2025, 934.00
2026, 935.00
2027, 935.00
2028, 936.00
2029, 935.00
2030, 936.00
2031, 937.00
2032, 937.00
2033, 936.00
2034, 936.00
2035, 937.00
2036, 937.00
2037, 937.00
2038, 937.00
2039, 939.00
2040, 938.00
2041, 938.00
2042, 939.00
2043, 939.00
2044, 938.00
2045, 941.00
2046, 940.00
2047, 940.00
2048, 942.00
2049, 939.00
2050, 941.00
2051, 941.00
2052, 942.00
2053, 941.00
2054, 942.00
2055, 944.00
2056, 943.00
2057, 943.00
2058, 944.00
2059, 944.00
2060, 944.00
2061, 946.00
2062, 947.00
2063, 946.00
2064, 946.00
2065, 947.00
2066, 948.00
2067, 947.00
2068, 948.00
2069, 948.00
2070, 947.00
2071, 949.00
2072, 951.00
2073, 949.00
2074, 949.00
2075, 949.00
2076, 949.00
2077, 950.00
2078, 952.00
2079, 950.00
2080, 952.00
2081, 953.00
2082, 951.00
2083, 953.00
2084, 953.00
2085, 953.00
2086, 953.00
2087, 954.00
2088, 954.00
2089, 953.00
2090, 954.00
2091, 955.00
2092, 955.00
2093, 955.00
2094, 955.00
2095, 954.00
2096, 953.00
2097, 956.00
2098, 957.00
2099, 957.00
2100, 957.00
2101, 956.00
2102, 957.00
2103, 956.00
2104, 956.00
2105, 958.00
2106, 957.00
2107, 957.00
2108, 959.00
2109, 959.00
2110, 961.00
2111, 958.00
2112, 957.00
2113, 958.00
2114, 959.00
2115, 961.00
2116, 959.00
2117, 960.00
2118, 959.00
2119, 960.00
2120, 961.00
2121, 961.00
2122, 961.00
2123, 961.00
2124, 961.00
2125, 961.00
2126, 960.00
2127, 961.00
2128, 962.00
2129, 961.00
2130, 962.00
2131, 962.00
2132, 963.00
2133, 962.00
2134, 964.00
2135, 962.00
2136, 962.00
2137, 961.00
2138, 963.00
2139, 965.00
2140, 962.00
2141, 963.00
2142, 963.00
2143, 963.00
2144, 963.00
2145, 964.00
2146, 964.00
2147, 964.00
2148, 965.00
2149, 965.00
2150, 964.00
