FW version: 24
Log Version: 3.0.3

General Info:
       Command/Macro Performed,            Timestamp,             Device ID, COM Port, UART/I2C, Test Name, Host Major, Host Minor, Host Revision, Host Git Commit
            Single_measurement,  2023_06_27_11_32_02,       Insight2_F4_xxx,    USB-C,      USB,          ,          0,          1,             1,      4031237645

Show Spectrometer Status:
l0_version, f4_version, battery_perc, battery_mVolt, accelerometer_temp, accelerometer_x, accelerometer_y, accelerometer_z, compass_temp, compass_x, compass_y, compass_z, lamp_0, lamp_1, gain_0, gain_1
        17,         24,           95,          2077,               5296,           65520,             200,           18456,            0,     65522,     65517,     65469,   3276,   3276,    0,    0

Temperature Statistic Info:
NTC AVG [°C], NTC2 AVG [°C]
      36.207,        35.893

Statistic Info:
M1:  num,      min,      max,   median,      AVG,      STD,M2:  num,      min,      max,   median,      AVG,      STD
     301,   527.00,   589.00,   539.00,   547.25,  19.1945,     401,   701.00,   745.00,   718.00,   719.88,  14.0832,

Measurements:
Wavelength, Data Amplitude
1350, 539.00
1351, 539.00
1352, 539.00
1353, 539.00
1354, 538.00
1355, 538.00
1356, 538.00
1357, 538.00
1358, 538.00
1359, 537.00
1360, 537.00
1361, 536.00
1362, 537.00
1363, 536.00
1364, 536.00
1365, 536.00
1366, 535.00
1367, 535.00
1368, 534.00
1369, 534.00
1370, 534.00
1371, 533.00
1372, 533.00
1373, 533.00
1374, 532.00
1375, 532.00
1376, 532.00
1377, 532.00
1378, 531.00
1379, 531.00
1380, 531.00
1381, 531.00
1382, 531.00
1383, 530.00
1384, 530.00
1385, 530.00
1386, 530.00
1387, 530.00
1388, 529.00
1389, 529.00
1390, 529.00
1391, 529.00
1392, 529.00
1393, 529.00
1394, 528.00
1395, 528.00
1396, 528.00
1397, 529.00
1398, 528.00
1399, 528.00
1400, 528.00
1401, 528.00
1402, 528.00
1403, 528.00
1404, 528.00
1405, 528.00
1406, 528.00
1407, 528.00
1408, 527.00
1409, 527.00
1410, 528.00
1411, 528.00
1412, 528.00
1413, 527.00
1414, 528.00
1415, 527.00
1416, 527.00
1417, 527.00
1418, 527.00
1419, 527.00
1420, 527.00
1421, 527.00
1422, 527.00
1423, 528.00
1424, 527.00
1425, 528.00
1426, 527.00
1427, 527.00
1428, 528.00
1429, 527.00
1430, 527.00
1431, 527.00
1432, 528.00
1433, 527.00
1434, 527.00
1435, 527.00
1436, 528.00
1437, 528.00
1438, 528.00
1439, 528.00
1440, 528.00
1441, 528.00
1442, 528.00
1443, 528.00
1444, 528.00
1445, 528.00
1446, 528.00
1447, 529.00
1448, 529.00
1449, 529.00
1450, 529.00
1451, 529.00
1452, 529.00
1453, 529.00
1454, 529.00
1455, 530.00
1456, 530.00
1457, 530.00
1458, 529.00
1459, 530.00
1460, 530.00
1461, 531.00
1462, 531.00
1463, 530.00
1464, 531.00
1465, 531.00
1466, 532.00
1467, 531.00
1468, 531.00
1469, 532.00
1470, 531.00
1471, 532.00
1472, 533.00
1473, 533.00
1474, 533.00
1475, 533.00
1476, 533.00
1477, 533.00
1478, 534.00
1479, 534.00
1480, 534.00
1481, 535.00
1482, 534.00
1483, 535.00
1484, 535.00
1485, 535.00
1486, 536.00
1487, 536.00
1488, 536.00
1489, 537.00
1490, 537.00
1491, 537.00
1492, 537.00
1493, 537.00
1494, 538.00
1495, 538.00
1496, 538.00
1497, 539.00
1498, 539.00
1499, 539.00
1500, 539.00
1501, 540.00
1502, 540.00
1503, 540.00
1504, 540.00
1505, 541.00
1506, 541.00
1507, 541.00
1508, 542.00
1509, 542.00
1510, 542.00
1511, 542.00
1512, 542.00
1513, 543.00
1514, 544.00
1515, 544.00
1516, 544.00
1517, 544.00
1518, 544.00
1519, 545.00
1520, 545.00
1521, 545.00
1522, 546.00
1523, 546.00
1524, 546.00
1525, 547.00
1526, 546.00
1527, 547.00
1528, 548.00
1529, 548.00
1530, 548.00
1531, 549.00
1532, 549.00
1533, 549.00
1534, 549.00
1535, 550.00
1536, 550.00
1537, 550.00
1538, 550.00
1539, 550.00
1540, 552.00
1541, 551.00
1542, 552.00
1543, 552.00
1544, 552.00
1545, 553.00
1546, 553.00
1547, 553.00
1548, 553.00
1549, 553.00
1550, 554.00
1551, 554.00
1552, 555.00
1553, 555.00
1554, 555.00
1555, 556.00
1556, 556.00
1557, 557.00
1558, 557.00
1559, 557.00
1560, 557.00
1561, 558.00
1562, 558.00
1563, 559.00
1564, 559.00
1565, 559.00
1566, 560.00
1567, 560.00
1568, 560.00
1569, 561.00
1570, 561.00
1571, 561.00
1572, 562.00
1573, 562.00
1574, 562.00
1575, 563.00
1576, 563.00
1577, 564.00
1578, 564.00
1579, 564.00
1580, 564.00
1581, 565.00
1582, 565.00
1583, 565.00
1584, 566.00
1585, 566.00
1586, 566.00
1587, 566.00
1588, 567.00
1589, 568.00
1590, 568.00
1591, 568.00
1592, 568.00
1593, 568.00
1594, 568.00
1595, 569.00
1596, 569.00
1597, 570.00
1598, 570.00
1599, 570.00
1600, 571.00
1601, 571.00
1602, 571.00
1603, 572.00
1604, 572.00
1605, 572.00
1606, 573.00
1607, 573.00
1608, 573.00
1609, 574.00
1610, 574.00
1611, 574.00
1612, 575.00
1613, 576.00
1614, 576.00
1615, 576.00
1616, 577.00
1617, 577.00
1618, 578.00
1619, 578.00
1620, 578.00
1621, 579.00
1622, 579.00
1623, 580.00
1624, 580.00
1625, 580.00
1626, 581.00
1627, 581.00
1628, 581.00
1629, 582.00
1630, 583.00
1631, 583.00
1632, 583.00
1633, 584.00
1634, 584.00
1635, 584.00
1636, 585.00
1637, 585.00
1638, 585.00
1639, 585.00
1640, 586.00
1641, 586.00
1642, 586.00
1643, 587.00
1644, 587.00
1645, 587.00
1646, 588.00
1647, 588.00
1648, 588.00
1649, 589.00
1650, 589.00

1750, 744.00
1751, 745.00
1752, 745.00
1753, 745.00
1754, 745.00
1755, 744.00
1756, 744.00
1757, 744.00
1758, 745.00
1759, 744.00
1760, 745.00
1761, 744.00
1762, 745.00
1763, 745.00
1764, 745.00
1765, 745.00
1766, 744.00
1767, 744.00
1768, 744.00
1769, 744.00
1770, 744.00
1771, 744.00
1772, 744.00
1773, 743.00
1774, 743.00
1775, 743.00
1776, 743.00
1777, 744.00
1778, 743.00
1779, 743.00
1780, 743.00
1781, 743.00
1782, 742.00
1783, 743.00
1784, 742.00
1785, 742.00
1786, 742.00
1787, 742.00
1788, 741.00
1789, 742.00
1790, 742.00
1791, 741.00
1792, 741.00
1793, 741.00
1794, 741.00
1795, 741.00
1796, 740.00
1797, 740.00
1798, 741.00
1799, 740.00
1800, 740.00
1801, 740.00
1802, 739.00
1803, 739.00
1804, 738.00
1805, 739.00
1806, 739.00
1807, 739.00
1808, 739.00
1809, 738.00
1810, 738.00
1811, 738.00
1812, 738.00
1813, 738.00
1814, 737.00
1815, 737.00
1816, 737.00
1817, 737.00
1818, 736.00
1819, 736.00
1820, 736.00
1821, 736.00
1822, 735.00
1823, 735.00
1824, 734.00
1825, 735.00
1826, 734.00
1827, 734.00
1828, 734.00
1829, 733.00
1830, 732.00
1831, 732.00
1832, 732.00
1833, 731.00
1834, 730.00
1835, 730.00
1836, 730.00
1837, 729.00
1838, 729.00
1839, 728.00
1840, 727.00
1841, 727.00
1842, 726.00
1843, 726.00
1844, 725.00
1845, 725.00
1846, 724.00
1847, 723.00
1848, 723.00
1849, 722.00
1850, 721.00
1851, 721.00
1852, 720.00
1853, 718.00
1854, 719.00
1855, 718.00
1856, 717.00
1857, 717.00
1858, 716.00
1859, 715.00
1860, 715.00
1861, 714.00
1862, 713.00
1863, 713.00
1864, 713.00
1865, 712.00
1866, 712.00
1867, 711.00
1868, 711.00
1869, 710.00
1870, 710.00
1871, 710.00
1872, 709.00
1873, 709.00
1874, 708.00
1875, 708.00
1876, 708.00
1877, 707.00
1878, 708.00
1879, 707.00
1880, 706.00
1881, 706.00
1882, 706.00
1883, 706.00
1884, 706.00
1885, 705.00
1886, 705.00
1887, 705.00
1888, 705.00
1889, 705.00
1890, 705.00
1891, 704.00
1892, 705.00
1893, 704.00
1894, 704.00
1895, 704.00
1896, 703.00
1897, 704.00
1898, 704.00
1899, 704.00
1900, 703.00
1901, 703.00
1902, 703.00
1903, 703.00
1904, 703.00
1905, 703.00
1906, 703.00
1907, 703.00
1908, 703.00
1909, 702.00
1910, 703.00
1911, 702.00
1912, 703.00
1913, 702.00
1914, 702.00
1915, 702.00
1916, 702.00
1917, 702.00
1918, 702.00
1919, 703.00
1920, 702.00
1921, 701.00
1922, 702.00
1923, 702.00
1924, 702.00
1925, 703.00
1926, 701.00
1927, 702.00
1928, 703.00
1929, 702.00
1930, 702.00
1931, 702.00
1932, 702.00
1933, 703.00
1934, 702.00
1935, 702.00
1936, 702.00
1937, 701.00
1938, 703.00
1939, 702.00
1940, 702.00
1941, 702.00
1942, 703.00
1943, 702.00
1944, 702.00
1945, 702.00
1946, 703.00
1947, 702.00
1948, 702.00
1949, 702.00
1950, 702.00
1951, 703.00
1952, 702.00
1953, 703.00
1954, 702.00
1955, 703.00
1956, 703.00
1957, 703.00
1958, 703.00
1959, 703.00
1960, 703.00
1961, 704.00
1962, 704.00
1963, 704.00
1964, 704.00
1965, 704.00
1966, 704.00
1967, 705.00
1968, 705.00
1969, 705.00
1970, 705.00
1971, 705.00
1972, 705.00
1973, 705.00
1974, 705.00
1975, 705.00
1976, 706.00
1977, 705.00
1978, 706.00
1979, 706.00
1980, 706.00
1981, 707.00
1982, 706.00
1983, 706.00
1984, 707.00
1985, 707.00
1986, 707.00
1987, 707.00
1988, 707.00
1989, 707.00
1990, 707.00
1991, 708.00
1992, 708.00
1993, 708.00
1994, 708.00
1995, 708.00
1996, 708.00
1997, 709.00
1998, 709.00
1999, 709.00
2000, 709.00
2001, 709.00
2002, 710.00
2003, 709.00
2004, 710.00
2005, 709.00
2006, 709.00
2007, 710.00
2008, 710.00
2009, 710.00
2010, 710.00
2011, 710.00
2012, 710.00
2013, 710.00
2014, 711.00
2015, 711.00
2016, 712.00
2017, 711.00
2018, 711.00
2019, 711.00
2020, 712.00
2021, 712.00
2022, 712.00
2023, 712.00
2024, 712.00
2025, 712.00
2026, 713.00
2027, 713.00
2028, 712.00
2029, 712.00
2030, 713.00
2031, 713.00
2032, 713.00
2033, 714.00
2034, 714.00
2035, 714.00
2036, 714.00
2037, 715.00
2038, 715.00
2039, 714.00
2040, 715.00
2041, 715.00
2042, 715.00
2043, 715.00
2044, 716.00
2045, 716.00
2046, 717.00
2047, 716.00
2048, 717.00
2049, 716.00
2050, 717.00
2051, 717.00
2052, 718.00
2053, 718.00
2054, 717.00
2055, 718.00
2056, 719.00
2057, 718.00
2058, 719.00
2059, 720.00
2060, 719.00
2061, 720.00
2062, 720.00
2063, 719.00
2064, 721.00
2065, 720.00
2066, 720.00
2067, 721.00
2068, 721.00
2069, 721.00
2070, 722.00
2071, 722.00
2072, 722.00
2073, 723.00
2074, 722.00
2075, 723.00
2076, 723.00
2077, 723.00
2078, 723.00
2079, 724.00
2080, 723.00
2081, 724.00
2082, 724.00
2083, 724.00
2084, 725.00
2085, 726.00
2086, 725.00
2087, 727.00
2088, 726.00
2089, 726.00
2090, 726.00
2091, 726.00
2092, 726.00
2093, 727.00
2094, 726.00
2095, 726.00
2096, 727.00
2097, 727.00
2098, 728.00
2099, 728.00
2100, 728.00
2101, 728.00
2102, 728.00
2103, 729.00
2104, 728.00
2105, 728.00
2106, 728.00
2107, 728.00
2108, 728.00
2109, 728.00
2110, 729.00
2111, 728.00
2112, 729.00
2113, 729.00
2114, 729.00
2115, 729.00
2116, 730.00
2117, 729.00
2118, 730.00
2119, 729.00
2120, 729.00
2121, 730.00
2122, 730.00
2123, 730.00
2124, 730.00
2125, 731.00
2126, 731.00
2127, 730.00
2128, 731.00
2129, 731.00
2130, 730.00
2131, 731.00
2132, 732.00
2133, 730.00
2134, 731.00
2135, 732.00
2136, 730.00
2137, 732.00
2138, 731.00
2139, 731.00
2140, 731.00
2141, 733.00
2142, 732.00
2143, 732.00
2144, 732.00
2145, 732.00
2146, 732.00
2147, 732.00
2148, 732.00
2149, 732.00
2150, 733.00
