FW version: 24
Log Version: 3.0.3

General Info:
       Command/Macro Performed,            Timestamp,             Device ID, COM Port, UART/I2C, Test Name, Host Major, Host Minor, Host Revision, Host Git Commit
            Single_measurement,  2023_06_27_11_32_15,       Insight2_F4_xxx,    USB-C,      USB,          ,          0,          1,             1,      4031237645

Show Spectrometer Status:
l0_version, f4_version, battery_perc, battery_mVolt, accelerometer_temp, accelerometer_x, accelerometer_y, accelerometer_z, compass_temp, compass_x, compass_y, compass_z, lamp_0, lamp_1, gain_0, gain_1
        17,         24,           95,          2078,               5344,           65296,             100,           18500,            0,     65425,     65381,     65516,   2047,   2047,    1,    1

Temperature Statistic Info:
NTC AVG [°C], NTC2 AVG [°C]
      36.265,        35.976

Statistic Info:
M1:  num,      min,      max,   median,      AVG,      STD,M2:  num,      min,      max,   median,      AVG,      STD
     301,   607.00,   689.00,   626.00,   634.58,  25.0575,     401,   917.00,   977.00,   943.00,   944.40,  18.7803,

Measurements:
Wavelength, Data Amplitude
1350, 620.00
1351, 619.00
1352, 619.00
1353, 620.00
1354, 620.00
1355, 618.00
1356, 619.00
1357, 618.00
1358, 618.00
1359, 618.00
1360, 618.00
1361, 617.00
1362, 618.00
1363, 617.00
1364, 616.00
1365, 616.00
1366, 616.00
1367, 615.00
1368, 615.00
1369, 615.00
1370, 614.00
1371, 614.00
1372, 613.00
1373, 613.00
1374, 614.00
1375, 613.00
1376, 612.00
1377, 611.00
1378, 611.00
1379, 612.00
1380, 611.00
1381, 611.00
1382, 611.00
1383, 611.00
1384, 610.00
1385, 610.00
1386, 610.00
1387, 610.00
1388, 610.00
1389, 609.00
1390, 610.00
1391, 609.00
1392, 609.00
1393, 610.00
1394, 608.00
1395, 609.00
1396, 609.00
1397, 608.00
1398, 609.00
1399, 607.00
1400, 608.00
1401, 609.00
1402, 610.00
1403, 608.00
1404, 608.00
1405, 608.00
1406, 608.00
1407, 608.00
1408, 608.00
1409, 608.00
1410, 608.00
1411, 608.00
1412, 608.00
1413, 608.00
1414, 609.00
1415, 608.00
1416, 608.00
1417, 608.00
1418, 608.00
1419, 608.00
1420, 608.00
1421, 608.00
1422, 608.00
1423, 608.00
1424, 608.00
1425, 608.00
1426, 608.00
1427, 608.00
1428, 608.00
1429, 608.00
1430, 609.00
1431, 610.00
1432, 608.00
1433, 609.00
1434, 609.00
1435, 609.00
1436, 610.00
1437, 610.00
1438, 610.00
1439, 610.00
1440, 609.00
1441, 610.00
1442, 610.00
1443, 610.00
1444, 610.00
1445, 611.00
1446, 610.00
1447, 610.00
1448, 611.00
1449, 611.00
1450, 612.00
1451, 611.00
1452, 612.00
1453, 612.00
1454, 612.00
1455, 613.00
1456, 612.00
1457, 613.00
1458, 613.00
1459, 613.00
1460, 614.00
1461, 613.00
1462, 614.00
1463, 614.00
1464, 615.00
1465, 615.00
1466, 615.00
1467, 615.00
1468, 615.00
1469, 616.00
1470, 616.00
1471, 616.00
1472, 616.00
1473, 617.00
1474, 616.00
1475, 618.00
1476, 618.00
1477, 617.00
1478, 617.00
1479, 618.00
1480, 619.00
1481, 619.00
1482, 619.00
1483, 620.00
1484, 620.00
1485, 620.00
1486, 621.00
1487, 622.00
1488, 622.00
1489, 622.00
1490, 622.00
1491, 622.00
1492, 623.00
1493, 624.00
1494, 623.00
1495, 624.00
1496, 625.00
1497, 625.00
1498, 625.00
1499, 626.00
1500, 626.00
1501, 627.00
1502, 627.00
1503, 627.00
1504, 628.00
1505, 628.00
1506, 627.00
1507, 629.00
1508, 630.00
1509, 630.00
1510, 630.00
1511, 630.00
1512, 631.00
1513, 631.00
1514, 632.00
1515, 633.00
1516, 633.00
1517, 633.00
1518, 633.00
1519, 634.00
1520, 634.00
1521, 635.00
1522, 635.00
1523, 635.00
1524, 635.00
1525, 636.00
1526, 637.00
1527, 637.00
1528, 637.00
1529, 637.00
1530, 638.00
1531, 637.00
1532, 638.00
1533, 639.00
1534, 640.00
1535, 640.00
1536, 641.00
1537, 641.00
1538, 640.00
1539, 641.00
1540, 642.00
1541, 642.00
1542, 642.00
1543, 642.00
1544, 642.00
1545, 643.00
1546, 644.00
1547, 643.00
1548, 644.00
1549, 644.00
1550, 645.00
1551, 644.00
1552, 645.00
1553, 646.00
1554, 647.00
1555, 646.00
1556, 647.00
1557, 648.00
1558, 648.00
1559, 648.00
1560, 649.00
1561, 649.00
1562, 649.00
1563, 649.00
1564, 651.00
1565, 650.00
1566, 651.00
1567, 651.00
1568, 652.00
1569, 651.00
1570, 653.00
1571, 652.00
1572, 653.00
1573, 654.00
1574, 655.00
1575, 655.00
1576, 655.00
1577, 656.00
1578, 655.00
1579, 657.00
1580, 657.00
1581, 657.00
1582, 657.00
1583, 658.00
1584, 658.00
1585, 659.00
1586, 659.00
1587, 659.00
1588, 659.00
1589, 661.00
1590, 660.00
1591, 661.00
1592, 661.00
1593, 662.00
1594, 662.00
1595, 663.00
1596, 663.00
1597, 663.00
1598, 664.00
1599, 665.00
1600, 664.00
1601, 665.00
1602, 666.00
1603, 666.00
1604, 667.00
1605, 667.00
1606, 667.00
1607, 668.00
1608, 668.00
1609, 669.00
1610, 669.00
1611, 669.00
1612, 670.00
1613, 671.00
1614, 671.00
1615, 672.00
1616, 672.00
1617, 673.00
1618, 673.00
1619, 674.00
1620, 675.00
1621, 674.00
1622, 676.00
1623, 677.00
1624, 677.00
1625, 677.00
1626, 678.00
1627, 678.00
1628, 678.00
1629, 679.00
1630, 679.00
1631, 680.00
1632, 680.00
1633, 681.00
1634, 682.00
1635, 682.00
1636, 683.00
1637, 683.00
1638, 683.00
1639, 684.00
1640, 684.00
1641, 685.00
1642, 685.00
1643, 685.00
1644, 687.00
1645, 687.00
1646, 687.00
1647, 687.00
1648, 688.00
1649, 688.00
1650, 689.00

1750, 975.00
1751, 974.00
1752, 974.00
1753, 975.00
1754, 976.00
1755, 975.00
1756, 975.00
1757, 974.00
1758, 977.00
1759, 975.00
1760, 974.00
1761, 973.00
1762, 975.00
1763, 975.00
1764, 975.00
1765, 976.00
1766, 975.00
1767, 976.00
1768, 975.00
1769, 976.00
1770, 973.00
1771, 975.00
1772, 974.00
1773, 974.00
1774, 972.00
1775, 973.00
1776, 974.00
1777, 975.00
1778, 972.00
1779, 973.00
1780, 974.00
1781, 972.00
1782, 974.00
1783, 974.00
1784, 972.00
1785, 973.00
1786, 973.00
1787, 971.00
1788, 972.00
1789, 971.00
1790, 971.00
1791, 971.00
1792, 972.00
1793, 969.00
1794, 971.00
1795, 971.00
1796, 970.00
1797, 970.00
1798, 970.00
1799, 972.00
1800, 970.00
1801, 969.00
1802, 969.00
1803, 969.00
1804, 968.00
1805, 968.00
1806, 968.00
1807, 969.00
1808, 967.00
1809, 967.00
1810, 968.00
1811, 966.00
1812, 968.00
1813, 967.00
1814, 966.00
1815, 967.00
1816, 966.00
1817, 965.00
1818, 965.00
1819, 965.00
1820, 965.00
1821, 965.00
1822, 963.00
1823, 964.00
1824, 963.00
1825, 961.00
1826, 963.00
1827, 961.00
1828, 961.00
1829, 961.00
1830, 958.00
1831, 959.00
1832, 959.00
1833, 959.00
1834, 958.00
1835, 957.00
1836, 956.00
1837, 958.00
1838, 955.00
1839, 954.00
1840, 954.00
1841, 952.00
1842, 953.00
1843, 952.00
1844, 950.00
1845, 949.00
1846, 948.00
1847, 949.00
1848, 946.00
1849, 947.00
1850, 946.00
1851, 944.00
1852, 943.00
1853, 943.00
1854, 941.00
1855, 942.00
1856, 940.00
1857, 938.00
1858, 937.00
1859, 938.00
1860, 935.00
1861, 935.00
1862, 937.00
1863, 935.00
1864, 934.00
1865, 934.00
1866, 932.00
1867, 930.00
1868, 932.00
1869, 930.00
1870, 931.00
1871, 931.00
1872, 930.00
1873, 928.00
1874, 928.00
1875, 927.00
1876, 927.00
1877, 927.00
1878, 927.00
1879, 926.00
1880, 926.00
1881, 924.00
1882, 926.00
1883, 923.00
1884, 924.00
1885, 926.00
1886, 925.00
1887, 925.00
1888, 923.00
1889, 923.00
1890, 924.00
1891, 924.00
1892, 923.00
1893, 921.00
1894, 922.00
1895, 922.00
1896, 923.00
1897, 924.00
1898, 921.00
1899, 922.00
1900, 922.00
1901, 922.00
1902, 922.00
1903, 922.00
1904, 921.00
1905, 919.00
1906, 919.00
1907, 922.00
1908, 921.00
1909, 919.00
1910, 919.00
1911, 923.00
1912, 921.00
1913, 919.00
1914, 919.00
1915, 921.00
1916, 922.00
1917, 920.00
1918, 921.00
1919, 920.00
1920, 920.00
1921, 920.00
1922, 920.00
1923, 921.00
1924, 917.00
1925, 919.00
1926, 920.00
1927, 920.00
1928, 919.00
1929, 919.00
1930, 919.00
1931, 921.00
1932, 922.00
1933, 919.00
1934, 919.00
1935, 921.00
1936, 920.00
1937, 920.00
1938, 921.00
1939, 920.00
1940, 920.00
1941, 919.00
1942, 922.00
1943, 921.00
1944, 922.00
1945, 922.00
1946, 922.00
1947, 920.00
1948, 922.00
1949, 920.00
1950, 920.00
1951, 921.00
1952, 923.00
1953, 921.00
1954, 921.00
1955, 922.00
1956, 922.00
1957, 923.00
1958, 921.00
1959, 922.00
1960, 924.00
1961, 923.00
1962, 924.00
1963, 922.00
1964, 923.00
1965, 924.00
1966, 923.00
1967, 923.00
1968, 924.00
1969, 924.00
1970, 924.00
1971, 924.00
1972, 924.00
1973, 925.00
1974, 924.00
1975, 925.00
1976, 924.00
1977, 926.00
1978, 925.00
1979, 926.00
1980, 927.00
1981, 926.00
1982, 926.00
1983, 925.00
1984, 926.00
1985, 926.00
1986, 927.00
1987, 927.00
1988, 928.00
1989, 927.00
1990, 928.00
1991, 927.00
1992, 929.00
1993, 927.00
1994, 928.00
1995, 929.00
1996, 930.00
1997, 928.00
1998, 930.00
1999, 929.00
2000, 930.00
2001, 931.00
2002, 930.00
2003, 931.00
2004, 931.00
2005, 931.00
2006, 931.00
2007, 930.00
2008, 930.00
2009, 931.00
2010, 932.00
2011, 931.00
2012, 932.00
2013, 932.00
2014, 932.00
2015, 932.00
2016, 932.00
2017, 933.00
2018, 934.00
2019, 933.00
2020, 934.00
2021, 934.00
2022, 932.00
2023, 934.00
2024, 933.00
2025, 936.00
2026, 933.00
2027, 936.00
2028, 936.00
2029, 936.00
2030, 935.00
2031, 935.00
2032, 936.00
2033, 937.00
2034, 937.00
2035, 937.00
2036, 937.00
2037, 938.00
2038, 937.00
2039, 938.00
2040, 940.00
2041, 939.00
2042, 938.00
2043, 939.00
2044, 939.00
2045, 938.00
2046, 940.00
2047, 941.00
2048, 940.00
2049, 942.00
2050, 942.00
2051, 942.00
2052, 943.00
2053, 943.00
2054, 942.00
2055, 944.00
2056, 944.00
2057, 944.00
2058, 944.00
2059, 944.00
2060, 945.00
2061, 946.00
2062, 946.00
2063, 946.00
2064, 946.00
2065, 946.00
2066, 946.00
2067, 948.00
2068, 947.00
2069, 947.00
2070, 949.00
2071, 950.00
2072, 948.00
2073, 950.00
2074, 948.00
2075, 949.00
2076, 950.00
2077, 949.00
2078, 949.00
2079, 951.00
2080, 952.00
2081, 951.00
2082, 952.00
2083, 953.00
2084, 953.00
2085, 953.00
2086, 954.00
2087, 954.00
2088, 954.00
2089, 955.00
2090, 954.00
2091, 954.00
2092, 956.00
2093, 956.00
2094, 955.00
2095, 956.00
2096, 954.00
2097, 955.00
2098, 958.00
2099, 958.00
2100, 957.00
2101, 958.00
2102, 958.00
2103, 957.00
2104, 958.00
2105, 958.00
2106, 959.00
2107, 959.00
2108, 960.00
2109, 957.00
2110, 957.00
2111, 958.00
2112, 958.00
2113, 959.00
2114, 961.00
2115, 960.00
2116, 960.00
2117, 960.00
2118, 959.00
2119, 961.00
2120, 958.00
2121, 961.00
2122, 961.00
2123, 961.00
2124, 961.00
2125, 961.00
2126, 959.00
2127, 963.00
2128, 963.00
2129, 962.00
2130, 961.00
2131, 962.00
2132, 962.00
2133, 962.00
2134, 963.00
2135, 962.00
2136, 963.00
2137, 963.00
2138, 964.00
2139, 961.00
2140, 963.00
2141, 963.00
2142, 964.00
2143, 964.00
2144, 965.00
2145, 965.00
2146, 964.00
2147, 964.00
2148, 963.00
2149, 966.00
2150, 965.00
