FW version: 24
Log Version: 3.0.3

General Info:
       Command/Macro Performed,            Timestamp,             Device ID, COM Port, UART/I2C, Test Name, Host Major, Host Minor, Host Revision, Host Git Commit
            Single_measurement,  2023_07_04_11_01_02,       Insight2_F4_xxx,    USB-C,      USB,          ,          0,          1,             1,      4031237645

Show Spectrometer Status:
l0_version, f4_version, battery_perc, battery_mVolt, accelerometer_temp, accelerometer_x, accelerometer_y, accelerometer_z, compass_temp, compass_x, compass_y, compass_z, lamp_0, lamp_1, gain_0, gain_1
        17,         24,           15,          1841,               5664,           64940,            2064,           19136,            0,     65516,     65330,     19167,   2047,   2047,      1,      1

Temperature Statistic Info:
NTC AVG [°C], NTC2 AVG [°C]
      36.207,        35.837

Statistic Info:
M1:  num,      min,      max,   median,      AVG,      STD,M2:  num,      min,      max,   median,      AVG,      STD
     301,   727.00,   847.00,   755.00,   767.51,  37.5580,     401,  1092.00,  1166.00,  1124.00,  1125.69,  24.7689,

Measurements:
Wavelength, Data Amplitude
1350, 745.00
1351, 745.00
1352, 745.00
1353, 744.00
1354, 743.00
1355, 743.00
1356, 744.00
1357, 743.00
1358, 743.00
1359, 741.00
1360, 742.00
1361, 741.00
1362, 742.00
1363, 741.00
1364, 740.00
1365, 740.00
1366, 740.00
1367, 739.00
1368, 739.00
1369, 738.00
1370, 737.00
1371, 738.00
1372, 736.00
1373, 736.00
1374, 736.00
1375, 735.00
1376, 735.00
1377, 734.00
1378, 734.00
1379, 734.00
1380, 732.00
1381, 732.00
1382, 731.00
1383, 731.00
1384, 732.00
1385, 731.00
1386, 731.00
1387, 730.00
1388, 730.00
1389, 729.00
1390, 731.00
1391, 729.00
1392, 729.00
1393, 730.00
1394, 729.00
1395, 729.00
1396, 729.00
1397, 729.00
1398, 729.00
1399, 728.00
1400, 729.00
1401, 729.00
1402, 729.00
1403, 729.00
1404, 729.00
1405, 729.00
1406, 728.00
1407, 729.00
1408, 728.00
1409, 728.00
1410, 729.00
1411, 728.00
1412, 729.00
1413, 729.00
1414, 728.00
1415, 728.00
1416, 728.00
1417, 729.00
1418, 727.00
1419, 728.00
1420, 728.00
1421, 727.00
1422, 728.00
1423, 728.00
1424, 729.00
1425, 727.00
1426, 727.00
1427, 729.00
1428, 728.00
1429, 729.00
1430, 729.00
1431, 729.00
1432, 729.00
1433, 729.00
1434, 729.00
1435, 730.00
1436, 730.00
1437, 730.00
1438, 731.00
1439, 730.00
1440, 731.00
1441, 731.00
1442, 731.00
1443, 730.00
1444, 731.00
1445, 732.00
1446, 732.00
1447, 731.00
1448, 732.00
1449, 732.00
1450, 733.00
1451, 733.00
1452, 732.00
1453, 734.00
1454, 733.00
1455, 734.00
1456, 734.00
1457, 735.00
1458, 735.00
1459, 735.00
1460, 736.00
1461, 735.00
1462, 736.00
1463, 736.00
1464, 737.00
1465, 737.00
1466, 737.00
1467, 738.00
1468, 738.00
1469, 738.00
1470, 739.00
1471, 740.00
1472, 740.00
1473, 740.00
1474, 741.00
1475, 742.00
1476, 742.00
1477, 743.00
1478, 742.00
1479, 743.00
1480, 744.00
1481, 745.00
1482, 745.00
1483, 745.00
1484, 745.00
1485, 746.00
1486, 746.00
1487, 748.00
1488, 748.00
1489, 748.00
1490, 748.00
1491, 749.00
1492, 749.00
1493, 750.00
1494, 751.00
1495, 750.00
1496, 752.00
1497, 752.00
1498, 754.00
1499, 753.00
1500, 755.00
1501, 755.00
1502, 755.00
1503, 755.00
1504, 757.00
1505, 757.00
1506, 757.00
1507, 757.00
1508, 758.00
1509, 759.00
1510, 760.00
1511, 760.00
1512, 760.00
1513, 761.00
1514, 761.00
1515, 762.00
1516, 763.00
1517, 764.00
1518, 765.00
1519, 765.00
1520, 765.00
1521, 766.00
1522, 766.00
1523, 767.00
1524, 767.00
1525, 768.00
1526, 769.00
1527, 770.00
1528, 770.00
1529, 771.00
1530, 773.00
1531, 772.00
1532, 773.00
1533, 774.00
1534, 774.00
1535, 775.00
1536, 776.00
1537, 776.00
1538, 777.00
1539, 777.00
1540, 778.00
1541, 777.00
1542, 779.00
1543, 779.00
1544, 779.00
1545, 780.00
1546, 781.00
1547, 781.00
1548, 783.00
1549, 783.00
1550, 783.00
1551, 783.00
1552, 784.00
1553, 785.00
1554, 785.00
1555, 786.00
1556, 787.00
1557, 788.00
1558, 788.00
1559, 789.00
1560, 789.00
1561, 789.00
1562, 790.00
1563, 791.00
1564, 792.00
1565, 793.00
1566, 793.00
1567, 794.00
1568, 794.00
1569, 794.00
1570, 794.00
1571, 796.00
1572, 797.00
1573, 797.00
1574, 798.00
1575, 800.00
1576, 800.00
1577, 800.00
1578, 801.00
1579, 801.00
1580, 802.00
1581, 803.00
1582, 803.00
1583, 804.00
1584, 804.00
1585, 804.00
1586, 805.00
1587, 806.00
1588, 806.00
1589, 807.00
1590, 808.00
1591, 808.00
1592, 809.00
1593, 810.00
1594, 809.00
1595, 810.00
1596, 811.00
1597, 811.00
1598, 812.00
1599, 813.00
1600, 814.00
1601, 814.00
1602, 816.00
1603, 815.00
1604, 816.00
1605, 817.00
1606, 817.00
1607, 819.00
1608, 819.00
1609, 819.00
1610, 820.00
1611, 821.00
1612, 821.00
1613, 823.00
1614, 823.00
1615, 824.00
1616, 825.00
1617, 826.00
1618, 825.00
1619, 827.00
1620, 828.00
1621, 829.00
1622, 830.00
1623, 829.00
1624, 830.00
1625, 832.00
1626, 832.00
1627, 833.00
1628, 834.00
1629, 833.00
1630, 836.00
1631, 836.00
1632, 836.00
1633, 837.00
1634, 837.00
1635, 838.00
1636, 838.00
1637, 839.00
1638, 840.00
1639, 840.00
1640, 840.00
1641, 842.00
1642, 841.00
1643, 843.00
1644, 843.00
1645, 844.00
1646, 843.00
1647, 844.00
1648, 844.00
1649, 845.00
1650, 847.00

1750, 1165.00
1751, 1165.00
1752, 1165.00
1753, 1164.00
1754, 1164.00
1755, 1165.00
1756, 1165.00
1757, 1165.00
1758, 1165.00
1759, 1165.00
1760, 1163.00
1761, 1164.00
1762, 1164.00
1763, 1164.00
1764, 1164.00
1765, 1164.00
1766, 1165.00
1767, 1166.00
1768, 1164.00
1769, 1164.00
1770, 1164.00
1771, 1164.00
1772, 1163.00
1773, 1163.00
1774, 1163.00
1775, 1163.00
1776, 1164.00
1777, 1162.00
1778, 1163.00
1779, 1162.00
1780, 1163.00
1781, 1161.00
1782, 1161.00
1783, 1162.00
1784, 1161.00
1785, 1161.00
1786, 1161.00
1787, 1162.00
1788, 1158.00
1789, 1160.00
1790, 1160.00
1791, 1160.00
1792, 1160.00
1793, 1160.00
1794, 1159.00
1795, 1160.00
1796, 1159.00
1797, 1159.00
1798, 1158.00
1799, 1157.00
1800, 1158.00
1801, 1157.00
1802, 1159.00
1803, 1156.00
1804, 1156.00
1805, 1157.00
1806, 1156.00
1807, 1155.00
1808, 1155.00
1809, 1157.00
1810, 1157.00
1811, 1155.00
1812, 1153.00
1813, 1153.00
1814, 1154.00
1815, 1156.00
1816, 1153.00
1817, 1154.00
1818, 1154.00
1819, 1154.00
1820, 1152.00
1821, 1151.00
1822, 1151.00
1823, 1150.00
1824, 1152.00
1825, 1151.00
1826, 1149.00
1827, 1149.00
1828, 1149.00
1829, 1148.00
1830, 1147.00
1831, 1148.00
1832, 1145.00
1833, 1145.00
1834, 1143.00
1835, 1143.00
1836, 1143.00
1837, 1140.00
1838, 1142.00
1839, 1140.00
1840, 1139.00
1841, 1139.00
1842, 1137.00
1843, 1136.00
1844, 1133.00
1845, 1131.00
1846, 1131.00
1847, 1131.00
1848, 1128.00
1849, 1127.00
1850, 1127.00
1851, 1127.00
1852, 1124.00
1853, 1125.00
1854, 1121.00
1855, 1121.00
1856, 1120.00
1857, 1120.00
1858, 1118.00
1859, 1117.00
1860, 1116.00
1861, 1114.00
1862, 1114.00
1863, 1113.00
1864, 1112.00
1865, 1111.00
1866, 1110.00
1867, 1108.00
1868, 1107.00
1869, 1107.00
1870, 1106.00
1871, 1106.00
1872, 1104.00
1873, 1105.00
1874, 1104.00
1875, 1103.00
1876, 1103.00
1877, 1101.00
1878, 1102.00
1879, 1100.00
1880, 1101.00
1881, 1101.00
1882, 1101.00
1883, 1100.00
1884, 1100.00
1885, 1097.00
1886, 1098.00
1887, 1099.00
1888, 1098.00
1889, 1097.00
1890, 1097.00
1891, 1097.00
1892, 1095.00
1893, 1095.00
1894, 1097.00
1895, 1097.00
1896, 1095.00
1897, 1096.00
1898, 1093.00
1899, 1096.00
1900, 1097.00
1901, 1095.00
1902, 1094.00
1903, 1094.00
1904, 1093.00
1905, 1094.00
1906, 1095.00
1907, 1093.00
1908, 1093.00
1909, 1093.00
1910, 1093.00
1911, 1092.00
1912, 1092.00
1913, 1093.00
1914, 1093.00
1915, 1094.00
1916, 1094.00
1917, 1092.00
1918, 1093.00
1919, 1094.00
1920, 1093.00
1921, 1093.00
1922, 1093.00
1923, 1093.00
1924, 1093.00
1925, 1092.00
1926, 1092.00
1927, 1092.00
1928, 1092.00
1929, 1092.00
1930, 1093.00
1931, 1093.00
1932, 1094.00
1933, 1093.00
1934, 1092.00
1935, 1093.00
1936, 1093.00
1937, 1093.00
1938, 1093.00
1939, 1093.00
1940, 1092.00
1941, 1094.00
1942, 1092.00
1943, 1094.00
1944, 1095.00
1945, 1094.00
1946, 1093.00
1947, 1092.00
1948, 1093.00
1949, 1092.00
1950, 1095.00
1951, 1094.00
1952, 1094.00
1953, 1096.00
1954, 1095.00
1955, 1094.00
1956, 1096.00
1957, 1096.00
1958, 1095.00
1959, 1095.00
1960, 1096.00
1961, 1095.00
1962, 1096.00
1963, 1097.00
1964, 1097.00
1965, 1097.00
1966, 1096.00
1967, 1097.00
1968, 1099.00
1969, 1100.00
1970, 1099.00
1971, 1099.00
1972, 1100.00
1973, 1098.00
1974, 1099.00
1975, 1099.00
1976, 1100.00
1977, 1101.00
1978, 1101.00
1979, 1102.00
1980, 1100.00
1981, 1103.00
1982, 1102.00
1983, 1103.00
1984, 1104.00
1985, 1102.00
1986, 1103.00
1987, 1103.00
1988, 1105.00
1989, 1103.00
1990, 1104.00
1991, 1105.00
1992, 1105.00
1993, 1105.00
1994, 1105.00
1995, 1105.00
1996, 1106.00
1997, 1105.00
1998, 1106.00
1999, 1106.00
2000, 1107.00
2001, 1106.00
2002, 1106.00
2003, 1108.00
2004, 1108.00
2005, 1109.00
2006, 1109.00
2007, 1108.00
2008, 1110.00
2009, 1109.00
2010, 1110.00
2011, 1109.00
2012, 1109.00
2013, 1111.00
2014, 1110.00
2015, 1112.00
2016, 1111.00
2017, 1112.00
2018, 1111.00
2019, 1111.00
2020, 1112.00
2021, 1112.00
2022, 1112.00
2023, 1114.00
2024, 1115.00
2025, 1113.00
2026, 1114.00
2027, 1115.00
2028, 1114.00
2029, 1113.00
2030, 1114.00
2031, 1116.00
2032, 1115.00
2033, 1117.00
2034, 1117.00
2035, 1117.00
2036, 1117.00
2037, 1117.00
2038, 1119.00
2039, 1119.00
2040, 1119.00
2041, 1120.00
2042, 1120.00
2043, 1120.00
2044, 1120.00
2045, 1121.00
2046, 1121.00
2047, 1122.00
2048, 1120.00
2049, 1122.00
2050, 1122.00
2051, 1122.00
2052, 1124.00
2053, 1124.00
2054, 1125.00
2055, 1124.00
2056, 1126.00
2057, 1126.00
2058, 1127.00
2059, 1127.00
2060, 1129.00
2061, 1127.00
2062, 1128.00
2063, 1128.00
2064, 1129.00
2065, 1129.00
2066, 1129.00
2067, 1131.00
2068, 1130.00
2069, 1130.00
2070, 1132.00
2071, 1134.00
2072, 1134.00
2073, 1134.00
2074, 1134.00
2075, 1134.00
2076, 1134.00
2077, 1135.00
2078, 1136.00
2079, 1136.00
2080, 1137.00
2081, 1138.00
2082, 1138.00
2083, 1137.00
2084, 1137.00
2085, 1138.00
2086, 1140.00
2087, 1138.00
2088, 1139.00
2089, 1140.00
2090, 1142.00
2091, 1139.00
2092, 1141.00
2093, 1141.00
2094, 1140.00
2095, 1142.00
2096, 1140.00
2097, 1142.00
2098, 1143.00
2099, 1143.00
2100, 1143.00
2101, 1142.00
2102, 1143.00
2103, 1145.00
2104, 1144.00
2105, 1143.00
2106, 1145.00
2107, 1146.00
2108, 1146.00
2109, 1145.00
2110, 1145.00
2111, 1146.00
2112, 1145.00
2113, 1144.00
2114, 1147.00
2115, 1145.00
2116, 1145.00
2117, 1148.00
2118, 1149.00
2119, 1148.00
2120, 1147.00
2121, 1148.00
2122, 1148.00
2123, 1149.00
2124, 1147.00
2125, 1149.00
2126, 1149.00
2127, 1149.00
2128, 1149.00
2129, 1149.00
2130, 1149.00
2131, 1148.00
2132, 1151.00
2133, 1151.00
2134, 1148.00
2135, 1149.00
2136, 1151.00
2137, 1152.00
2138, 1152.00
2139, 1150.00
2140, 1151.00
2141, 1152.00
2142, 1152.00
2143, 1153.00
2144, 1153.00
2145, 1152.00
2146, 1153.00
2147, 1151.00
2148, 1153.00
2149, 1150.00
2150, 1152.00
