FW version: 24
Log Version: 3.0.3

General Info:
       Command/Macro Performed,            Timestamp,             Device ID, COM Port, UART/I2C, Test Name, Host Major, Host Minor, Host Revision, Host Git Commit
            Single_measurement,  2023_07_04_11_01_56,       Insight2_F4_xxx,    USB-C,      USB,          ,          0,          1,             1,      4031237645

Show Spectrometer Status:
l0_version, f4_version, battery_perc, battery_mVolt, accelerometer_temp, accelerometer_x, accelerometer_y, accelerometer_z, compass_temp, compass_x, compass_y, compass_z, lamp_0, lamp_1, gain_0, gain_1
        17,         24,           15,          1836,               5728,           64924,            2044,           19156,            0,     65534,     65532,     19189,   3276,   3276,      1,      1

Temperature Statistic Info:
NTC AVG [°C], NTC2 AVG [°C]
      36.637,        36.293

Statistic Info:
M1:  num,      min,      max,   median,      AVG,      STD,M2:  num,      min,      max,   median,      AVG,      STD
     301,  1820.00,  2092.00,  1875.00,  1909.58,  83.9948,     401,  2406.00,  2570.00,  2472.00,  2477.24,  53.3711,

Measurements:
Wavelength, Data Amplitude
1350, 1871.00
1351, 1871.00
1352, 1870.00
1353, 1869.00
1354, 1868.00
1355, 1868.00
1356, 1867.00
1357, 1865.00
1358, 1866.00
1359, 1864.00
1360, 1862.00
1361, 1861.00
1362, 1861.00
1363, 1860.00
1364, 1857.00
1365, 1856.00
1366, 1854.00
1367, 1855.00
1368, 1853.00
1369, 1851.00
1370, 1850.00
1371, 1848.00
1372, 1846.00
1373, 1845.00
1374, 1844.00
1375, 1841.00
1376, 1841.00
1377, 1841.00
1378, 1839.00
1379, 1838.00
1380, 1837.00
1381, 1836.00
1382, 1835.00
1383, 1835.00
1384, 1833.00
1385, 1831.00
1386, 1832.00
1387, 1830.00
1388, 1830.00
1389, 1830.00
1390, 1829.00
1391, 1829.00
1392, 1829.00
1393, 1828.00
1394, 1828.00
1395, 1826.00
1396, 1826.00
1397, 1826.00
1398, 1827.00
1399, 1825.00
1400, 1825.00
1401, 1824.00
1402, 1824.00
1403, 1824.00
1404, 1824.00
1405, 1824.00
1406, 1823.00
1407, 1822.00
1408, 1821.00
1409, 1823.00
1410, 1822.00
1411, 1823.00
1412, 1822.00
1413, 1822.00
1414, 1821.00
1415, 1821.00
1416, 1820.00
1417, 1822.00
1418, 1821.00
1419, 1821.00
1420, 1820.00
1421, 1821.00
1422, 1820.00
1423, 1821.00
1424, 1821.00
1425, 1821.00
1426, 1822.00
1427, 1822.00
1428, 1821.00
1429, 1822.00
1430, 1822.00
1431, 1822.00
1432, 1823.00
1433, 1822.00
1434, 1824.00
1435, 1824.00
1436, 1825.00
1437, 1825.00
1438, 1825.00
1439, 1825.00
1440, 1827.00
1441, 1826.00
1442, 1827.00
1443, 1827.00
1444, 1828.00
1445, 1828.00
1446, 1828.00
1447, 1829.00
1448, 1828.00
1449, 1829.00
1450, 1830.00
1451, 1831.00
1452, 1832.00
1453, 1831.00
1454, 1832.00
1455, 1833.00
1456, 1834.00
1457, 1834.00
1458, 1835.00
1459, 1835.00
1460, 1837.00
1461, 1836.00
1462, 1838.00
1463, 1838.00
1464, 1840.00
1465, 1840.00
1466, 1842.00
1467, 1841.00
1468, 1842.00
1469, 1843.00
1470, 1844.00
1471, 1844.00
1472, 1846.00
1473, 1847.00
1474, 1848.00
1475, 1849.00
1476, 1850.00
1477, 1851.00
1478, 1852.00
1479, 1853.00
1480, 1853.00
1481, 1854.00
1482, 1856.00
1483, 1857.00
1484, 1857.00
1485, 1859.00
1486, 1859.00
1487, 1861.00
1488, 1862.00
1489, 1863.00
1490, 1865.00
1491, 1865.00
1492, 1866.00
1493, 1868.00
1494, 1869.00
1495, 1870.00
1496, 1871.00
1497, 1872.00
1498, 1873.00
1499, 1874.00
1500, 1875.00
1501, 1877.00
1502, 1878.00
1503, 1879.00
1504, 1880.00
1505, 1881.00
1506, 1883.00
1507, 1884.00
1508, 1884.00
1509, 1886.00
1510, 1887.00
1511, 1889.00
1512, 1889.00
1513, 1892.00
1514, 1892.00
1515, 1893.00
1516, 1894.00
1517, 1895.00
1518, 1897.00
1519, 1899.00
1520, 1899.00
1521, 1901.00
1522, 1903.00
1523, 1904.00
1524, 1906.00
1525, 1906.00
1526, 1908.00
1527, 1909.00
1528, 1911.00
1529, 1912.00
1530, 1913.00
1531, 1915.00
1532, 1917.00
1533, 1917.00
1534, 1918.00
1535, 1919.00
1536, 1922.00
1537, 1923.00
1538, 1924.00
1539, 1925.00
1540, 1927.00
1541, 1927.00
1542, 1929.00
1543, 1931.00
1544, 1932.00
1545, 1934.00
1546, 1934.00
1547, 1936.00
1548, 1938.00
1549, 1939.00
1550, 1940.00
1551, 1941.00
1552, 1943.00
1553, 1945.00
1554, 1946.00
1555, 1948.00
1556, 1949.00
1557, 1951.00
1558, 1952.00
1559, 1953.00
1560, 1956.00
1561, 1957.00
1562, 1958.00
1563, 1960.00
1564, 1961.00
1565, 1963.00
1566, 1965.00
1567, 1966.00
1568, 1968.00
1569, 1968.00
1570, 1971.00
1571, 1973.00
1572, 1973.00
1573, 1975.00
1574, 1976.00
1575, 1978.00
1576, 1980.00
1577, 1983.00
1578, 1982.00
1579, 1984.00
1580, 1986.00
1581, 1988.00
1582, 1990.00
1583, 1989.00
1584, 1991.00
1585, 1994.00
1586, 1993.00
1587, 1995.00
1588, 1996.00
1589, 1998.00
1590, 1999.00
1591, 2001.00
1592, 2002.00
1593, 2004.00
1594, 2004.00
1595, 2005.00
1596, 2007.00
1597, 2008.00
1598, 2010.00
1599, 2011.00
1600, 2013.00
1601, 2014.00
1602, 2015.00
1603, 2017.00
1604, 2019.00
1605, 2020.00
1606, 2021.00
1607, 2022.00
1608, 2024.00
1609, 2027.00
1610, 2028.00
1611, 2030.00
1612, 2031.00
1613, 2032.00
1614, 2035.00
1615, 2036.00
1616, 2038.00
1617, 2040.00
1618, 2041.00
1619, 2043.00
1620, 2045.00
1621, 2047.00
1622, 2050.00
1623, 2051.00
1624, 2052.00
1625, 2054.00
1626, 2056.00
1627, 2057.00
1628, 2059.00
1629, 2062.00
1630, 2062.00
1631, 2064.00
1632, 2066.00
1633, 2067.00
1634, 2068.00
1635, 2070.00
1636, 2071.00
1637, 2073.00
1638, 2074.00
1639, 2075.00
1640, 2077.00
1641, 2079.00
1642, 2080.00
1643, 2081.00
1644, 2082.00
1645, 2084.00
1646, 2084.00
1647, 2088.00
1648, 2088.00
1649, 2090.00
1650, 2092.00

1750, 2567.00
1751, 2569.00
1752, 2569.00
1753, 2569.00
1754, 2569.00
1755, 2569.00
1756, 2568.00
1757, 2570.00
1758, 2570.00
1759, 2569.00
1760, 2567.00
1761, 2569.00
1762, 2567.00
1763, 2569.00
1764, 2568.00
1765, 2568.00
1766, 2566.00
1767, 2566.00
1768, 2567.00
1769, 2566.00
1770, 2566.00
1771, 2565.00
1772, 2565.00
1773, 2565.00
1774, 2566.00
1775, 2565.00
1776, 2563.00
1777, 2564.00
1778, 2564.00
1779, 2560.00
1780, 2561.00
1781, 2561.00
1782, 2561.00
1783, 2559.00
1784, 2559.00
1785, 2559.00
1786, 2558.00
1787, 2559.00
1788, 2559.00
1789, 2555.00
1790, 2557.00
1791, 2555.00
1792, 2555.00
1793, 2555.00
1794, 2553.00
1795, 2553.00
1796, 2553.00
1797, 2551.00
1798, 2553.00
1799, 2551.00
1800, 2549.00
1801, 2551.00
1802, 2550.00
1803, 2548.00
1804, 2550.00
1805, 2547.00
1806, 2546.00
1807, 2547.00
1808, 2548.00
1809, 2546.00
1810, 2546.00
1811, 2545.00
1812, 2545.00
1813, 2543.00
1814, 2543.00
1815, 2542.00
1816, 2540.00
1817, 2541.00
1818, 2540.00
1819, 2538.00
1820, 2536.00
1821, 2536.00
1822, 2537.00
1823, 2535.00
1824, 2534.00
1825, 2534.00
1826, 2531.00
1827, 2531.00
1828, 2530.00
1829, 2526.00
1830, 2525.00
1831, 2525.00
1832, 2524.00
1833, 2521.00
1834, 2517.00
1835, 2516.00
1836, 2515.00
1837, 2514.00
1838, 2511.00
1839, 2508.00
1840, 2507.00
1841, 2506.00
1842, 2502.00
1843, 2500.00
1844, 2496.00
1845, 2495.00
1846, 2493.00
1847, 2489.00
1848, 2485.00
1849, 2483.00
1850, 2481.00
1851, 2480.00
1852, 2477.00
1853, 2473.00
1854, 2471.00
1855, 2468.00
1856, 2468.00
1857, 2463.00
1858, 2460.00
1859, 2460.00
1860, 2457.00
1861, 2455.00
1862, 2452.00
1863, 2451.00
1864, 2449.00
1865, 2447.00
1866, 2445.00
1867, 2441.00
1868, 2440.00
1869, 2440.00
1870, 2438.00
1871, 2436.00
1872, 2434.00
1873, 2432.00
1874, 2432.00
1875, 2433.00
1876, 2431.00
1877, 2429.00
1878, 2428.00
1879, 2425.00
1880, 2425.00
1881, 2425.00
1882, 2424.00
1883, 2423.00
1884, 2423.00
1885, 2422.00
1886, 2422.00
1887, 2420.00
1888, 2417.00
1889, 2419.00
1890, 2420.00
1891, 2418.00
1892, 2417.00
1893, 2416.00
1894, 2417.00
1895, 2416.00
1896, 2415.00
1897, 2413.00
1898, 2414.00
1899, 2413.00
1900, 2412.00
1901, 2411.00
1902, 2413.00
1903, 2412.00
1904, 2412.00
1905, 2411.00
1906, 2411.00
1907, 2409.00
1908, 2410.00
1909, 2409.00
1910, 2410.00
1911, 2411.00
1912, 2411.00
1913, 2408.00
1914, 2408.00
1915, 2409.00
1916, 2408.00
1917, 2408.00
1918, 2409.00
1919, 2407.00
1920, 2407.00
1921, 2407.00
1922, 2409.00
1923, 2406.00
1924, 2408.00
1925, 2408.00
1926, 2408.00
1927, 2408.00
1928, 2408.00
1929, 2408.00
1930, 2407.00
1931, 2408.00
1932, 2407.00
1933, 2408.00
1934, 2407.00
1935, 2409.00
1936, 2409.00
1937, 2408.00
1938, 2409.00
1939, 2410.00
1940, 2409.00
1941, 2407.00
1942, 2408.00
1943, 2409.00
1944, 2411.00
1945, 2410.00
1946, 2410.00
1947, 2409.00
1948, 2412.00
1949, 2411.00
1950, 2411.00
1951, 2410.00
1952, 2411.00
1953, 2413.00
1954, 2413.00
1955, 2413.00
1956, 2413.00
1957, 2414.00
1958, 2412.00
1959, 2412.00
1960, 2413.00
1961, 2415.00
1962, 2416.00
1963, 2416.00
1964, 2416.00
1965, 2416.00
1966, 2419.00
1967, 2419.00
1968, 2417.00
1969, 2418.00
1970, 2419.00
1971, 2419.00
1972, 2421.00
1973, 2423.00
1974, 2422.00
1975, 2424.00
1976, 2423.00
1977, 2423.00
1978, 2423.00
1979, 2424.00
1980, 2425.00
1981, 2426.00
1982, 2427.00
1983, 2427.00
1984, 2429.00
1985, 2427.00
1986, 2428.00
1987, 2428.00
1988, 2430.00
1989, 2431.00
1990, 2431.00
1991, 2431.00
1992, 2431.00
1993, 2431.00
1994, 2433.00
1995, 2433.00
1996, 2434.00
1997, 2435.00
1998, 2435.00
1999, 2437.00
2000, 2436.00
2001, 2436.00
2002, 2436.00
2003, 2437.00
2004, 2439.00
2005, 2438.00
2006, 2440.00
2007, 2438.00
2008, 2440.00
2009, 2441.00
2010, 2441.00
2011, 2443.00
2012, 2443.00
2013, 2442.00
2014, 2445.00
2015, 2442.00
2016, 2445.00
2017, 2445.00
2018, 2446.00
2019, 2448.00
2020, 2445.00
2021, 2446.00
2022, 2450.00
2023, 2450.00
2024, 2450.00
2025, 2451.00
2026, 2451.00
2027, 2450.00
2028, 2452.00
2029, 2453.00
2030, 2452.00
2031, 2453.00
2032, 2454.00
2033, 2456.00
2034, 2455.00
2035, 2455.00
2036, 2456.00
2037, 2458.00
2038, 2460.00
2039, 2460.00
2040, 2460.00
2041, 2463.00
2042, 2463.00
2043, 2461.00
2044, 2464.00
2045, 2463.00
2046, 2465.00
2047, 2467.00
2048, 2467.00
2049, 2467.00
2050, 2469.00
2051, 2470.00
2052, 2471.00
2053, 2472.00
2054, 2471.00
2055, 2472.00
2056, 2472.00
2057, 2474.00
2058, 2476.00
2059, 2477.00
2060, 2476.00
2061, 2479.00
2062, 2480.00
2063, 2479.00
2064, 2481.00
2065, 2482.00
2066, 2482.00
2067, 2484.00
2068, 2485.00
2069, 2485.00
2070, 2486.00
2071, 2486.00
2072, 2489.00
2073, 2489.00
2074, 2488.00
2075, 2491.00
2076, 2491.00
2077, 2491.00
2078, 2494.00
2079, 2494.00
2080, 2496.00
2081, 2495.00
2082, 2498.00
2083, 2497.00
2084, 2499.00
2085, 2497.00
2086, 2499.00
2087, 2501.00
2088, 2501.00
2089, 2501.00
2090, 2500.00
2091, 2501.00
2092, 2503.00
2093, 2503.00
2094, 2505.00
2095, 2505.00
2096, 2505.00
2097, 2505.00
2098, 2507.00
2099, 2509.00
2100, 2507.00
2101, 2511.00
2102, 2510.00
2103, 2511.00
2104, 2510.00
2105, 2512.00
2106, 2512.00
2107, 2510.00
2108, 2513.00
2109, 2513.00
2110, 2513.00
2111, 2514.00
2112, 2514.00
2113, 2514.00
2114, 2514.00
2115, 2514.00
2116, 2514.00
2117, 2516.00
2118, 2517.00
2119, 2517.00
2120, 2517.00
2121, 2516.00
2122, 2517.00
2123, 2519.00
2124, 2517.00
2125, 2519.00
2126, 2519.00
2127, 2521.00
2128, 2520.00
2129, 2521.00
2130, 2520.00
2131, 2522.00
2132, 2523.00
2133, 2523.00
2134, 2522.00
2135, 2521.00
2136, 2522.00
2137, 2523.00
2138, 2522.00
2139, 2523.00
2140, 2523.00
2141, 2525.00
2142, 2524.00
2143, 2526.00
2144, 2525.00
2145, 2527.00
2146, 2524.00
2147, 2528.00
2148, 2527.00
2149, 2527.00
2150, 2528.00
