FW version: 24
Log Version: 3.0.3

General Info:
       Command/Macro Performed,            Timestamp,             Device ID, COM Port, UART/I2C, Test Name, Host Major, Host Minor, Host Revision, Host Git Commit
            Single_measurement,  2023_07_04_11_01_52,       Insight2_F4_xxx,    USB-C,      USB,          ,          0,          1,             1,      4031237645

Show Spectrometer Status:
l0_version, f4_version, battery_perc, battery_mVolt, accelerometer_temp, accelerometer_x, accelerometer_y, accelerometer_z, compass_temp, compass_x, compass_y, compass_z, lamp_0, lamp_1, gain_0, gain_1
        17,         24,           15,          1837,               5680,           64904,            2036,           19112,            0,     65514,     65526,     19182,   3276,   3276,      1,      1

Temperature Statistic Info:
NTC AVG [°C], NTC2 AVG [°C]
      36.608,        36.265

Statistic Info:
M1:  num,      min,      max,   median,      AVG,      STD,M2:  num,      min,      max,   median,      AVG,      STD
     301,  1821.00,  2091.00,  1877.00,  1910.34,  83.9946,     401,  2407.00,  2570.00,  2472.00,  2477.84,  53.3913,

Measurements:
Wavelength, Data Amplitude
1350, 1872.00
1351, 1873.00
1352, 1870.00
1353, 1870.00
1354, 1868.00
1355, 1869.00
1356, 1868.00
1357, 1866.00
1358, 1865.00
1359, 1863.00
1360, 1863.00
1361, 1863.00
1362, 1862.00
1363, 1859.00
1364, 1858.00
1365, 1857.00
1366, 1854.00
1367, 1854.00
1368, 1853.00
1369, 1851.00
1370, 1851.00
1371, 1849.00
1372, 1848.00
1373, 1846.00
1374, 1845.00
1375, 1843.00
1376, 1843.00
1377, 1840.00
1378, 1840.00
1379, 1840.00
1380, 1838.00
1381, 1837.00
1382, 1837.00
1383, 1835.00
1384, 1835.00
1385, 1833.00
1386, 1833.00
1387, 1832.00
1388, 1830.00
1389, 1830.00
1390, 1830.00
1391, 1828.00
1392, 1829.00
1393, 1828.00
1394, 1827.00
1395, 1826.00
1396, 1826.00
1397, 1827.00
1398, 1827.00
1399, 1826.00
1400, 1825.00
1401, 1825.00
1402, 1824.00
1403, 1825.00
1404, 1825.00
1405, 1825.00
1406, 1824.00
1407, 1824.00
1408, 1823.00
1409, 1822.00
1410, 1822.00
1411, 1823.00
1412, 1822.00
1413, 1822.00
1414, 1822.00
1415, 1822.00
1416, 1823.00
1417, 1822.00
1418, 1821.00
1419, 1822.00
1420, 1822.00
1421, 1822.00
1422, 1822.00
1423, 1822.00
1424, 1823.00
1425, 1821.00
1426, 1822.00
1427, 1822.00
1428, 1824.00
1429, 1823.00
1430, 1823.00
1431, 1824.00
1432, 1824.00
1433, 1824.00
1434, 1824.00
1435, 1825.00
1436, 1824.00
1437, 1824.00
1438, 1825.00
1439, 1827.00
1440, 1827.00
1441, 1827.00
1442, 1827.00
1443, 1827.00
1444, 1828.00
1445, 1829.00
1446, 1830.00
1447, 1829.00
1448, 1831.00
1449, 1831.00
1450, 1830.00
1451, 1831.00
1452, 1832.00
1453, 1832.00
1454, 1833.00
1455, 1834.00
1456, 1834.00
1457, 1835.00
1458, 1835.00
1459, 1837.00
1460, 1837.00
1461, 1837.00
1462, 1838.00
1463, 1839.00
1464, 1839.00
1465, 1841.00
1466, 1841.00
1467, 1842.00
1468, 1843.00
1469, 1843.00
1470, 1845.00
1471, 1845.00
1472, 1847.00
1473, 1847.00
1474, 1849.00
1475, 1849.00
1476, 1850.00
1477, 1852.00
1478, 1852.00
1479, 1853.00
1480, 1856.00
1481, 1855.00
1482, 1857.00
1483, 1859.00
1484, 1859.00
1485, 1860.00
1486, 1861.00
1487, 1862.00
1488, 1864.00
1489, 1864.00
1490, 1866.00
1491, 1867.00
1492, 1868.00
1493, 1867.00
1494, 1870.00
1495, 1870.00
1496, 1872.00
1497, 1873.00
1498, 1874.00
1499, 1876.00
1500, 1877.00
1501, 1878.00
1502, 1879.00
1503, 1880.00
1504, 1881.00
1505, 1882.00
1506, 1883.00
1507, 1885.00
1508, 1885.00
1509, 1887.00
1510, 1888.00
1511, 1889.00
1512, 1891.00
1513, 1892.00
1514, 1893.00
1515, 1894.00
1516, 1896.00
1517, 1896.00
1518, 1898.00
1519, 1899.00
1520, 1901.00
1521, 1902.00
1522, 1903.00
1523, 1904.00
1524, 1906.00
1525, 1907.00
1526, 1909.00
1527, 1910.00
1528, 1911.00
1529, 1913.00
1530, 1914.00
1531, 1915.00
1532, 1917.00
1533, 1918.00
1534, 1919.00
1535, 1921.00
1536, 1921.00
1537, 1923.00
1538, 1925.00
1539, 1927.00
1540, 1927.00
1541, 1928.00
1542, 1929.00
1543, 1932.00
1544, 1933.00
1545, 1935.00
1546, 1936.00
1547, 1938.00
1548, 1938.00
1549, 1939.00
1550, 1942.00
1551, 1942.00
1552, 1945.00
1553, 1946.00
1554, 1947.00
1555, 1948.00
1556, 1949.00
1557, 1950.00
1558, 1953.00
1559, 1954.00
1560, 1955.00
1561, 1958.00
1562, 1958.00
1563, 1960.00
1564, 1963.00
1565, 1963.00
1566, 1965.00
1567, 1967.00
1568, 1969.00
1569, 1970.00
1570, 1972.00
1571, 1973.00
1572, 1974.00
1573, 1976.00
1574, 1978.00
1575, 1980.00
1576, 1980.00
1577, 1981.00
1578, 1983.00
1579, 1985.00
1580, 1986.00
1581, 1988.00
1582, 1988.00
1583, 1990.00
1584, 1992.00
1585, 1993.00
1586, 1995.00
1587, 1995.00
1588, 1997.00
1589, 1998.00
1590, 2000.00
1591, 2001.00
1592, 2002.00
1593, 2003.00
1594, 2005.00
1595, 2006.00
1596, 2008.00
1597, 2009.00
1598, 2010.00
1599, 2012.00
1600, 2014.00
1601, 2015.00
1602, 2017.00
1603, 2018.00
1604, 2019.00
1605, 2021.00
1606, 2023.00
1607, 2024.00
1608, 2025.00
1609, 2028.00
1610, 2029.00
1611, 2031.00
1612, 2032.00
1613, 2034.00
1614, 2035.00
1615, 2037.00
1616, 2039.00
1617, 2041.00
1618, 2043.00
1619, 2044.00
1620, 2045.00
1621, 2049.00
1622, 2050.00
1623, 2051.00
1624, 2053.00
1625, 2055.00
1626, 2056.00
1627, 2058.00
1628, 2061.00
1629, 2061.00
1630, 2063.00
1631, 2065.00
1632, 2067.00
1633, 2067.00
1634, 2069.00
1635, 2070.00
1636, 2073.00
1637, 2074.00
1638, 2075.00
1639, 2076.00
1640, 2078.00
1641, 2080.00
1642, 2081.00
1643, 2082.00
1644, 2084.00
1645, 2085.00
1646, 2086.00
1647, 2087.00
1648, 2089.00
1649, 2090.00
1650, 2091.00

1750, 2568.00
1751, 2569.00
1752, 2569.00
1753, 2570.00
1754, 2569.00
1755, 2568.00
1756, 2570.00
1757, 2568.00
1758, 2569.00
1759, 2568.00
1760, 2569.00
1761, 2570.00
1762, 2568.00
1763, 2567.00
1764, 2569.00
1765, 2567.00
1766, 2567.00
1767, 2567.00
1768, 2568.00
1769, 2568.00
1770, 2566.00
1771, 2564.00
1772, 2568.00
1773, 2569.00
1774, 2566.00
1775, 2565.00
1776, 2564.00
1777, 2563.00
1778, 2563.00
1779, 2562.00
1780, 2562.00
1781, 2563.00
1782, 2562.00
1783, 2561.00
1784, 2561.00
1785, 2562.00
1786, 2560.00
1787, 2559.00
1788, 2558.00
1789, 2558.00
1790, 2557.00
1791, 2557.00
1792, 2555.00
1793, 2555.00
1794, 2555.00
1795, 2554.00
1796, 2552.00
1797, 2553.00
1798, 2553.00
1799, 2551.00
1800, 2549.00
1801, 2551.00
1802, 2549.00
1803, 2551.00
1804, 2549.00
1805, 2549.00
1806, 2547.00
1807, 2547.00
1808, 2546.00
1809, 2547.00
1810, 2546.00
1811, 2544.00
1812, 2544.00
1813, 2544.00
1814, 2543.00
1815, 2544.00
1816, 2541.00
1817, 2540.00
1818, 2540.00
1819, 2539.00
1820, 2539.00
1821, 2538.00
1822, 2534.00
1823, 2535.00
1824, 2535.00
1825, 2533.00
1826, 2532.00
1827, 2529.00
1828, 2530.00
1829, 2529.00
1830, 2526.00
1831, 2524.00
1832, 2525.00
1833, 2522.00
1834, 2519.00
1835, 2517.00
1836, 2515.00
1837, 2512.00
1838, 2512.00
1839, 2509.00
1840, 2507.00
1841, 2506.00
1842, 2504.00
1843, 2499.00
1844, 2499.00
1845, 2496.00
1846, 2492.00
1847, 2489.00
1848, 2488.00
1849, 2486.00
1850, 2482.00
1851, 2480.00
1852, 2479.00
1853, 2475.00
1854, 2471.00
1855, 2471.00
1856, 2466.00
1857, 2466.00
1858, 2463.00
1859, 2462.00
1860, 2457.00
1861, 2456.00
1862, 2454.00
1863, 2450.00
1864, 2448.00
1865, 2448.00
1866, 2444.00
1867, 2441.00
1868, 2440.00
1869, 2438.00
1870, 2437.00
1871, 2437.00
1872, 2435.00
1873, 2434.00
1874, 2431.00
1875, 2431.00
1876, 2429.00
1877, 2430.00
1878, 2428.00
1879, 2426.00
1880, 2425.00
1881, 2424.00
1882, 2425.00
1883, 2423.00
1884, 2424.00
1885, 2421.00
1886, 2422.00
1887, 2419.00
1888, 2419.00
1889, 2420.00
1890, 2419.00
1891, 2418.00
1892, 2418.00
1893, 2417.00
1894, 2416.00
1895, 2416.00
1896, 2416.00
1897, 2415.00
1898, 2414.00
1899, 2412.00
1900, 2413.00
1901, 2411.00
1902, 2412.00
1903, 2413.00
1904, 2412.00
1905, 2412.00
1906, 2412.00
1907, 2410.00
1908, 2410.00
1909, 2412.00
1910, 2410.00
1911, 2409.00
1912, 2411.00
1913, 2411.00
1914, 2410.00
1915, 2411.00
1916, 2409.00
1917, 2409.00
1918, 2409.00
1919, 2407.00
1920, 2407.00
1921, 2408.00
1922, 2408.00
1923, 2409.00
1924, 2409.00
1925, 2407.00
1926, 2408.00
1927, 2408.00
1928, 2407.00
1929, 2407.00
1930, 2407.00
1931, 2408.00
1932, 2410.00
1933, 2408.00
1934, 2409.00
1935, 2409.00
1936, 2409.00
1937, 2409.00
1938, 2408.00
1939, 2409.00
1940, 2408.00
1941, 2409.00
1942, 2411.00
1943, 2410.00
1944, 2409.00
1945, 2411.00
1946, 2411.00
1947, 2410.00
1948, 2411.00
1949, 2410.00
1950, 2412.00
1951, 2412.00
1952, 2411.00
1953, 2413.00
1954, 2414.00
1955, 2412.00
1956, 2414.00
1957, 2414.00
1958, 2415.00
1959, 2413.00
1960, 2415.00
1961, 2415.00
1962, 2418.00
1963, 2418.00
1964, 2416.00
1965, 2419.00
1966, 2418.00
1967, 2419.00
1968, 2420.00
1969, 2421.00
1970, 2419.00
1971, 2423.00
1972, 2422.00
1973, 2422.00
1974, 2422.00
1975, 2423.00
1976, 2424.00
1977, 2424.00
1978, 2423.00
1979, 2425.00
1980, 2427.00
1981, 2427.00
1982, 2427.00
1983, 2428.00
1984, 2430.00
1985, 2428.00
1986, 2430.00
1987, 2429.00
1988, 2431.00
1989, 2430.00
1990, 2431.00
1991, 2431.00
1992, 2434.00
1993, 2433.00
1994, 2433.00
1995, 2432.00
1996, 2433.00
1997, 2434.00
1998, 2435.00
1999, 2436.00
2000, 2436.00
2001, 2436.00
2002, 2438.00
2003, 2436.00
2004, 2439.00
2005, 2440.00
2006, 2440.00
2007, 2439.00
2008, 2442.00
2009, 2441.00
2010, 2441.00
2011, 2443.00
2012, 2444.00
2013, 2444.00
2014, 2444.00
2015, 2445.00
2016, 2446.00
2017, 2446.00
2018, 2446.00
2019, 2448.00
2020, 2447.00
2021, 2449.00
2022, 2448.00
2023, 2449.00
2024, 2451.00
2025, 2450.00
2026, 2451.00
2027, 2453.00
2028, 2454.00
2029, 2454.00
2030, 2455.00
2031, 2455.00
2032, 2454.00
2033, 2455.00
2034, 2457.00
2035, 2458.00
2036, 2460.00
2037, 2459.00
2038, 2460.00
2039, 2461.00
2040, 2461.00
2041, 2463.00
2042, 2462.00
2043, 2465.00
2044, 2464.00
2045, 2463.00
2046, 2465.00
2047, 2466.00
2048, 2468.00
2049, 2467.00
2050, 2468.00
2051, 2468.00
2052, 2471.00
2053, 2473.00
2054, 2474.00
2055, 2472.00
2056, 2472.00
2057, 2476.00
2058, 2477.00
2059, 2476.00
2060, 2478.00
2061, 2481.00
2062, 2479.00
2063, 2481.00
2064, 2482.00
2065, 2482.00
2066, 2482.00
2067, 2485.00
2068, 2485.00
2069, 2486.00
2070, 2486.00
2071, 2487.00
2072, 2488.00
2073, 2490.00
2074, 2491.00
2075, 2490.00
2076, 2492.00
2077, 2492.00
2078, 2493.00
2079, 2495.00
2080, 2495.00
2081, 2497.00
2082, 2496.00
2083, 2497.00
2084, 2498.00
2085, 2501.00
2086, 2499.00
2087, 2500.00
2088, 2501.00
2089, 2503.00
2090, 2502.00
2091, 2503.00
2092, 2503.00
2093, 2506.00
2094, 2504.00
2095, 2507.00
2096, 2506.00
2097, 2508.00
2098, 2508.00
2099, 2507.00
2100, 2507.00
2101, 2510.00
2102, 2510.00
2103, 2511.00
2104, 2511.00
2105, 2513.00
2106, 2513.00
2107, 2511.00
2108, 2515.00
2109, 2513.00
2110, 2514.00
2111, 2515.00
2112, 2514.00
2113, 2516.00
2114, 2516.00
2115, 2515.00
2116, 2517.00
2117, 2517.00
2118, 2517.00
2119, 2517.00
2120, 2518.00
2121, 2518.00
2122, 2519.00
2123, 2518.00
2124, 2519.00
2125, 2520.00
2126, 2522.00
2127, 2519.00
2128, 2520.00
2129, 2522.00
2130, 2523.00
2131, 2522.00
2132, 2524.00
2133, 2521.00
2134, 2523.00
2135, 2522.00
2136, 2523.00
2137, 2525.00
2138, 2523.00
2139, 2526.00
2140, 2523.00
2141, 2527.00
2142, 2525.00
2143, 2524.00
2144, 2525.00
2145, 2527.00
2146, 2526.00
2147, 2526.00
2148, 2525.00
2149, 2527.00
2150, 2527.00
