FW version: 24
Log Version: 3.0.3

General Info:
       Command/Macro Performed,            Timestamp,             Device ID, COM Port, UART/I2C, Test Name, Host Major, Host Minor, Host Revision, Host Git Commit
            Single_measurement,  2023_07_04_11_01_22,       Insight2_F4_xxx,    USB-C,      USB,          ,          0,          1,             1,      4031237645

Show Spectrometer Status:
l0_version, f4_version, battery_perc, battery_mVolt, accelerometer_temp, accelerometer_x, accelerometer_y, accelerometer_z, compass_temp, compass_x, compass_y, compass_z, lamp_0, lamp_1, gain_0, gain_1
        17,         24,           15,          1839,               5632,           64932,            2024,           19100,            0,     65519,     65529,     19199,   2457,   2457,      1,      1

Temperature Statistic Info:
NTC AVG [°C], NTC2 AVG [°C]
      36.322,        36.004

Statistic Info:
M1:  num,      min,      max,   median,      AVG,      STD,M2:  num,      min,      max,   median,      AVG,      STD
     301,  1052.00,  1221.00,  1087.00,  1107.43,  52.2213,     401,  1500.00,  1603.00,  1544.00,  1546.09,  33.8638,

Measurements:
Wavelength, Data Amplitude
1350, 1079.00
1351, 1079.00
1352, 1078.00
1353, 1078.00
1354, 1077.00
1355, 1077.00
1356, 1077.00
1357, 1077.00
1358, 1076.00
1359, 1075.00
1360, 1075.00
1361, 1074.00
1362, 1073.00
1363, 1073.00
1364, 1073.00
1365, 1071.00
1366, 1071.00
1367, 1071.00
1368, 1068.00
1369, 1068.00
1370, 1067.00
1371, 1068.00
1372, 1066.00
1373, 1065.00
1374, 1065.00
1375, 1064.00
1376, 1064.00
1377, 1063.00
1378, 1062.00
1379, 1061.00
1380, 1061.00
1381, 1061.00
1382, 1061.00
1383, 1059.00
1384, 1059.00
1385, 1058.00
1386, 1059.00
1387, 1058.00
1388, 1057.00
1389, 1057.00
1390, 1057.00
1391, 1057.00
1392, 1056.00
1393, 1056.00
1394, 1055.00
1395, 1055.00
1396, 1056.00
1397, 1056.00
1398, 1056.00
1399, 1053.00
1400, 1054.00
1401, 1054.00
1402, 1054.00
1403, 1053.00
1404, 1053.00
1405, 1053.00
1406, 1054.00
1407, 1053.00
1408, 1054.00
1409, 1053.00
1410, 1052.00
1411, 1053.00
1412, 1053.00
1413, 1053.00
1414, 1052.00
1415, 1052.00
1416, 1053.00
1417, 1053.00
1418, 1052.00
1419, 1053.00
1420, 1052.00
1421, 1053.00
1422, 1053.00
1423, 1052.00
1424, 1053.00
1425, 1053.00
1426, 1054.00
1427, 1053.00
1428, 1053.00
1429, 1054.00
1430, 1054.00
1431, 1053.00
1432, 1055.00
1433, 1053.00
1434, 1054.00
1435, 1054.00
1436, 1054.00
1437, 1055.00
1438, 1056.00
1439, 1056.00
1440, 1056.00
1441, 1056.00
1442, 1057.00
1443, 1056.00
1444, 1057.00
1445, 1057.00
1446, 1057.00
1447, 1057.00
1448, 1058.00
1449, 1059.00
1450, 1059.00
1451, 1059.00
1452, 1060.00
1453, 1060.00
1454, 1060.00
1455, 1060.00
1456, 1060.00
1457, 1061.00
1458, 1062.00
1459, 1062.00
1460, 1063.00
1461, 1063.00
1462, 1062.00
1463, 1064.00
1464, 1064.00
1465, 1065.00
1466, 1065.00
1467, 1066.00
1468, 1066.00
1469, 1068.00
1470, 1067.00
1471, 1068.00
1472, 1068.00
1473, 1070.00
1474, 1069.00
1475, 1069.00
1476, 1070.00
1477, 1072.00
1478, 1072.00
1479, 1073.00
1480, 1074.00
1481, 1075.00
1482, 1076.00
1483, 1075.00
1484, 1076.00
1485, 1076.00
1486, 1077.00
1487, 1078.00
1488, 1079.00
1489, 1080.00
1490, 1081.00
1491, 1081.00
1492, 1082.00
1493, 1082.00
1494, 1083.00
1495, 1083.00
1496, 1085.00
1497, 1085.00
1498, 1086.00
1499, 1087.00
1500, 1087.00
1501, 1087.00
1502, 1089.00
1503, 1089.00
1504, 1091.00
1505, 1091.00
1506, 1092.00
1507, 1093.00
1508, 1093.00
1509, 1094.00
1510, 1095.00
1511, 1095.00
1512, 1097.00
1513, 1097.00
1514, 1098.00
1515, 1097.00
1516, 1100.00
1517, 1100.00
1518, 1101.00
1519, 1102.00
1520, 1102.00
1521, 1103.00
1522, 1105.00
1523, 1105.00
1524, 1106.00
1525, 1106.00
1526, 1107.00
1527, 1111.00
1528, 1109.00
1529, 1110.00
1530, 1112.00
1531, 1113.00
1532, 1114.00
1533, 1114.00
1534, 1114.00
1535, 1116.00
1536, 1117.00
1537, 1117.00
1538, 1117.00
1539, 1119.00
1540, 1119.00
1541, 1120.00
1542, 1121.00
1543, 1122.00
1544, 1123.00
1545, 1123.00
1546, 1124.00
1547, 1126.00
1548, 1126.00
1549, 1126.00
1550, 1128.00
1551, 1128.00
1552, 1128.00
1553, 1130.00
1554, 1131.00
1555, 1131.00
1556, 1133.00
1557, 1134.00
1558, 1135.00
1559, 1136.00
1560, 1136.00
1561, 1137.00
1562, 1137.00
1563, 1139.00
1564, 1139.00
1565, 1141.00
1566, 1143.00
1567, 1143.00
1568, 1143.00
1569, 1145.00
1570, 1146.00
1571, 1147.00
1572, 1148.00
1573, 1148.00
1574, 1149.00
1575, 1150.00
1576, 1151.00
1577, 1152.00
1578, 1152.00
1579, 1154.00
1580, 1155.00
1581, 1156.00
1582, 1156.00
1583, 1157.00
1584, 1157.00
1585, 1159.00
1586, 1160.00
1587, 1159.00
1588, 1161.00
1589, 1163.00
1590, 1163.00
1591, 1163.00
1592, 1164.00
1593, 1165.00
1594, 1165.00
1595, 1167.00
1596, 1168.00
1597, 1168.00
1598, 1169.00
1599, 1170.00
1600, 1171.00
1601, 1172.00
1602, 1173.00
1603, 1174.00
1604, 1174.00
1605, 1176.00
1606, 1178.00
1607, 1177.00
1608, 1179.00
1609, 1180.00
1610, 1180.00
1611, 1181.00
1612, 1184.00
1613, 1184.00
1614, 1184.00
1615, 1186.00
1616, 1187.00
1617, 1188.00
1618, 1190.00
1619, 1191.00
1620, 1191.00
1621, 1193.00
1622, 1194.00
1623, 1196.00
1624, 1196.00
1625, 1197.00
1626, 1198.00
1627, 1199.00
1628, 1201.00
1629, 1201.00
1630, 1203.00
1631, 1202.00
1632, 1203.00
1633, 1205.00
1634, 1207.00
1635, 1207.00
1636, 1208.00
1637, 1208.00
1638, 1210.00
1639, 1210.00
1640, 1211.00
1641, 1211.00
1642, 1212.00
1643, 1213.00
1644, 1214.00
1645, 1215.00
1646, 1216.00
1647, 1218.00
1648, 1218.00
1649, 1219.00
1650, 1221.00

1750, 1601.00
1751, 1600.00
1752, 1602.00
1753, 1600.00
1754, 1600.00
1755, 1602.00
1756, 1603.00
1757, 1600.00
1758, 1602.00
1759, 1602.00
1760, 1601.00
1761, 1601.00
1762, 1601.00
1763, 1600.00
1764, 1602.00
1765, 1601.00
1766, 1601.00
1767, 1601.00
1768, 1600.00
1769, 1600.00
1770, 1600.00
1771, 1598.00
1772, 1599.00
1773, 1600.00
1774, 1600.00
1775, 1600.00
1776, 1597.00
1777, 1598.00
1778, 1599.00
1779, 1597.00
1780, 1596.00
1781, 1597.00
1782, 1597.00
1783, 1597.00
1784, 1596.00
1785, 1597.00
1786, 1597.00
1787, 1595.00
1788, 1596.00
1789, 1594.00
1790, 1595.00
1791, 1594.00
1792, 1593.00
1793, 1593.00
1794, 1592.00
1795, 1594.00
1796, 1592.00
1797, 1591.00
1798, 1591.00
1799, 1591.00
1800, 1591.00
1801, 1589.00
1802, 1591.00
1803, 1590.00
1804, 1589.00
1805, 1590.00
1806, 1589.00
1807, 1590.00
1808, 1588.00
1809, 1589.00
1810, 1587.00
1811, 1587.00
1812, 1586.00
1813, 1585.00
1814, 1587.00
1815, 1585.00
1816, 1585.00
1817, 1585.00
1818, 1585.00
1819, 1585.00
1820, 1584.00
1821, 1583.00
1822, 1582.00
1823, 1581.00
1824, 1579.00
1825, 1581.00
1826, 1579.00
1827, 1579.00
1828, 1577.00
1829, 1578.00
1830, 1576.00
1831, 1574.00
1832, 1574.00
1833, 1573.00
1834, 1573.00
1835, 1570.00
1836, 1569.00
1837, 1567.00
1838, 1567.00
1839, 1566.00
1840, 1564.00
1841, 1563.00
1842, 1561.00
1843, 1560.00
1844, 1558.00
1845, 1556.00
1846, 1554.00
1847, 1554.00
1848, 1554.00
1849, 1551.00
1850, 1548.00
1851, 1547.00
1852, 1545.00
1853, 1544.00
1854, 1541.00
1855, 1541.00
1856, 1539.00
1857, 1538.00
1858, 1535.00
1859, 1533.00
1860, 1534.00
1861, 1530.00
1862, 1530.00
1863, 1529.00
1864, 1525.00
1865, 1525.00
1866, 1525.00
1867, 1523.00
1868, 1524.00
1869, 1523.00
1870, 1519.00
1871, 1519.00
1872, 1519.00
1873, 1517.00
1874, 1516.00
1875, 1515.00
1876, 1515.00
1877, 1514.00
1878, 1513.00
1879, 1513.00
1880, 1513.00
1881, 1512.00
1882, 1513.00
1883, 1512.00
1884, 1511.00
1885, 1509.00
1886, 1510.00
1887, 1509.00
1888, 1509.00
1889, 1508.00
1890, 1508.00
1891, 1506.00
1892, 1507.00
1893, 1507.00
1894, 1506.00
1895, 1507.00
1896, 1506.00
1897, 1505.00
1898, 1505.00
1899, 1503.00
1900, 1505.00
1901, 1505.00
1902, 1504.00
1903, 1505.00
1904, 1503.00
1905, 1503.00
1906, 1502.00
1907, 1503.00
1908, 1502.00
1909, 1503.00
1910, 1503.00
1911, 1504.00
1912, 1502.00
1913, 1500.00
1914, 1502.00
1915, 1502.00
1916, 1501.00
1917, 1501.00
1918, 1500.00
1919, 1502.00
1920, 1500.00
1921, 1502.00
1922, 1502.00
1923, 1502.00
1924, 1503.00
1925, 1502.00
1926, 1502.00
1927, 1502.00
1928, 1501.00
1929, 1500.00
1930, 1501.00
1931, 1501.00
1932, 1501.00
1933, 1501.00
1934, 1501.00
1935, 1500.00
1936, 1500.00
1937, 1501.00
1938, 1501.00
1939, 1503.00
1940, 1502.00
1941, 1502.00
1942, 1503.00
1943, 1503.00
1944, 1501.00
1945, 1503.00
1946, 1503.00
1947, 1504.00
1948, 1503.00
1949, 1504.00
1950, 1503.00
1951, 1504.00
1952, 1504.00
1953, 1503.00
1954, 1504.00
1955, 1503.00
1956, 1505.00
1957, 1505.00
1958, 1506.00
1959, 1506.00
1960, 1506.00
1961, 1506.00
1962, 1505.00
1963, 1506.00
1964, 1508.00
1965, 1508.00
1966, 1507.00
1967, 1508.00
1968, 1509.00
1969, 1509.00
1970, 1510.00
1971, 1511.00
1972, 1509.00
1973, 1512.00
1974, 1509.00
1975, 1511.00
1976, 1511.00
1977, 1512.00
1978, 1512.00
1979, 1512.00
1980, 1513.00
1981, 1514.00
1982, 1514.00
1983, 1514.00
1984, 1515.00
1985, 1515.00
1986, 1514.00
1987, 1515.00
1988, 1514.00
1989, 1516.00
1990, 1516.00
1991, 1518.00
1992, 1518.00
1993, 1516.00
1994, 1518.00
1995, 1517.00
1996, 1519.00
1997, 1518.00
1998, 1518.00
1999, 1520.00
2000, 1519.00
2001, 1519.00
2002, 1521.00
2003, 1520.00
2004, 1523.00
2005, 1521.00
2006, 1520.00
2007, 1522.00
2008, 1524.00
2009, 1523.00
2010, 1523.00
2011, 1524.00
2012, 1523.00
2013, 1525.00
2014, 1524.00
2015, 1527.00
2016, 1525.00
2017, 1527.00
2018, 1526.00
2019, 1527.00
2020, 1528.00
2021, 1527.00
2022, 1529.00
2023, 1527.00
2024, 1530.00
2025, 1530.00
2026, 1531.00
2027, 1529.00
2028, 1530.00
2029, 1531.00
2030, 1530.00
2031, 1531.00
2032, 1533.00
2033, 1532.00
2034, 1531.00
2035, 1535.00
2036, 1535.00
2037, 1536.00
2038, 1535.00
2039, 1535.00
2040, 1538.00
2041, 1537.00
2042, 1537.00
2043, 1538.00
2044, 1538.00
2045, 1539.00
2046, 1539.00
2047, 1539.00
2048, 1541.00
2049, 1541.00
2050, 1541.00
2051, 1541.00
2052, 1543.00
2053, 1543.00
2054, 1544.00
2055, 1544.00
2056, 1544.00
2057, 1544.00
2058, 1547.00
2059, 1548.00
2060, 1549.00
2061, 1548.00
2062, 1549.00
2063, 1551.00
2064, 1550.00
2065, 1550.00
2066, 1551.00
2067, 1551.00
2068, 1552.00
2069, 1553.00
2070, 1554.00
2071, 1554.00
2072, 1554.00
2073, 1555.00
2074, 1556.00
2075, 1556.00
2076, 1557.00
2077, 1556.00
2078, 1557.00
2079, 1559.00
2080, 1560.00
2081, 1558.00
2082, 1559.00
2083, 1562.00
2084, 1560.00
2085, 1562.00
2086, 1563.00
2087, 1563.00
2088, 1565.00
2089, 1563.00
2090, 1563.00
2091, 1563.00
2092, 1565.00
2093, 1565.00
2094, 1566.00
2095, 1566.00
2096, 1568.00
2097, 1568.00
2098, 1568.00
2099, 1567.00
2100, 1568.00
2101, 1568.00
2102, 1569.00
2103, 1569.00
2104, 1569.00
2105, 1570.00
2106, 1571.00
2107, 1569.00
2108, 1571.00
2109, 1573.00
2110, 1572.00
2111, 1571.00
2112, 1571.00
2113, 1574.00
2114, 1572.00
2115, 1572.00
2116, 1574.00
2117, 1574.00
2118, 1574.00
2119, 1573.00
2120, 1574.00
2121, 1576.00
2122, 1575.00
2123, 1575.00
2124, 1576.00
2125, 1575.00
2126, 1577.00
2127, 1577.00
2128, 1577.00
2129, 1576.00
2130, 1578.00
2131, 1578.00
2132, 1578.00
2133, 1578.00
2134, 1578.00
2135, 1577.00
2136, 1577.00
2137, 1579.00
2138, 1578.00
2139, 1578.00
2140, 1578.00
2141, 1579.00
2142, 1580.00
2143, 1580.00
2144, 1581.00
2145, 1580.00
2146, 1580.00
2147, 1581.00
2148, 1580.00
2149, 1581.00
2150, 1580.00
