FW version: 24
Log Version: 3.0.3

General Info:
       Command/Macro Performed,            Timestamp,             Device ID, COM Port, UART/I2C, Test Name, Host Major, Host Minor, Host Revision, Host Git Commit
            Single_measurement,  2023_07_04_11_05_26,       Insight2_F4_xxx,    USB-C,      USB,          ,          0,          1,             1,      4031237645

Show Spectrometer Status:
l0_version, f4_version, battery_perc, battery_mVolt, accelerometer_temp, accelerometer_x, accelerometer_y, accelerometer_z, compass_temp, compass_x, compass_y, compass_z, lamp_0, lamp_1, gain_0, gain_1
        17,         24,           18,          1850,               5824,           64940,            2072,           19212,            0,     65518,     65339,     19311,   2047,   2047,      1,      1

Temperature Statistic Info:
NTC AVG [°C], NTC2 AVG [°C]
      36.807,        36.494

Statistic Info:
M1:  num,      min,      max,   median,      AVG,      STD,M2:  num,      min,      max,   median,      AVG,      STD
     301,   607.00,   697.00,   629.00,   637.94,  28.2662,     401,   918.00,   969.00,   940.00,   941.41,  16.5957,

Measurements:
Wavelength, Data Amplitude
1350, 621.00
1351, 621.00
1352, 620.00
1353, 620.00
1354, 620.00
1355, 620.00
1356, 620.00
1357, 619.00
1358, 619.00
1359, 618.00
1360, 618.00
1361, 618.00
1362, 618.00
1363, 617.00
1364, 617.00
1365, 617.00
1366, 616.00
1367, 616.00
1368, 615.00
1369, 615.00
1370, 615.00
1371, 614.00
1372, 614.00
1373, 613.00
1374, 615.00
1375, 613.00
1376, 613.00
1377, 612.00
1378, 611.00
1379, 612.00
1380, 612.00
1381, 612.00
1382, 610.00
1383, 610.00
1384, 610.00
1385, 609.00
1386, 610.00
1387, 610.00
1388, 609.00
1389, 609.00
1390, 610.00
1391, 609.00
1392, 609.00
1393, 609.00
1394, 609.00
1395, 609.00
1396, 609.00
1397, 609.00
1398, 609.00
1399, 609.00
1400, 608.00
1401, 609.00
1402, 609.00
1403, 608.00
1404, 608.00
1405, 608.00
1406, 607.00
1407, 607.00
1408, 609.00
1409, 608.00
1410, 608.00
1411, 608.00
1412, 608.00
1413, 608.00
1414, 608.00
1415, 609.00
1416, 608.00
1417, 608.00
1418, 608.00
1419, 608.00
1420, 608.00
1421, 608.00
1422, 608.00
1423, 608.00
1424, 609.00
1425, 608.00
1426, 608.00
1427, 608.00
1428, 608.00
1429, 609.00
1430, 608.00
1431, 609.00
1432, 609.00
1433, 609.00
1434, 610.00
1435, 610.00
1436, 609.00
1437, 609.00
1438, 609.00
1439, 610.00
1440, 610.00
1441, 610.00
1442, 610.00
1443, 611.00
1444, 611.00
1445, 611.00
1446, 611.00
1447, 610.00
1448, 611.00
1449, 612.00
1450, 612.00
1451, 612.00
1452, 612.00
1453, 612.00
1454, 613.00
1455, 613.00
1456, 613.00
1457, 613.00
1458, 613.00
1459, 613.00
1460, 614.00
1461, 614.00
1462, 614.00
1463, 614.00
1464, 615.00
1465, 615.00
1466, 615.00
1467, 617.00
1468, 616.00
1469, 616.00
1470, 617.00
1471, 617.00
1472, 617.00
1473, 617.00
1474, 618.00
1475, 618.00
1476, 619.00
1477, 619.00
1478, 620.00
1479, 620.00
1480, 621.00
1481, 621.00
1482, 621.00
1483, 622.00
1484, 622.00
1485, 621.00
1486, 623.00
1487, 622.00
1488, 623.00
1489, 624.00
1490, 625.00
1491, 625.00
1492, 625.00
1493, 625.00
1494, 626.00
1495, 626.00
1496, 627.00
1497, 627.00
1498, 626.00
1499, 628.00
1500, 629.00
1501, 629.00
1502, 629.00
1503, 629.00
1504, 629.00
1505, 631.00
1506, 629.00
1507, 631.00
1508, 631.00
1509, 632.00
1510, 633.00
1511, 632.00
1512, 634.00
1513, 633.00
1514, 634.00
1515, 635.00
1516, 635.00
1517, 635.00
1518, 636.00
1519, 637.00
1520, 637.00
1521, 637.00
1522, 638.00
1523, 638.00
1524, 639.00
1525, 639.00
1526, 640.00
1527, 640.00
1528, 641.00
1529, 641.00
1530, 643.00
1531, 642.00
1532, 643.00
1533, 643.00
1534, 644.00
1535, 644.00
1536, 645.00
1537, 645.00
1538, 645.00
1539, 646.00
1540, 646.00
1541, 647.00
1542, 647.00
1543, 646.00
1544, 648.00
1545, 649.00
1546, 649.00
1547, 649.00
1548, 649.00
1549, 650.00
1550, 651.00
1551, 650.00
1552, 651.00
1553, 651.00
1554, 652.00
1555, 652.00
1556, 653.00
1557, 653.00
1558, 653.00
1559, 654.00
1560, 654.00
1561, 655.00
1562, 656.00
1563, 656.00
1564, 656.00
1565, 657.00
1566, 658.00
1567, 657.00
1568, 658.00
1569, 659.00
1570, 659.00
1571, 659.00
1572, 660.00
1573, 660.00
1574, 661.00
1575, 662.00
1576, 662.00
1577, 662.00
1578, 663.00
1579, 663.00
1580, 663.00
1581, 664.00
1582, 664.00
1583, 666.00
1584, 665.00
1585, 666.00
1586, 666.00
1587, 666.00
1588, 667.00
1589, 668.00
1590, 668.00
1591, 668.00
1592, 669.00
1593, 669.00
1594, 669.00
1595, 670.00
1596, 671.00
1597, 671.00
1598, 670.00
1599, 672.00
1600, 672.00
1601, 672.00
1602, 674.00
1603, 673.00
1604, 674.00
1605, 676.00
1606, 676.00
1607, 675.00
1608, 676.00
1609, 677.00
1610, 678.00
1611, 678.00
1612, 678.00
1613, 679.00
1614, 680.00
1615, 681.00
1616, 681.00
1617, 682.00
1618, 682.00
1619, 682.00
1620, 683.00
1621, 684.00
1622, 685.00
1623, 685.00
1624, 685.00
1625, 685.00
1626, 686.00
1627, 687.00
1628, 687.00
1629, 688.00
1630, 688.00
1631, 689.00
1632, 689.00
1633, 690.00
1634, 690.00
1635, 691.00
1636, 692.00
1637, 691.00
1638, 692.00
1639, 693.00
1640, 692.00
1641, 693.00
1642, 693.00
1643, 694.00
1644, 694.00
1645, 695.00
1646, 695.00
1647, 695.00
1648, 697.00
1649, 696.00
1650, 697.00

1750, 967.00
1751, 966.00
1752, 968.00
1753, 968.00
1754, 968.00
1755, 969.00
1756, 967.00
1757, 967.00
1758, 969.00
1759, 967.00
1760, 968.00
1761, 968.00
1762, 968.00
1763, 969.00
1764, 968.00
1765, 968.00
1766, 969.00
1767, 967.00
1768, 968.00
1769, 966.00
1770, 967.00
1771, 967.00
1772, 968.00
1773, 969.00
1774, 967.00
1775, 968.00
1776, 967.00
1777, 967.00
1778, 966.00
1779, 967.00
1780, 968.00
1781, 967.00
1782, 965.00
1783, 966.00
1784, 965.00
1785, 963.00
1786, 965.00
1787, 967.00
1788, 965.00
1789, 965.00
1790, 963.00
1791, 965.00
1792, 964.00
1793, 964.00
1794, 964.00
1795, 962.00
1796, 964.00
1797, 963.00
1798, 963.00
1799, 963.00
1800, 963.00
1801, 963.00
1802, 962.00
1803, 963.00
1804, 962.00
1805, 962.00
1806, 963.00
1807, 963.00
1808, 963.00
1809, 963.00
1810, 962.00
1811, 961.00
1812, 961.00
1813, 963.00
1814, 963.00
1815, 962.00
1816, 961.00
1817, 960.00
1818, 958.00
1819, 960.00
1820, 959.00
1821, 959.00
1822, 959.00
1823, 958.00
1824, 958.00
1825, 959.00
1826, 958.00
1827, 957.00
1828, 956.00
1829, 955.00
1830, 956.00
1831, 953.00
1832, 955.00
1833, 953.00
1834, 953.00
1835, 951.00
1836, 953.00
1837, 950.00
1838, 950.00
1839, 951.00
1840, 949.00
1841, 949.00
1842, 949.00
1843, 946.00
1844, 946.00
1845, 946.00
1846, 945.00
1847, 943.00
1848, 945.00
1849, 941.00
1850, 942.00
1851, 940.00
1852, 939.00
1853, 939.00
1854, 939.00
1855, 939.00
1856, 937.00
1857, 936.00
1858, 937.00
1859, 936.00
1860, 933.00
1861, 933.00
1862, 932.00
1863, 932.00
1864, 932.00
1865, 932.00
1866, 930.00
1867, 930.00
1868, 929.00
1869, 929.00
1870, 928.00
1871, 927.00
1872, 927.00
1873, 928.00
1874, 927.00
1875, 926.00
1876, 926.00
1877, 926.00
1878, 925.00
1879, 927.00
1880, 924.00
1881, 924.00
1882, 925.00
1883, 925.00
1884, 924.00
1885, 924.00
1886, 923.00
1887, 922.00
1888, 922.00
1889, 923.00
1890, 923.00
1891, 923.00
1892, 922.00
1893, 921.00
1894, 924.00
1895, 922.00
1896, 921.00
1897, 921.00
1898, 921.00
1899, 921.00
1900, 922.00
1901, 920.00
1902, 922.00
1903, 921.00
1904, 922.00
1905, 922.00
1906, 920.00
1907, 922.00
1908, 920.00
1909, 922.00
1910, 920.00
1911, 921.00
1912, 920.00
1913, 919.00
1914, 918.00
1915, 921.00
1916, 920.00
1917, 919.00
1918, 920.00
1919, 920.00
1920, 920.00
1921, 919.00
1922, 920.00
1923, 919.00
1924, 920.00
1925, 919.00
1926, 919.00
1927, 920.00
1928, 919.00
1929, 919.00
1930, 919.00
1931, 920.00
1932, 919.00
1933, 919.00
1934, 921.00
1935, 920.00
1936, 920.00
1937, 920.00
1938, 918.00
1939, 920.00
1940, 920.00
1941, 920.00
1942, 920.00
1943, 919.00
1944, 920.00
1945, 920.00
1946, 921.00
1947, 921.00
1948, 920.00
1949, 920.00
1950, 921.00
1951, 920.00
1952, 920.00
1953, 923.00
1954, 921.00
1955, 922.00
1956, 921.00
1957, 922.00
1958, 921.00
1959, 920.00
1960, 922.00
1961, 922.00
1962, 922.00
1963, 923.00
1964, 922.00
1965, 923.00
1966, 921.00
1967, 923.00
1968, 924.00
1969, 923.00
1970, 923.00
1971, 925.00
1972, 925.00
1973, 924.00
1974, 924.00
1975, 925.00
1976, 923.00
1977, 923.00
1978, 926.00
1979, 925.00
1980, 925.00
1981, 926.00
1982, 925.00
1983, 926.00
1984, 926.00
1985, 927.00
1986, 928.00
1987, 926.00
1988, 926.00
1989, 928.00
1990, 927.00
1991, 927.00
1992, 927.00
1993, 926.00
1994, 927.00
1995, 926.00
1996, 928.00
1997, 929.00
1998, 928.00
1999, 928.00
2000, 928.00
2001, 928.00
2002, 928.00
2003, 930.00
2004, 929.00
2005, 930.00
2006, 928.00
2007, 930.00
2008, 928.00
2009, 931.00
2010, 930.00
2011, 931.00
2012, 930.00
2013, 929.00
2014, 931.00
2015, 930.00
2016, 931.00
2017, 931.00
2018, 933.00
2019, 932.00
2020, 932.00
2021, 932.00
2022, 934.00
2023, 932.00
2024, 932.00
2025, 934.00
2026, 935.00
2027, 934.00
2028, 932.00
2029, 933.00
2030, 933.00
2031, 935.00
2032, 935.00
2033, 934.00
2034, 935.00
2035, 936.00
2036, 937.00
2037, 936.00
2038, 935.00
2039, 936.00
2040, 936.00
2041, 937.00
2042, 937.00
2043, 937.00
2044, 936.00
2045, 937.00
2046, 937.00
2047, 940.00
2048, 938.00
2049, 938.00
2050, 938.00
2051, 939.00
2052, 940.00
2053, 941.00
2054, 939.00
2055, 941.00
2056, 941.00
2057, 941.00
2058, 942.00
2059, 941.00
2060, 942.00
2061, 943.00
2062, 943.00
2063, 942.00
2064, 943.00
2065, 943.00
2066, 945.00
2067, 945.00
2068, 945.00
2069, 946.00
2070, 945.00
2071, 945.00
2072, 946.00
2073, 945.00
2074, 946.00
2075, 947.00
2076, 948.00
2077, 947.00
2078, 947.00
2079, 947.00
2080, 949.00
2081, 948.00
2082, 949.00
2083, 949.00
2084, 949.00
2085, 949.00
2086, 951.00
2087, 951.00
2088, 951.00
2089, 951.00
2090, 951.00
2091, 951.00
2092, 950.00
2093, 952.00
2094, 952.00
2095, 952.00
2096, 951.00
2097, 953.00
2098, 953.00
2099, 952.00
2100, 953.00
2101, 952.00
2102, 953.00
2103, 953.00
2104, 953.00
2105, 953.00
2106, 954.00
2107, 954.00
2108, 956.00
2109, 953.00
2110, 954.00
2111, 955.00
2112, 955.00
2113, 955.00
2114, 956.00
2115, 957.00
2116, 957.00
2117, 955.00
2118, 956.00
2119, 956.00
2120, 957.00
2121, 955.00
2122, 957.00
2123, 957.00
2124, 958.00
2125, 955.00
2126, 957.00
2127, 956.00
2128, 957.00
2129, 956.00
2130, 957.00
2131, 958.00
2132, 957.00
2133, 958.00
2134, 958.00
2135, 958.00
2136, 957.00
2137, 958.00
2138, 958.00
2139, 959.00
2140, 958.00
2141, 959.00
2142, 959.00
2143, 959.00
2144, 958.00
2145, 959.00
2146, 959.00
2147, 960.00
2148, 960.00
2149, 960.00
2150, 958.00
