FW version: 24
Log Version: 3.0.3

General Info:
       Command/Macro Performed,            Timestamp,             Device ID, COM Port, UART/I2C, Test Name, Host Major, Host Minor, Host Revision, Host Git Commit
            Single_measurement,  2023_07_04_11_05_18,       Insight2_F4_xxx,    USB-C,      USB,          ,          0,          1,             1,      4031237645

Show Spectrometer Status:
l0_version, f4_version, battery_perc, battery_mVolt, accelerometer_temp, accelerometer_x, accelerometer_y, accelerometer_z, compass_temp, compass_x, compass_y, compass_z, lamp_0, lamp_1, gain_0, gain_1
        17,         24,           18,          1846,               5808,           64900,            2108,           19140,            0,     65517,     65343,     19180,   2047,   2047,      1,      1

Temperature Statistic Info:
NTC AVG [°C], NTC2 AVG [°C]
      36.722,        36.408

Statistic Info:
M1:  num,      min,      max,   median,      AVG,      STD,M2:  num,      min,      max,   median,      AVG,      STD
     301,   607.00,   697.00,   628.00,   637.82,  28.1979,     401,   917.00,   969.00,   940.00,   941.27,  16.5468,

Measurements:
Wavelength, Data Amplitude
1350, 620.00
1351, 621.00
1352, 620.00
1353, 621.00
1354, 620.00
1355, 619.00
1356, 619.00
1357, 619.00
1358, 619.00
1359, 618.00
1360, 618.00
1361, 618.00
1362, 617.00
1363, 616.00
1364, 617.00
1365, 617.00
1366, 616.00
1367, 615.00
1368, 616.00
1369, 615.00
1370, 615.00
1371, 615.00
1372, 615.00
1373, 613.00
1374, 613.00
1375, 612.00
1376, 612.00
1377, 611.00
1378, 612.00
1379, 612.00
1380, 613.00
1381, 612.00
1382, 611.00
1383, 610.00
1384, 610.00
1385, 610.00
1386, 610.00
1387, 610.00
1388, 610.00
1389, 609.00
1390, 610.00
1391, 609.00
1392, 609.00
1393, 610.00
1394, 608.00
1395, 609.00
1396, 608.00
1397, 608.00
1398, 608.00
1399, 608.00
1400, 609.00
1401, 608.00
1402, 608.00
1403, 608.00
1404, 608.00
1405, 608.00
1406, 608.00
1407, 609.00
1408, 607.00
1409, 608.00
1410, 609.00
1411, 608.00
1412, 609.00
1413, 608.00
1414, 608.00
1415, 608.00
1416, 607.00
1417, 608.00
1418, 609.00
1419, 608.00
1420, 608.00
1421, 608.00
1422, 608.00
1423, 609.00
1424, 609.00
1425, 608.00
1426, 609.00
1427, 608.00
1428, 608.00
1429, 608.00
1430, 608.00
1431, 608.00
1432, 608.00
1433, 609.00
1434, 608.00
1435, 610.00
1436, 609.00
1437, 609.00
1438, 610.00
1439, 610.00
1440, 610.00
1441, 610.00
1442, 610.00
1443, 610.00
1444, 611.00
1445, 611.00
1446, 611.00
1447, 611.00
1448, 611.00
1449, 612.00
1450, 612.00
1451, 613.00
1452, 613.00
1453, 613.00
1454, 613.00
1455, 612.00
1456, 613.00
1457, 613.00
1458, 613.00
1459, 614.00
1460, 614.00
1461, 615.00
1462, 614.00
1463, 615.00
1464, 616.00
1465, 616.00
1466, 615.00
1467, 616.00
1468, 617.00
1469, 617.00
1470, 617.00
1471, 617.00
1472, 617.00
1473, 618.00
1474, 618.00
1475, 618.00
1476, 619.00
1477, 619.00
1478, 620.00
1479, 620.00
1480, 620.00
1481, 620.00
1482, 621.00
1483, 620.00
1484, 621.00
1485, 622.00
1486, 623.00
1487, 623.00
1488, 623.00
1489, 623.00
1490, 623.00
1491, 624.00
1492, 624.00
1493, 625.00
1494, 626.00
1495, 626.00
1496, 626.00
1497, 627.00
1498, 627.00
1499, 627.00
1500, 628.00
1501, 629.00
1502, 629.00
1503, 629.00
1504, 630.00
1505, 630.00
1506, 631.00
1507, 631.00
1508, 631.00
1509, 632.00
1510, 632.00
1511, 634.00
1512, 634.00
1513, 633.00
1514, 635.00
1515, 634.00
1516, 635.00
1517, 635.00
1518, 636.00
1519, 636.00
1520, 637.00
1521, 637.00
1522, 637.00
1523, 638.00
1524, 638.00
1525, 640.00
1526, 640.00
1527, 640.00
1528, 640.00
1529, 642.00
1530, 641.00
1531, 642.00
1532, 642.00
1533, 643.00
1534, 643.00
1535, 643.00
1536, 644.00
1537, 644.00
1538, 644.00
1539, 646.00
1540, 646.00
1541, 646.00
1542, 646.00
1543, 647.00
1544, 648.00
1545, 648.00
1546, 649.00
1547, 648.00
1548, 649.00
1549, 649.00
1550, 651.00
1551, 650.00
1552, 651.00
1553, 651.00
1554, 652.00
1555, 652.00
1556, 654.00
1557, 654.00
1558, 653.00
1559, 654.00
1560, 654.00
1561, 655.00
1562, 654.00
1563, 656.00
1564, 657.00
1565, 656.00
1566, 657.00
1567, 658.00
1568, 658.00
1569, 659.00
1570, 659.00
1571, 659.00
1572, 659.00
1573, 660.00
1574, 660.00
1575, 662.00
1576, 661.00
1577, 661.00
1578, 662.00
1579, 663.00
1580, 663.00
1581, 664.00
1582, 664.00
1583, 665.00
1584, 665.00
1585, 667.00
1586, 665.00
1587, 667.00
1588, 667.00
1589, 668.00
1590, 668.00
1591, 668.00
1592, 668.00
1593, 669.00
1594, 669.00
1595, 670.00
1596, 670.00
1597, 671.00
1598, 672.00
1599, 672.00
1600, 672.00
1601, 673.00
1602, 672.00
1603, 674.00
1604, 674.00
1605, 674.00
1606, 675.00
1607, 676.00
1608, 676.00
1609, 676.00
1610, 677.00
1611, 677.00
1612, 679.00
1613, 678.00
1614, 679.00
1615, 680.00
1616, 680.00
1617, 681.00
1618, 682.00
1619, 682.00
1620, 683.00
1621, 684.00
1622, 684.00
1623, 684.00
1624, 685.00
1625, 686.00
1626, 686.00
1627, 687.00
1628, 687.00
1629, 687.00
1630, 688.00
1631, 689.00
1632, 689.00
1633, 690.00
1634, 691.00
1635, 691.00
1636, 692.00
1637, 692.00
1638, 692.00
1639, 692.00
1640, 693.00
1641, 693.00
1642, 693.00
1643, 694.00
1644, 693.00
1645, 694.00
1646, 695.00
1647, 695.00
1648, 696.00
1649, 697.00
1650, 697.00

1750, 967.00
1751, 969.00
1752, 968.00
1753, 967.00
1754, 967.00
1755, 967.00
1756, 967.00
1757, 968.00
1758, 967.00
1759, 968.00
1760, 967.00
1761, 968.00
1762, 969.00
1763, 968.00
1764, 969.00
1765, 967.00
1766, 967.00
1767, 967.00
1768, 967.00
1769, 966.00
1770, 968.00
1771, 968.00
1772, 968.00
1773, 966.00
1774, 969.00
1775, 966.00
1776, 967.00
1777, 966.00
1778, 966.00
1779, 967.00
1780, 966.00
1781, 967.00
1782, 967.00
1783, 965.00
1784, 965.00
1785, 966.00
1786, 964.00
1787, 965.00
1788, 964.00
1789, 965.00
1790, 966.00
1791, 965.00
1792, 963.00
1793, 964.00
1794, 965.00
1795, 963.00
1796, 962.00
1797, 962.00
1798, 963.00
1799, 964.00
1800, 964.00
1801, 962.00
1802, 962.00
1803, 963.00
1804, 962.00
1805, 961.00
1806, 963.00
1807, 962.00
1808, 962.00
1809, 962.00
1810, 962.00
1811, 961.00
1812, 962.00
1813, 961.00
1814, 961.00
1815, 960.00
1816, 959.00
1817, 961.00
1818, 959.00
1819, 959.00
1820, 959.00
1821, 958.00
1822, 959.00
1823, 956.00
1824, 956.00
1825, 957.00
1826, 956.00
1827, 956.00
1828, 955.00
1829, 955.00
1830, 955.00
1831, 954.00
1832, 954.00
1833, 952.00
1834, 952.00
1835, 952.00
1836, 951.00
1837, 952.00
1838, 950.00
1839, 950.00
1840, 949.00
1841, 949.00
1842, 947.00
1843, 946.00
1844, 945.00
1845, 945.00
1846, 945.00
1847, 944.00
1848, 944.00
1849, 943.00
1850, 941.00
1851, 942.00
1852, 941.00
1853, 940.00
1854, 939.00
1855, 937.00
1856, 937.00
1857, 936.00
1858, 935.00
1859, 934.00
1860, 934.00
1861, 933.00
1862, 933.00
1863, 932.00
1864, 932.00
1865, 930.00
1866, 931.00
1867, 928.00
1868, 930.00
1869, 929.00
1870, 926.00
1871, 926.00
1872, 926.00
1873, 927.00
1874, 929.00
1875, 928.00
1876, 925.00
1877, 926.00
1878, 924.00
1879, 923.00
1880, 926.00
1881, 925.00
1882, 926.00
1883, 923.00
1884, 924.00
1885, 925.00
1886, 923.00
1887, 925.00
1888, 924.00
1889, 923.00
1890, 922.00
1891, 923.00
1892, 923.00
1893, 922.00
1894, 921.00
1895, 922.00
1896, 922.00
1897, 921.00
1898, 922.00
1899, 921.00
1900, 921.00
1901, 920.00
1902, 920.00
1903, 921.00
1904, 921.00
1905, 923.00
1906, 919.00
1907, 920.00
1908, 918.00
1909, 919.00
1910, 920.00
1911, 921.00
1912, 921.00
1913, 920.00
1914, 921.00
1915, 920.00
1916, 919.00
1917, 920.00
1918, 921.00
1919, 919.00
1920, 920.00
1921, 919.00
1922, 921.00
1923, 919.00
1924, 919.00
1925, 917.00
1926, 919.00
1927, 920.00
1928, 918.00
1929, 920.00
1930, 919.00
1931, 920.00
1932, 919.00
1933, 920.00
1934, 921.00
1935, 920.00
1936, 920.00
1937, 920.00
1938, 919.00
1939, 921.00
1940, 920.00
1941, 920.00
1942, 918.00
1943, 918.00
1944, 921.00
1945, 919.00
1946, 920.00
1947, 921.00
1948, 919.00
1949, 921.00
1950, 922.00
1951, 921.00
1952, 921.00
1953, 921.00
1954, 921.00
1955, 920.00
1956, 922.00
1957, 920.00
1958, 922.00
1959, 923.00
1960, 921.00
1961, 922.00
1962, 922.00
1963, 922.00
1964, 923.00
1965, 923.00
1966, 923.00
1967, 921.00
1968, 922.00
1969, 924.00
1970, 922.00
1971, 922.00
1972, 923.00
1973, 923.00
1974, 923.00
1975, 924.00
1976, 924.00
1977, 926.00
1978, 926.00
1979, 925.00
1980, 925.00
1981, 925.00
1982, 927.00
1983, 926.00
1984, 925.00
1985, 926.00
1986, 925.00
1987, 925.00
1988, 926.00
1989, 927.00
1990, 927.00
1991, 927.00
1992, 927.00
1993, 926.00
1994, 928.00
1995, 927.00
1996, 928.00
1997, 929.00
1998, 929.00
1999, 928.00
2000, 927.00
2001, 927.00
2002, 929.00
2003, 928.00
2004, 929.00
2005, 928.00
2006, 930.00
2007, 929.00
2008, 930.00
2009, 931.00
2010, 930.00
2011, 929.00
2012, 930.00
2013, 930.00
2014, 931.00
2015, 930.00
2016, 931.00
2017, 932.00
2018, 932.00
2019, 932.00
2020, 932.00
2021, 933.00
2022, 931.00
2023, 932.00
2024, 933.00
2025, 935.00
2026, 933.00
2027, 934.00
2028, 935.00
2029, 934.00
2030, 935.00
2031, 934.00
2032, 935.00
2033, 933.00
2034, 934.00
2035, 935.00
2036, 936.00
2037, 936.00
2038, 935.00
2039, 937.00
2040, 936.00
2041, 936.00
2042, 938.00
2043, 936.00
2044, 937.00
2045, 939.00
2046, 938.00
2047, 938.00
2048, 939.00
2049, 940.00
2050, 940.00
2051, 939.00
2052, 940.00
2053, 940.00
2054, 939.00
2055, 940.00
2056, 941.00
2057, 940.00
2058, 941.00
2059, 941.00
2060, 943.00
2061, 944.00
2062, 945.00
2063, 942.00
2064, 945.00
2065, 945.00
2066, 944.00
2067, 944.00
2068, 944.00
2069, 944.00
2070, 946.00
2071, 946.00
2072, 946.00
2073, 948.00
2074, 945.00
2075, 947.00
2076, 949.00
2077, 947.00
2078, 947.00
2079, 948.00
2080, 948.00
2081, 948.00
2082, 950.00
2083, 948.00
2084, 947.00
2085, 948.00
2086, 950.00
2087, 950.00
2088, 951.00
2089, 950.00
2090, 951.00
2091, 950.00
2092, 951.00
2093, 951.00
2094, 952.00
2095, 951.00
2096, 953.00
2097, 951.00
2098, 951.00
2099, 953.00
2100, 952.00
2101, 953.00
2102, 952.00
2103, 954.00
2104, 953.00
2105, 953.00
2106, 954.00
2107, 954.00
2108, 954.00
2109, 955.00
2110, 955.00
2111, 954.00
2112, 955.00
2113, 956.00
2114, 954.00
2115, 956.00
2116, 955.00
2117, 954.00
2118, 956.00
2119, 955.00
2120, 956.00
2121, 955.00
2122, 958.00
2123, 958.00
2124, 955.00
2125, 956.00
2126, 956.00
2127, 957.00
2128, 957.00
2129, 957.00
2130, 958.00
2131, 958.00
2132, 958.00
2133, 957.00
2134, 958.00
2135, 958.00
2136, 958.00
2137, 958.00
2138, 960.00
2139, 958.00
2140, 958.00
2141, 959.00
2142, 959.00
2143, 959.00
2144, 959.00
2145, 958.00
2146, 961.00
2147, 959.00
2148, 959.00
2149, 960.00
2150, 958.00
