FW version: 24
Log Version: 3.0.3

General Info:
       Command/Macro Performed,            Timestamp,             Device ID, COM Port, UART/I2C, Test Name, Host Major, Host Minor, Host Revision, Host Git Commit
            Single_measurement,  2023_07_04_11_06_16,       Insight2_F4_xxx,    USB-C,      USB,          ,          0,          1,             1,      4031237645

Show Spectrometer Status:
l0_version, f4_version, battery_perc, battery_mVolt, accelerometer_temp, accelerometer_x, accelerometer_y, accelerometer_z, compass_temp, compass_x, compass_y, compass_z, lamp_0, lamp_1, gain_0, gain_1
        17,         24,           18,          1847,               5872,           64932,            2132,           19192,            0,     65516,     65397,     19192,   3276,   3276,      1,      1

Temperature Statistic Info:
NTC AVG [°C], NTC2 AVG [°C]
      37.266,        36.948

Statistic Info:
M1:  num,      min,      max,   median,      AVG,      STD,M2:  num,      min,      max,   median,      AVG,      STD
     301,  1522.00,  1727.00,  1563.00,  1589.11,  63.4382,     401,  2027.00,  2139.00,  2072.00,  2075.41,  35.9095,

Measurements:
Wavelength, Data Amplitude
1350, 1560.00
1351, 1560.00
1352, 1558.00
1353, 1558.00
1354, 1557.00
1355, 1558.00
1356, 1556.00
1357, 1555.00
1358, 1555.00
1359, 1555.00
1360, 1554.00
1361, 1552.00
1362, 1552.00
1363, 1550.00
1364, 1549.00
1365, 1548.00
1366, 1548.00
1367, 1546.00
1368, 1545.00
1369, 1544.00
1370, 1544.00
1371, 1543.00
1372, 1541.00
1373, 1540.00
1374, 1540.00
1375, 1538.00
1376, 1536.00
1377, 1535.00
1378, 1535.00
1379, 1535.00
1380, 1534.00
1381, 1534.00
1382, 1531.00
1383, 1532.00
1384, 1531.00
1385, 1530.00
1386, 1530.00
1387, 1530.00
1388, 1530.00
1389, 1529.00
1390, 1527.00
1391, 1528.00
1392, 1527.00
1393, 1527.00
1394, 1527.00
1395, 1527.00
1396, 1526.00
1397, 1527.00
1398, 1526.00
1399, 1525.00
1400, 1525.00
1401, 1524.00
1402, 1525.00
1403, 1524.00
1404, 1523.00
1405, 1524.00
1406, 1524.00
1407, 1524.00
1408, 1524.00
1409, 1523.00
1410, 1523.00
1411, 1523.00
1412, 1524.00
1413, 1523.00
1414, 1522.00
1415, 1523.00
1416, 1522.00
1417, 1523.00
1418, 1523.00
1419, 1522.00
1420, 1523.00
1421, 1523.00
1422, 1522.00
1423, 1523.00
1424, 1523.00
1425, 1523.00
1426, 1522.00
1427, 1523.00
1428, 1523.00
1429, 1523.00
1430, 1523.00
1431, 1524.00
1432, 1524.00
1433, 1523.00
1434, 1525.00
1435, 1524.00
1436, 1525.00
1437, 1525.00
1438, 1525.00
1439, 1525.00
1440, 1525.00
1441, 1525.00
1442, 1527.00
1443, 1526.00
1444, 1527.00
1445, 1527.00
1446, 1527.00
1447, 1527.00
1448, 1529.00
1449, 1529.00
1450, 1529.00
1451, 1530.00
1452, 1531.00
1453, 1531.00
1454, 1530.00
1455, 1531.00
1456, 1531.00
1457, 1532.00
1458, 1533.00
1459, 1533.00
1460, 1534.00
1461, 1534.00
1462, 1535.00
1463, 1535.00
1464, 1535.00
1465, 1536.00
1466, 1538.00
1467, 1537.00
1468, 1538.00
1469, 1540.00
1470, 1540.00
1471, 1540.00
1472, 1540.00
1473, 1541.00
1474, 1543.00
1475, 1543.00
1476, 1544.00
1477, 1544.00
1478, 1545.00
1479, 1546.00
1480, 1547.00
1481, 1547.00
1482, 1549.00
1483, 1548.00
1484, 1551.00
1485, 1550.00
1486, 1552.00
1487, 1552.00
1488, 1553.00
1489, 1554.00
1490, 1555.00
1491, 1556.00
1492, 1557.00
1493, 1558.00
1494, 1559.00
1495, 1560.00
1496, 1561.00
1497, 1561.00
1498, 1561.00
1499, 1563.00
1500, 1563.00
1501, 1565.00
1502, 1565.00
1503, 1567.00
1504, 1567.00
1505, 1568.00
1506, 1568.00
1507, 1569.00
1508, 1570.00
1509, 1571.00
1510, 1573.00
1511, 1573.00
1512, 1574.00
1513, 1576.00
1514, 1576.00
1515, 1577.00
1516, 1578.00
1517, 1579.00
1518, 1580.00
1519, 1580.00
1520, 1583.00
1521, 1584.00
1522, 1585.00
1523, 1585.00
1524, 1586.00
1525, 1587.00
1526, 1588.00
1527, 1590.00
1528, 1589.00
1529, 1591.00
1530, 1592.00
1531, 1593.00
1532, 1594.00
1533, 1596.00
1534, 1597.00
1535, 1597.00
1536, 1597.00
1537, 1600.00
1538, 1600.00
1539, 1601.00
1540, 1602.00
1541, 1604.00
1542, 1604.00
1543, 1606.00
1544, 1607.00
1545, 1608.00
1546, 1609.00
1547, 1611.00
1548, 1610.00
1549, 1612.00
1550, 1613.00
1551, 1614.00
1552, 1615.00
1553, 1615.00
1554, 1617.00
1555, 1618.00
1556, 1619.00
1557, 1621.00
1558, 1622.00
1559, 1623.00
1560, 1624.00
1561, 1624.00
1562, 1626.00
1563, 1628.00
1564, 1628.00
1565, 1630.00
1566, 1631.00
1567, 1632.00
1568, 1633.00
1569, 1635.00
1570, 1635.00
1571, 1636.00
1572, 1637.00
1573, 1639.00
1574, 1641.00
1575, 1642.00
1576, 1643.00
1577, 1644.00
1578, 1644.00
1579, 1646.00
1580, 1646.00
1581, 1647.00
1582, 1648.00
1583, 1649.00
1584, 1651.00
1585, 1651.00
1586, 1652.00
1587, 1654.00
1588, 1654.00
1589, 1655.00
1590, 1657.00
1591, 1658.00
1592, 1659.00
1593, 1660.00
1594, 1661.00
1595, 1661.00
1596, 1663.00
1597, 1664.00
1598, 1664.00
1599, 1666.00
1600, 1666.00
1601, 1668.00
1602, 1669.00
1603, 1669.00
1604, 1671.00
1605, 1672.00
1606, 1673.00
1607, 1676.00
1608, 1675.00
1609, 1677.00
1610, 1678.00
1611, 1680.00
1612, 1681.00
1613, 1683.00
1614, 1684.00
1615, 1685.00
1616, 1685.00
1617, 1687.00
1618, 1689.00
1619, 1690.00
1620, 1691.00
1621, 1692.00
1622, 1694.00
1623, 1696.00
1624, 1697.00
1625, 1698.00
1626, 1699.00
1627, 1700.00
1628, 1702.00
1629, 1703.00
1630, 1704.00
1631, 1705.00
1632, 1707.00
1633, 1707.00
1634, 1709.00
1635, 1711.00
1636, 1711.00
1637, 1712.00
1638, 1714.00
1639, 1714.00
1640, 1716.00
1641, 1716.00
1642, 1718.00
1643, 1718.00
1644, 1720.00
1645, 1721.00
1646, 1722.00
1647, 1723.00
1648, 1724.00
1649, 1726.00
1650, 1727.00

1750, 2138.00
1751, 2139.00
1752, 2137.00
1753, 2135.00
1754, 2137.00
1755, 2137.00
1756, 2138.00
1757, 2137.00
1758, 2136.00
1759, 2138.00
1760, 2136.00
1761, 2138.00
1762, 2137.00
1763, 2137.00
1764, 2137.00
1765, 2136.00
1766, 2137.00
1767, 2138.00
1768, 2137.00
1769, 2136.00
1770, 2137.00
1771, 2135.00
1772, 2136.00
1773, 2135.00
1774, 2135.00
1775, 2136.00
1776, 2132.00
1777, 2133.00
1778, 2134.00
1779, 2133.00
1780, 2133.00
1781, 2134.00
1782, 2131.00
1783, 2132.00
1784, 2131.00
1785, 2130.00
1786, 2131.00
1787, 2131.00
1788, 2127.00
1789, 2129.00
1790, 2128.00
1791, 2128.00
1792, 2128.00
1793, 2128.00
1794, 2127.00
1795, 2127.00
1796, 2126.00
1797, 2128.00
1798, 2126.00
1799, 2125.00
1800, 2125.00
1801, 2125.00
1802, 2124.00
1803, 2123.00
1804, 2123.00
1805, 2121.00
1806, 2122.00
1807, 2123.00
1808, 2122.00
1809, 2122.00
1810, 2121.00
1811, 2120.00
1812, 2120.00
1813, 2119.00
1814, 2118.00
1815, 2119.00
1816, 2117.00
1817, 2118.00
1818, 2117.00
1819, 2117.00
1820, 2117.00
1821, 2115.00
1822, 2115.00
1823, 2114.00
1824, 2112.00
1825, 2111.00
1826, 2110.00
1827, 2109.00
1828, 2112.00
1829, 2108.00
1830, 2109.00
1831, 2105.00
1832, 2106.00
1833, 2103.00
1834, 2103.00
1835, 2102.00
1836, 2099.00
1837, 2098.00
1838, 2097.00
1839, 2097.00
1840, 2094.00
1841, 2094.00
1842, 2091.00
1843, 2088.00
1844, 2088.00
1845, 2084.00
1846, 2086.00
1847, 2082.00
1848, 2082.00
1849, 2078.00
1850, 2077.00
1851, 2077.00
1852, 2074.00
1853, 2074.00
1854, 2071.00
1855, 2070.00
1856, 2070.00
1857, 2067.00
1858, 2064.00
1859, 2061.00
1860, 2061.00
1861, 2058.00
1862, 2057.00
1863, 2058.00
1864, 2057.00
1865, 2052.00
1866, 2052.00
1867, 2053.00
1868, 2051.00
1869, 2052.00
1870, 2048.00
1871, 2048.00
1872, 2046.00
1873, 2045.00
1874, 2045.00
1875, 2044.00
1876, 2044.00
1877, 2044.00
1878, 2041.00
1879, 2042.00
1880, 2042.00
1881, 2040.00
1882, 2038.00
1883, 2038.00
1884, 2038.00
1885, 2037.00
1886, 2038.00
1887, 2036.00
1888, 2036.00
1889, 2037.00
1890, 2037.00
1891, 2035.00
1892, 2035.00
1893, 2034.00
1894, 2034.00
1895, 2035.00
1896, 2035.00
1897, 2034.00
1898, 2034.00
1899, 2034.00
1900, 2033.00
1901, 2033.00
1902, 2032.00
1903, 2032.00
1904, 2031.00
1905, 2033.00
1906, 2031.00
1907, 2031.00
1908, 2029.00
1909, 2032.00
1910, 2031.00
1911, 2029.00
1912, 2030.00
1913, 2029.00
1914, 2029.00
1915, 2030.00
1916, 2031.00
1917, 2030.00
1918, 2030.00
1919, 2031.00
1920, 2029.00
1921, 2030.00
1922, 2029.00
1923, 2030.00
1924, 2028.00
1925, 2029.00
1926, 2029.00
1927, 2029.00
1928, 2029.00
1929, 2031.00
1930, 2029.00
1931, 2027.00
1932, 2029.00
1933, 2030.00
1934, 2028.00
1935, 2028.00
1936, 2029.00
1937, 2029.00
1938, 2028.00
1939, 2030.00
1940, 2030.00
1941, 2030.00
1942, 2034.00
1943, 2029.00
1944, 2029.00
1945, 2030.00
1946, 2031.00
1947, 2031.00
1948, 2031.00
1949, 2031.00
1950, 2031.00
1951, 2033.00
1952, 2032.00
1953, 2032.00
1954, 2031.00
1955, 2032.00
1956, 2033.00
1957, 2032.00
1958, 2033.00
1959, 2033.00
1960, 2033.00
1961, 2033.00
1962, 2034.00
1963, 2034.00
1964, 2036.00
1965, 2035.00
1966, 2036.00
1967, 2035.00
1968, 2037.00
1969, 2035.00
1970, 2038.00
1971, 2036.00
1972, 2036.00
1973, 2039.00
1974, 2037.00
1975, 2038.00
1976, 2039.00
1977, 2040.00
1978, 2041.00
1979, 2039.00
1980, 2040.00
1981, 2040.00
1982, 2040.00
1983, 2041.00
1984, 2041.00
1985, 2042.00
1986, 2041.00
1987, 2042.00
1988, 2044.00
1989, 2045.00
1990, 2042.00
1991, 2042.00
1992, 2044.00
1993, 2043.00
1994, 2045.00
1995, 2044.00
1996, 2045.00
1997, 2047.00
1998, 2045.00
1999, 2046.00
2000, 2048.00
2001, 2048.00
2002, 2049.00
2003, 2049.00
2004, 2049.00
2005, 2049.00
2006, 2050.00
2007, 2051.00
2008, 2050.00
2009, 2051.00
2010, 2051.00
2011, 2051.00
2012, 2051.00
2013, 2053.00
2014, 2054.00
2015, 2052.00
2016, 2053.00
2017, 2052.00
2018, 2054.00
2019, 2053.00
2020, 2055.00
2021, 2055.00
2022, 2056.00
2023, 2056.00
2024, 2056.00
2025, 2057.00
2026, 2056.00
2027, 2058.00
2028, 2060.00
2029, 2058.00
2030, 2060.00
2031, 2061.00
2032, 2060.00
2033, 2060.00
2034, 2062.00
2035, 2061.00
2036, 2063.00
2037, 2062.00
2038, 2063.00
2039, 2063.00
2040, 2064.00
2041, 2064.00
2042, 2065.00
2043, 2066.00
2044, 2065.00
2045, 2066.00
2046, 2067.00
2047, 2066.00
2048, 2068.00
2049, 2069.00
2050, 2071.00
2051, 2071.00
2052, 2071.00
2053, 2072.00
2054, 2072.00
2055, 2072.00
2056, 2071.00
2057, 2074.00
2058, 2075.00
2059, 2075.00
2060, 2074.00
2061, 2076.00
2062, 2074.00
2063, 2079.00
2064, 2077.00
2065, 2077.00
2066, 2079.00
2067, 2079.00
2068, 2081.00
2069, 2080.00
2070, 2082.00
2071, 2081.00
2072, 2083.00
2073, 2084.00
2074, 2083.00
2075, 2084.00
2076, 2086.00
2077, 2084.00
2078, 2085.00
2079, 2087.00
2080, 2087.00
2081, 2087.00
2082, 2088.00
2083, 2088.00
2084, 2088.00
2085, 2090.00
2086, 2089.00
2087, 2092.00
2088, 2092.00
2089, 2091.00
2090, 2092.00
2091, 2092.00
2092, 2092.00
2093, 2095.00
2094, 2095.00
2095, 2093.00
2096, 2094.00
2097, 2095.00
2098, 2096.00
2099, 2096.00
2100, 2094.00
2101, 2096.00
2102, 2097.00
2103, 2096.00
2104, 2097.00
2105, 2099.00
2106, 2100.00
2107, 2098.00
2108, 2099.00
2109, 2100.00
2110, 2100.00
2111, 2100.00
2112, 2099.00
2113, 2101.00
2114, 2102.00
2115, 2100.00
2116, 2101.00
2117, 2102.00
2118, 2100.00
2119, 2102.00
2120, 2102.00
2121, 2103.00
2122, 2104.00
2123, 2102.00
2124, 2105.00
2125, 2104.00
2126, 2105.00
2127, 2103.00
2128, 2105.00
2129, 2105.00
2130, 2104.00
2131, 2105.00
2132, 2106.00
2133, 2106.00
2134, 2105.00
2135, 2106.00
2136, 2106.00
2137, 2104.00
2138, 2107.00
2139, 2108.00
2140, 2109.00
2141, 2106.00
2142, 2109.00
2143, 2108.00
2144, 2107.00
2145, 2109.00
2146, 2108.00
2147, 2109.00
2148, 2110.00
2149, 2111.00
2150, 2108.00
