FW version: 24
Log Version: 3.0.3

General Info:
       Command/Macro Performed,            Timestamp,             Device ID, COM Port, UART/I2C, Test Name, Host Major, Host Minor, Host Revision, Host Git Commit
            Single_measurement,  2023_07_04_11_05_41,       Insight2_F4_xxx,    USB-C,      USB,          ,          0,          1,             1,      4031237645

Show Spectrometer Status:
l0_version, f4_version, battery_perc, battery_mVolt, accelerometer_temp, accelerometer_x, accelerometer_y, accelerometer_z, compass_temp, compass_x, compass_y, compass_z, lamp_0, lamp_1, gain_0, gain_1
        17,         24,           18,          1846,               5808,           64948,            2100,           19100,            0,     65524,     65335,     19196,   2457,   2457,      1,      1

Temperature Statistic Info:
NTC AVG [°C], NTC2 AVG [°C]
      36.948,        36.637

Statistic Info:
M1:  num,      min,      max,   median,      AVG,      STD,M2:  num,      min,      max,   median,      AVG,      STD
     301,   878.00,  1006.00,   906.00,   920.30,  39.3951,     401,  1263.00,  1333.00,  1292.00,  1294.09,  22.5708,

Measurements:
Wavelength, Data Amplitude
1350, 899.00
1351, 899.00
1352, 898.00
1353, 899.00
1354, 897.00
1355, 898.00
1356, 897.00
1357, 896.00
1358, 896.00
1359, 896.00
1360, 895.00
1361, 894.00
1362, 895.00
1363, 894.00
1364, 893.00
1365, 892.00
1366, 892.00
1367, 892.00
1368, 891.00
1369, 891.00
1370, 890.00
1371, 888.00
1372, 889.00
1373, 888.00
1374, 888.00
1375, 888.00
1376, 886.00
1377, 886.00
1378, 885.00
1379, 886.00
1380, 885.00
1381, 884.00
1382, 884.00
1383, 884.00
1384, 884.00
1385, 883.00
1386, 883.00
1387, 883.00
1388, 882.00
1389, 882.00
1390, 882.00
1391, 881.00
1392, 881.00
1393, 881.00
1394, 881.00
1395, 881.00
1396, 880.00
1397, 880.00
1398, 881.00
1399, 880.00
1400, 880.00
1401, 880.00
1402, 879.00
1403, 879.00
1404, 879.00
1405, 880.00
1406, 880.00
1407, 880.00
1408, 879.00
1409, 879.00
1410, 879.00
1411, 879.00
1412, 879.00
1413, 879.00
1414, 880.00
1415, 880.00
1416, 878.00
1417, 880.00
1418, 879.00
1419, 879.00
1420, 879.00
1421, 879.00
1422, 879.00
1423, 879.00
1424, 879.00
1425, 878.00
1426, 879.00
1427, 880.00
1428, 879.00
1429, 879.00
1430, 879.00
1431, 880.00
1432, 881.00
1433, 880.00
1434, 881.00
1435, 880.00
1436, 882.00
1437, 881.00
1438, 880.00
1439, 882.00
1440, 881.00
1441, 882.00
1442, 882.00
1443, 882.00
1444, 883.00
1445, 882.00
1446, 883.00
1447, 883.00
1448, 883.00
1449, 883.00
1450, 884.00
1451, 884.00
1452, 884.00
1453, 884.00
1454, 885.00
1455, 885.00
1456, 885.00
1457, 886.00
1458, 887.00
1459, 887.00
1460, 887.00
1461, 887.00
1462, 887.00
1463, 887.00
1464, 887.00
1465, 888.00
1466, 888.00
1467, 889.00
1468, 890.00
1469, 891.00
1470, 889.00
1471, 890.00
1472, 891.00
1473, 891.00
1474, 893.00
1475, 893.00
1476, 893.00
1477, 894.00
1478, 893.00
1479, 894.00
1480, 895.00
1481, 895.00
1482, 896.00
1483, 895.00
1484, 898.00
1485, 897.00
1486, 897.00
1487, 898.00
1488, 899.00
1489, 899.00
1490, 899.00
1491, 900.00
1492, 900.00
1493, 902.00
1494, 902.00
1495, 902.00
1496, 904.00
1497, 904.00
1498, 904.00
1499, 906.00
1500, 906.00
1501, 906.00
1502, 906.00
1503, 907.00
1504, 907.00
1505, 908.00
1506, 909.00
1507, 909.00
1508, 910.00
1509, 910.00
1510, 911.00
1511, 911.00
1512, 913.00
1513, 913.00
1514, 913.00
1515, 914.00
1516, 915.00
1517, 916.00
1518, 916.00
1519, 917.00
1520, 917.00
1521, 917.00
1522, 918.00
1523, 919.00
1524, 919.00
1525, 921.00
1526, 921.00
1527, 921.00
1528, 922.00
1529, 922.00
1530, 924.00
1531, 923.00
1532, 925.00
1533, 926.00
1534, 926.00
1535, 927.00
1536, 928.00
1537, 928.00
1538, 929.00
1539, 929.00
1540, 930.00
1541, 930.00
1542, 931.00
1543, 931.00
1544, 932.00
1545, 934.00
1546, 933.00
1547, 935.00
1548, 935.00
1549, 936.00
1550, 935.00
1551, 936.00
1552, 937.00
1553, 938.00
1554, 939.00
1555, 939.00
1556, 939.00
1557, 941.00
1558, 941.00
1559, 941.00
1560, 942.00
1561, 943.00
1562, 944.00
1563, 944.00
1564, 946.00
1565, 945.00
1566, 946.00
1567, 947.00
1568, 947.00
1569, 948.00
1570, 950.00
1571, 950.00
1572, 950.00
1573, 951.00
1574, 952.00
1575, 952.00
1576, 953.00
1577, 953.00
1578, 954.00
1579, 955.00
1580, 956.00
1581, 957.00
1582, 957.00
1583, 957.00
1584, 958.00
1585, 958.00
1586, 959.00
1587, 959.00
1588, 959.00
1589, 961.00
1590, 962.00
1591, 962.00
1592, 963.00
1593, 963.00
1594, 964.00
1595, 965.00
1596, 966.00
1597, 966.00
1598, 967.00
1599, 968.00
1600, 967.00
1601, 970.00
1602, 970.00
1603, 970.00
1604, 971.00
1605, 971.00
1606, 972.00
1607, 973.00
1608, 974.00
1609, 974.00
1610, 975.00
1611, 977.00
1612, 978.00
1613, 977.00
1614, 979.00
1615, 979.00
1616, 981.00
1617, 981.00
1618, 983.00
1619, 982.00
1620, 983.00
1621, 984.00
1622, 984.00
1623, 987.00
1624, 987.00
1625, 987.00
1626, 989.00
1627, 989.00
1628, 990.00
1629, 991.00
1630, 992.00
1631, 992.00
1632, 994.00
1633, 994.00
1634, 995.00
1635, 995.00
1636, 995.00
1637, 996.00
1638, 997.00
1639, 998.00
1640, 999.00
1641, 999.00
1642, 1001.00
1643, 1001.00
1644, 1000.00
1645, 1003.00
1646, 1003.00
1647, 1003.00
1648, 1004.00
1649, 1005.00
1650, 1006.00

1750, 1331.00
1751, 1332.00
1752, 1332.00
1753, 1331.00
1754, 1330.00
1755, 1331.00
1756, 1333.00
1757, 1330.00
1758, 1330.00
1759, 1331.00
1760, 1330.00
1761, 1332.00
1762, 1333.00
1763, 1331.00
1764, 1331.00
1765, 1331.00
1766, 1331.00
1767, 1330.00
1768, 1330.00
1769, 1329.00
1770, 1330.00
1771, 1333.00
1772, 1331.00
1773, 1332.00
1774, 1328.00
1775, 1330.00
1776, 1331.00
1777, 1329.00
1778, 1329.00
1779, 1330.00
1780, 1329.00
1781, 1328.00
1782, 1327.00
1783, 1327.00
1784, 1328.00
1785, 1328.00
1786, 1329.00
1787, 1327.00
1788, 1326.00
1789, 1325.00
1790, 1325.00
1791, 1329.00
1792, 1327.00
1793, 1325.00
1794, 1326.00
1795, 1327.00
1796, 1326.00
1797, 1324.00
1798, 1323.00
1799, 1325.00
1800, 1325.00
1801, 1324.00
1802, 1323.00
1803, 1323.00
1804, 1324.00
1805, 1323.00
1806, 1322.00
1807, 1323.00
1808, 1323.00
1809, 1321.00
1810, 1323.00
1811, 1323.00
1812, 1320.00
1813, 1322.00
1814, 1320.00
1815, 1319.00
1816, 1321.00
1817, 1321.00
1818, 1317.00
1819, 1319.00
1820, 1319.00
1821, 1317.00
1822, 1318.00
1823, 1316.00
1824, 1317.00
1825, 1315.00
1826, 1316.00
1827, 1315.00
1828, 1314.00
1829, 1314.00
1830, 1313.00
1831, 1313.00
1832, 1312.00
1833, 1312.00
1834, 1311.00
1835, 1310.00
1836, 1308.00
1837, 1309.00
1838, 1307.00
1839, 1307.00
1840, 1306.00
1841, 1305.00
1842, 1303.00
1843, 1304.00
1844, 1302.00
1845, 1301.00
1846, 1300.00
1847, 1298.00
1848, 1298.00
1849, 1295.00
1850, 1294.00
1851, 1294.00
1852, 1294.00
1853, 1292.00
1854, 1291.00
1855, 1290.00
1856, 1290.00
1857, 1288.00
1858, 1285.00
1859, 1285.00
1860, 1284.00
1861, 1284.00
1862, 1282.00
1863, 1282.00
1864, 1281.00
1865, 1279.00
1866, 1281.00
1867, 1280.00
1868, 1278.00
1869, 1277.00
1870, 1276.00
1871, 1276.00
1872, 1276.00
1873, 1275.00
1874, 1275.00
1875, 1275.00
1876, 1274.00
1877, 1272.00
1878, 1272.00
1879, 1270.00
1880, 1271.00
1881, 1271.00
1882, 1272.00
1883, 1271.00
1884, 1271.00
1885, 1271.00
1886, 1271.00
1887, 1269.00
1888, 1269.00
1889, 1267.00
1890, 1269.00
1891, 1269.00
1892, 1268.00
1893, 1267.00
1894, 1268.00
1895, 1269.00
1896, 1266.00
1897, 1267.00
1898, 1268.00
1899, 1268.00
1900, 1266.00
1901, 1266.00
1902, 1265.00
1903, 1266.00
1904, 1266.00
1905, 1266.00
1906, 1267.00
1907, 1265.00
1908, 1267.00
1909, 1266.00
1910, 1265.00
1911, 1268.00
1912, 1266.00
1913, 1266.00
1914, 1266.00
1915, 1266.00
1916, 1264.00
1917, 1263.00
1918, 1265.00
1919, 1266.00
1920, 1265.00
1921, 1265.00
1922, 1265.00
1923, 1263.00
1924, 1265.00
1925, 1264.00
1926, 1263.00
1927, 1266.00
1928, 1266.00
1929, 1265.00
1930, 1266.00
1931, 1263.00
1932, 1265.00
1933, 1266.00
1934, 1264.00
1935, 1265.00
1936, 1265.00
1937, 1264.00
1938, 1265.00
1939, 1264.00
1940, 1265.00
1941, 1265.00
1942, 1264.00
1943, 1266.00
1944, 1266.00
1945, 1267.00
1946, 1265.00
1947, 1266.00
1948, 1266.00
1949, 1267.00
1950, 1267.00
1951, 1268.00
1952, 1267.00
1953, 1267.00
1954, 1265.00
1955, 1266.00
1956, 1267.00
1957, 1267.00
1958, 1267.00
1959, 1266.00
1960, 1268.00
1961, 1268.00
1962, 1268.00
1963, 1267.00
1964, 1268.00
1965, 1270.00
1966, 1269.00
1967, 1269.00
1968, 1268.00
1969, 1270.00
1970, 1269.00
1971, 1270.00
1972, 1269.00
1973, 1271.00
1974, 1270.00
1975, 1271.00
1976, 1270.00
1977, 1270.00
1978, 1271.00
1979, 1272.00
1980, 1271.00
1981, 1271.00
1982, 1274.00
1983, 1272.00
1984, 1272.00
1985, 1273.00
1986, 1273.00
1987, 1272.00
1988, 1274.00
1989, 1274.00
1990, 1274.00
1991, 1276.00
1992, 1273.00
1993, 1276.00
1994, 1275.00
1995, 1275.00
1996, 1275.00
1997, 1276.00
1998, 1275.00
1999, 1276.00
2000, 1275.00
2001, 1276.00
2002, 1276.00
2003, 1277.00
2004, 1277.00
2005, 1278.00
2006, 1277.00
2007, 1277.00
2008, 1278.00
2009, 1277.00
2010, 1278.00
2011, 1279.00
2012, 1279.00
2013, 1281.00
2014, 1278.00
2015, 1280.00
2016, 1281.00
2017, 1280.00
2018, 1281.00
2019, 1282.00
2020, 1280.00
2021, 1281.00
2022, 1282.00
2023, 1282.00
2024, 1283.00
2025, 1282.00
2026, 1282.00
2027, 1282.00
2028, 1283.00
2029, 1283.00
2030, 1286.00
2031, 1284.00
2032, 1286.00
2033, 1286.00
2034, 1285.00
2035, 1285.00
2036, 1285.00
2037, 1288.00
2038, 1287.00
2039, 1287.00
2040, 1287.00
2041, 1288.00
2042, 1289.00
2043, 1288.00
2044, 1289.00
2045, 1288.00
2046, 1291.00
2047, 1291.00
2048, 1288.00
2049, 1291.00
2050, 1291.00
2051, 1292.00
2052, 1292.00
2053, 1291.00
2054, 1291.00
2055, 1293.00
2056, 1293.00
2057, 1294.00
2058, 1293.00
2059, 1292.00
2060, 1295.00
2061, 1296.00
2062, 1297.00
2063, 1295.00
2064, 1296.00
2065, 1297.00
2066, 1297.00
2067, 1297.00
2068, 1299.00
2069, 1297.00
2070, 1298.00
2071, 1297.00
2072, 1301.00
2073, 1301.00
2074, 1300.00
2075, 1299.00
2076, 1302.00
2077, 1303.00
2078, 1301.00
2079, 1304.00
2080, 1301.00
2081, 1301.00
2082, 1304.00
2083, 1303.00
2084, 1303.00
2085, 1304.00
2086, 1304.00
2087, 1305.00
2088, 1303.00
2089, 1305.00
2090, 1307.00
2091, 1307.00
2092, 1307.00
2093, 1308.00
2094, 1305.00
2095, 1308.00
2096, 1309.00
2097, 1308.00
2098, 1309.00
2099, 1306.00
2100, 1308.00
2101, 1308.00
2102, 1310.00
2103, 1309.00
2104, 1309.00
2105, 1311.00
2106, 1310.00
2107, 1310.00
2108, 1310.00
2109, 1311.00
2110, 1311.00
2111, 1310.00
2112, 1312.00
2113, 1312.00
2114, 1311.00
2115, 1313.00
2116, 1313.00
2117, 1313.00
2118, 1312.00
2119, 1312.00
2120, 1313.00
2121, 1315.00
2122, 1314.00
2123, 1314.00
2124, 1314.00
2125, 1314.00
2126, 1315.00
2127, 1315.00
2128, 1314.00
2129, 1314.00
2130, 1314.00
2131, 1314.00
2132, 1316.00
2133, 1315.00
2134, 1314.00
2135, 1315.00
2136, 1316.00
2137, 1316.00
2138, 1315.00
2139, 1316.00
2140, 1316.00
2141, 1317.00
2142, 1316.00
2143, 1317.00
2144, 1318.00
2145, 1317.00
2146, 1318.00
2147, 1317.00
2148, 1319.00
2149, 1318.00
2150, 1317.00
