FW version: 24
Log Version: 3.0.3

General Info:
       Command/Macro Performed,            Timestamp,             Device ID, COM Port, UART/I2C, Test Name, Host Major, Host Minor, Host Revision, Host Git Commit
            Single_measurement,  2023_07_11_10_48_23,       Insight2_F4_xxx,    USB-C,      USB,          ,          0,          1,             1,      4031237645

Show Spectrometer Status:
l0_version, f4_version, battery_perc, battery_mVolt, accelerometer_temp, accelerometer_x, accelerometer_y, accelerometer_z, compass_temp, compass_x, compass_y, compass_z, lamp_0, lamp_1, gain_0, gain_1
        17,         24,           49,          1904,               6144,           65328,             824,           18724,            0,     65397,     65407,     18796,   3276,   3276,      0,      0

Temperature Statistic Info:
NTC AVG [°C], NTC2 AVG [°C]
      38.333,        38.011

Statistic Info:
M1:  num,      min,      max,   median,      AVG,      STD,M2:  num,      min,      max,   median,      AVG,      STD
     301,   657.00,   756.00,   677.00,   689.61,  30.7246,     401,   861.00,   921.00,   885.00,   887.01,  19.0690,

Measurements:
Wavelength, Data Amplitude
1350, 676.00
1351, 676.00
1352, 676.00
1353, 675.00
1354, 674.00
1355, 674.00
1356, 674.00
1357, 674.00
1358, 673.00
1359, 673.00
1360, 673.00
1361, 671.00
1362, 672.00
1363, 671.00
1364, 671.00
1365, 670.00
1366, 670.00
1367, 669.00
1368, 668.00
1369, 668.00
1370, 668.00
1371, 667.00
1372, 667.00
1373, 666.00
1374, 666.00
1375, 666.00
1376, 665.00
1377, 664.00
1378, 664.00
1379, 664.00
1380, 663.00
1381, 663.00
1382, 662.00
1383, 662.00
1384, 662.00
1385, 661.00
1386, 661.00
1387, 661.00
1388, 661.00
1389, 661.00
1390, 660.00
1391, 660.00
1392, 660.00
1393, 660.00
1394, 660.00
1395, 660.00
1396, 660.00
1397, 659.00
1398, 659.00
1399, 659.00
1400, 659.00
1401, 659.00
1402, 659.00
1403, 658.00
1404, 658.00
1405, 658.00
1406, 658.00
1407, 658.00
1408, 658.00
1409, 657.00
1410, 658.00
1411, 658.00
1412, 658.00
1413, 658.00
1414, 658.00
1415, 658.00
1416, 658.00
1417, 657.00
1418, 658.00
1419, 657.00
1420, 657.00
1421, 657.00
1422, 657.00
1423, 657.00
1424, 658.00
1425, 657.00
1426, 657.00
1427, 657.00
1428, 657.00
1429, 657.00
1430, 657.00
1431, 658.00
1432, 658.00
1433, 658.00
1434, 658.00
1435, 658.00
1436, 658.00
1437, 658.00
1438, 659.00
1439, 659.00
1440, 659.00
1441, 659.00
1442, 659.00
1443, 659.00
1444, 660.00
1445, 660.00
1446, 660.00
1447, 660.00
1448, 660.00
1449, 661.00
1450, 661.00
1451, 661.00
1452, 661.00
1453, 661.00
1454, 661.00
1455, 662.00
1456, 662.00
1457, 662.00
1458, 662.00
1459, 662.00
1460, 663.00
1461, 663.00
1462, 663.00
1463, 664.00
1464, 664.00
1465, 664.00
1466, 664.00
1467, 664.00
1468, 665.00
1469, 665.00
1470, 665.00
1471, 666.00
1472, 666.00
1473, 666.00
1474, 667.00
1475, 667.00
1476, 667.00
1477, 668.00
1478, 668.00
1479, 669.00
1480, 669.00
1481, 669.00
1482, 670.00
1483, 670.00
1484, 671.00
1485, 671.00
1486, 671.00
1487, 672.00
1488, 672.00
1489, 672.00
1490, 673.00
1491, 674.00
1492, 674.00
1493, 674.00
1494, 675.00
1495, 675.00
1496, 675.00
1497, 676.00
1498, 676.00
1499, 676.00
1500, 677.00
1501, 677.00
1502, 678.00
1503, 678.00
1504, 678.00
1505, 679.00
1506, 679.00
1507, 680.00
1508, 681.00
1509, 681.00
1510, 681.00
1511, 682.00
1512, 682.00
1513, 682.00
1514, 683.00
1515, 683.00
1516, 684.00
1517, 685.00
1518, 685.00
1519, 685.00
1520, 686.00
1521, 686.00
1522, 686.00
1523, 687.00
1524, 688.00
1525, 688.00
1526, 689.00
1527, 689.00
1528, 690.00
1529, 690.00
1530, 691.00
1531, 691.00
1532, 692.00
1533, 693.00
1534, 693.00
1535, 693.00
1536, 693.00
1537, 694.00
1538, 695.00
1539, 695.00
1540, 696.00
1541, 696.00
1542, 697.00
1543, 697.00
1544, 698.00
1545, 699.00
1546, 699.00
1547, 699.00
1548, 700.00
1549, 700.00
1550, 700.00
1551, 702.00
1552, 702.00
1553, 702.00
1554, 703.00
1555, 704.00
1556, 704.00
1557, 704.00
1558, 705.00
1559, 706.00
1560, 706.00
1561, 707.00
1562, 708.00
1563, 708.00
1564, 709.00
1565, 709.00
1566, 710.00
1567, 710.00
1568, 711.00
1569, 712.00
1570, 712.00
1571, 713.00
1572, 714.00
1573, 713.00
1574, 714.00
1575, 715.00
1576, 716.00
1577, 716.00
1578, 717.00
1579, 717.00
1580, 718.00
1581, 718.00
1582, 718.00
1583, 719.00
1584, 720.00
1585, 720.00
1586, 721.00
1587, 722.00
1588, 722.00
1589, 722.00
1590, 722.00
1591, 723.00
1592, 724.00
1593, 724.00
1594, 725.00
1595, 725.00
1596, 725.00
1597, 726.00
1598, 726.00
1599, 727.00
1600, 727.00
1601, 728.00
1602, 728.00
1603, 729.00
1604, 730.00
1605, 730.00
1606, 730.00
1607, 731.00
1608, 732.00
1609, 733.00
1610, 733.00
1611, 733.00
1612, 734.00
1613, 735.00
1614, 735.00
1615, 736.00
1616, 737.00
1617, 738.00
1618, 738.00
1619, 739.00
1620, 739.00
1621, 740.00
1622, 741.00
1623, 742.00
1624, 742.00
1625, 742.00
1626, 743.00
1627, 744.00
1628, 744.00
1629, 745.00
1630, 746.00
1631, 746.00
1632, 746.00
1633, 747.00
1634, 747.00
1635, 748.00
1636, 749.00
1637, 749.00
1638, 750.00
1639, 750.00
1640, 750.00
1641, 751.00
1642, 752.00
1643, 752.00
1644, 753.00
1645, 753.00
1646, 754.00
1647, 754.00
1648, 755.00
1649, 755.00
1650, 756.00

1750, 920.00
1751, 920.00
1752, 919.00
1753, 920.00
1754, 919.00
1755, 919.00
1756, 921.00
1757, 920.00
1758, 920.00
1759, 920.00
1760, 920.00
1761, 919.00
1762, 919.00
1763, 919.00
1764, 919.00
1765, 920.00
1766, 920.00
1767, 919.00
1768, 919.00
1769, 919.00
1770, 919.00
1771, 919.00
1772, 918.00
1773, 919.00
1774, 919.00
1775, 919.00
1776, 918.00
1777, 917.00
1778, 918.00
1779, 918.00
1780, 917.00
1781, 917.00
1782, 917.00
1783, 916.00
1784, 916.00
1785, 916.00
1786, 916.00
1787, 917.00
1788, 916.00
1789, 915.00
1790, 915.00
1791, 915.00
1792, 915.00
1793, 914.00
1794, 914.00
1795, 915.00
1796, 914.00
1797, 913.00
1798, 913.00
1799, 914.00
1800, 913.00
1801, 913.00
1802, 913.00
1803, 914.00
1804, 912.00
1805, 912.00
1806, 912.00
1807, 912.00
1808, 912.00
1809, 911.00
1810, 911.00
1811, 911.00
1812, 910.00
1813, 910.00
1814, 910.00
1815, 911.00
1816, 909.00
1817, 909.00
1818, 909.00
1819, 909.00
1820, 908.00
1821, 908.00
1822, 907.00
1823, 907.00
1824, 907.00
1825, 906.00
1826, 906.00
1827, 906.00
1828, 904.00
1829, 905.00
1830, 904.00
1831, 903.00
1832, 903.00
1833, 902.00
1834, 901.00
1835, 901.00
1836, 900.00
1837, 899.00
1838, 898.00
1839, 897.00
1840, 896.00
1841, 896.00
1842, 895.00
1843, 894.00
1844, 893.00
1845, 892.00
1846, 892.00
1847, 891.00
1848, 890.00
1849, 889.00
1850, 887.00
1851, 887.00
1852, 886.00
1853, 885.00
1854, 884.00
1855, 884.00
1856, 883.00
1857, 882.00
1858, 881.00
1859, 880.00
1860, 879.00
1861, 878.00
1862, 877.00
1863, 876.00
1864, 876.00
1865, 875.00
1866, 875.00
1867, 874.00
1868, 874.00
1869, 873.00
1870, 873.00
1871, 873.00
1872, 871.00
1873, 871.00
1874, 870.00
1875, 870.00
1876, 869.00
1877, 870.00
1878, 869.00
1879, 869.00
1880, 869.00
1881, 868.00
1882, 868.00
1883, 867.00
1884, 867.00
1885, 866.00
1886, 866.00
1887, 866.00
1888, 866.00
1889, 866.00
1890, 866.00
1891, 866.00
1892, 865.00
1893, 865.00
1894, 866.00
1895, 865.00
1896, 864.00
1897, 863.00
1898, 864.00
1899, 864.00
1900, 864.00
1901, 864.00
1902, 864.00
1903, 864.00
1904, 864.00
1905, 863.00
1906, 863.00
1907, 863.00
1908, 863.00
1909, 863.00
1910, 863.00
1911, 863.00
1912, 862.00
1913, 863.00
1914, 862.00
1915, 862.00
1916, 863.00
1917, 863.00
1918, 863.00
1919, 863.00
1920, 862.00
1921, 862.00
1922, 862.00
1923, 862.00
1924, 862.00
1925, 863.00
1926, 862.00
1927, 862.00
1928, 862.00
1929, 861.00
1930, 862.00
1931, 863.00
1932, 862.00
1933, 863.00
1934, 863.00
1935, 862.00
1936, 862.00
1937, 863.00
1938, 863.00
1939, 863.00
1940, 862.00
1941, 863.00
1942, 862.00
1943, 863.00
1944, 863.00
1945, 863.00
1946, 863.00
1947, 863.00
1948, 864.00
1949, 864.00
1950, 864.00
1951, 863.00
1952, 863.00
1953, 863.00
1954, 864.00
1955, 865.00
1956, 864.00
1957, 864.00
1958, 865.00
1959, 865.00
1960, 865.00
1961, 865.00
1962, 865.00
1963, 866.00
1964, 865.00
1965, 865.00
1966, 866.00
1967, 866.00
1968, 866.00
1969, 866.00
1970, 867.00
1971, 866.00
1972, 867.00
1973, 867.00
1974, 868.00
1975, 867.00
1976, 867.00
1977, 867.00
1978, 868.00
1979, 868.00
1980, 869.00
1981, 868.00
1982, 869.00
1983, 869.00
1984, 870.00
1985, 869.00
1986, 870.00
1987, 869.00
1988, 870.00
1989, 871.00
1990, 871.00
1991, 871.00
1992, 871.00
1993, 871.00
1994, 872.00
1995, 872.00
1996, 871.00
1997, 872.00
1998, 872.00
1999, 872.00
2000, 872.00
2001, 872.00
2002, 873.00
2003, 874.00
2004, 873.00
2005, 873.00
2006, 873.00
2007, 874.00
2008, 874.00
2009, 874.00
2010, 874.00
2011, 875.00
2012, 874.00
2013, 875.00
2014, 875.00
2015, 876.00
2016, 875.00
2017, 876.00
2018, 876.00
2019, 876.00
2020, 876.00
2021, 877.00
2022, 877.00
2023, 877.00
2024, 877.00
2025, 877.00
2026, 878.00
2027, 878.00
2028, 878.00
2029, 879.00
2030, 878.00
2031, 879.00
2032, 880.00
2033, 880.00
2034, 879.00
2035, 879.00
2036, 880.00
2037, 880.00
2038, 880.00
2039, 880.00
2040, 881.00
2041, 881.00
2042, 882.00
2043, 882.00
2044, 883.00
2045, 882.00
2046, 883.00
2047, 883.00
2048, 883.00
2049, 884.00
2050, 884.00
2051, 884.00
2052, 884.00
2053, 885.00
2054, 885.00
2055, 886.00
2056, 886.00
2057, 887.00
2058, 887.00
2059, 887.00
2060, 887.00
2061, 888.00
2062, 888.00
2063, 888.00
2064, 889.00
2065, 889.00
2066, 889.00
2067, 889.00
2068, 890.00
2069, 891.00
2070, 890.00
2071, 891.00
2072, 891.00
2073, 891.00
2074, 891.00
2075, 893.00
2076, 893.00
2077, 893.00
2078, 893.00
2079, 893.00
2080, 893.00
2081, 894.00
2082, 894.00
2083, 894.00
2084, 894.00
2085, 895.00
2086, 895.00
2087, 895.00
2088, 896.00
2089, 895.00
2090, 896.00
2091, 896.00
2092, 897.00
2093, 897.00
2094, 897.00
2095, 897.00
2096, 897.00
2097, 898.00
2098, 898.00
2099, 898.00
2100, 898.00
2101, 899.00
2102, 899.00
2103, 898.00
2104, 899.00
2105, 899.00
2106, 900.00
2107, 899.00
2108, 899.00
2109, 899.00
2110, 900.00
2111, 900.00
2112, 901.00
2113, 900.00
2114, 901.00
2115, 900.00
2116, 901.00
2117, 901.00
2118, 901.00
2119, 901.00
2120, 901.00
2121, 902.00
2122, 902.00
2123, 902.00
2124, 902.00
2125, 902.00
2126, 903.00
2127, 903.00
2128, 903.00
2129, 902.00
2130, 903.00
2131, 904.00
2132, 903.00
2133, 903.00
2134, 903.00
2135, 903.00
2136, 904.00
2137, 904.00
2138, 904.00
2139, 903.00
2140, 904.00
2141, 904.00
2142, 904.00
2143, 905.00
2144, 904.00
2145, 905.00
2146, 905.00
2147, 905.00
2148, 904.00
2149, 906.00
2150, 904.00
