FW version: 24
Log Version: 3.0.3

General Info:
       Command/Macro Performed,            Timestamp,             Device ID, COM Port, UART/I2C, Test Name, Host Major, Host Minor, Host Revision, Host Git Commit
            Single_measurement,  2023_07_11_10_48_57,       Insight2_F4_xxx,    USB-C,      USB,          ,          0,          1,             1,      4031237645

Show Spectrometer Status:
l0_version, f4_version, battery_perc, battery_mVolt, accelerometer_temp, accelerometer_x, accelerometer_y, accelerometer_z, compass_temp, compass_x, compass_y, compass_z, lamp_0, lamp_1, gain_0, gain_1
        17,         24,           49,          1904,               6192,           65312,             844,           18624,            0,     65383,     65374,     18637,   2457,   2457,      1,      1

Temperature Statistic Info:
NTC AVG [°C], NTC2 AVG [°C]
      38.566,        38.245

Statistic Info:
M1:  num,      min,      max,   median,      AVG,      STD,M2:  num,      min,      max,   median,      AVG,      STD
     301,  1094.00,  1273.00,  1130.00,  1152.21,  55.1497,     401,  1546.00,  1652.00,  1591.00,  1593.95,  34.7741,

Measurements:
Wavelength, Data Amplitude
1350, 1122.00
1351, 1124.00
1352, 1122.00
1353, 1121.00
1354, 1121.00
1355, 1120.00
1356, 1121.00
1357, 1120.00
1358, 1120.00
1359, 1118.00
1360, 1118.00
1361, 1116.00
1362, 1116.00
1363, 1115.00
1364, 1115.00
1365, 1114.00
1366, 1113.00
1367, 1112.00
1368, 1112.00
1369, 1110.00
1370, 1110.00
1371, 1109.00
1372, 1109.00
1373, 1108.00
1374, 1107.00
1375, 1106.00
1376, 1106.00
1377, 1104.00
1378, 1104.00
1379, 1104.00
1380, 1102.00
1381, 1102.00
1382, 1102.00
1383, 1101.00
1384, 1101.00
1385, 1101.00
1386, 1100.00
1387, 1099.00
1388, 1100.00
1389, 1099.00
1390, 1097.00
1391, 1098.00
1392, 1098.00
1393, 1098.00
1394, 1098.00
1395, 1097.00
1396, 1096.00
1397, 1096.00
1398, 1097.00
1399, 1096.00
1400, 1096.00
1401, 1095.00
1402, 1096.00
1403, 1095.00
1404, 1095.00
1405, 1095.00
1406, 1095.00
1407, 1096.00
1408, 1095.00
1409, 1095.00
1410, 1096.00
1411, 1096.00
1412, 1096.00
1413, 1095.00
1414, 1095.00
1415, 1095.00
1416, 1095.00
1417, 1094.00
1418, 1095.00
1419, 1094.00
1420, 1094.00
1421, 1094.00
1422, 1095.00
1423, 1095.00
1424, 1095.00
1425, 1095.00
1426, 1095.00
1427, 1096.00
1428, 1096.00
1429, 1095.00
1430, 1096.00
1431, 1096.00
1432, 1096.00
1433, 1097.00
1434, 1095.00
1435, 1096.00
1436, 1096.00
1437, 1097.00
1438, 1097.00
1439, 1097.00
1440, 1097.00
1441, 1098.00
1442, 1099.00
1443, 1099.00
1444, 1099.00
1445, 1100.00
1446, 1100.00
1447, 1100.00
1448, 1100.00
1449, 1100.00
1450, 1101.00
1451, 1101.00
1452, 1102.00
1453, 1102.00
1454, 1102.00
1455, 1103.00
1456, 1102.00
1457, 1104.00
1458, 1104.00
1459, 1104.00
1460, 1106.00
1461, 1106.00
1462, 1106.00
1463, 1106.00
1464, 1107.00
1465, 1107.00
1466, 1108.00
1467, 1108.00
1468, 1109.00
1469, 1110.00
1470, 1110.00
1471, 1111.00
1472, 1111.00
1473, 1112.00
1474, 1113.00
1475, 1112.00
1476, 1115.00
1477, 1115.00
1478, 1115.00
1479, 1116.00
1480, 1117.00
1481, 1118.00
1482, 1118.00
1483, 1119.00
1484, 1119.00
1485, 1120.00
1486, 1121.00
1487, 1121.00
1488, 1122.00
1489, 1124.00
1490, 1124.00
1491, 1124.00
1492, 1124.00
1493, 1126.00
1494, 1127.00
1495, 1128.00
1496, 1128.00
1497, 1128.00
1498, 1129.00
1499, 1130.00
1500, 1130.00
1501, 1132.00
1502, 1132.00
1503, 1132.00
1504, 1133.00
1505, 1134.00
1506, 1135.00
1507, 1136.00
1508, 1137.00
1509, 1138.00
1510, 1139.00
1511, 1139.00
1512, 1139.00
1513, 1141.00
1514, 1142.00
1515, 1143.00
1516, 1143.00
1517, 1144.00
1518, 1145.00
1519, 1146.00
1520, 1147.00
1521, 1147.00
1522, 1148.00
1523, 1150.00
1524, 1152.00
1525, 1150.00
1526, 1152.00
1527, 1153.00
1528, 1155.00
1529, 1155.00
1530, 1156.00
1531, 1156.00
1532, 1157.00
1533, 1159.00
1534, 1159.00
1535, 1160.00
1536, 1160.00
1537, 1161.00
1538, 1162.00
1539, 1164.00
1540, 1165.00
1541, 1166.00
1542, 1166.00
1543, 1167.00
1544, 1168.00
1545, 1170.00
1546, 1170.00
1547, 1171.00
1548, 1172.00
1549, 1172.00
1550, 1173.00
1551, 1175.00
1552, 1176.00
1553, 1176.00
1554, 1177.00
1555, 1178.00
1556, 1178.00
1557, 1179.00
1558, 1181.00
1559, 1182.00
1560, 1183.00
1561, 1184.00
1562, 1185.00
1563, 1186.00
1564, 1188.00
1565, 1188.00
1566, 1188.00
1567, 1190.00
1568, 1190.00
1569, 1191.00
1570, 1193.00
1571, 1193.00
1572, 1195.00
1573, 1195.00
1574, 1197.00
1575, 1198.00
1576, 1199.00
1577, 1199.00
1578, 1200.00
1579, 1200.00
1580, 1202.00
1581, 1203.00
1582, 1204.00
1583, 1204.00
1584, 1205.00
1585, 1206.00
1586, 1207.00
1587, 1208.00
1588, 1209.00
1589, 1210.00
1590, 1210.00
1591, 1211.00
1592, 1213.00
1593, 1214.00
1594, 1213.00
1595, 1213.00
1596, 1215.00
1597, 1217.00
1598, 1218.00
1599, 1218.00
1600, 1219.00
1601, 1221.00
1602, 1221.00
1603, 1223.00
1604, 1223.00
1605, 1224.00
1606, 1225.00
1607, 1227.00
1608, 1228.00
1609, 1229.00
1610, 1229.00
1611, 1230.00
1612, 1233.00
1613, 1233.00
1614, 1235.00
1615, 1236.00
1616, 1237.00
1617, 1237.00
1618, 1238.00
1619, 1240.00
1620, 1241.00
1621, 1242.00
1622, 1244.00
1623, 1244.00
1624, 1245.00
1625, 1247.00
1626, 1248.00
1627, 1249.00
1628, 1250.00
1629, 1251.00
1630, 1252.00
1631, 1253.00
1632, 1255.00
1633, 1256.00
1634, 1256.00
1635, 1257.00
1636, 1259.00
1637, 1258.00
1638, 1260.00
1639, 1262.00
1640, 1262.00
1641, 1263.00
1642, 1263.00
1643, 1264.00
1644, 1267.00
1645, 1267.00
1646, 1267.00
1647, 1268.00
1648, 1269.00
1649, 1270.00
1650, 1273.00

1750, 1651.00
1751, 1649.00
1752, 1650.00
1753, 1652.00
1754, 1651.00
1755, 1651.00
1756, 1651.00
1757, 1651.00
1758, 1651.00
1759, 1650.00
1760, 1651.00
1761, 1652.00
1762, 1652.00
1763, 1652.00
1764, 1649.00
1765, 1652.00
1766, 1651.00
1767, 1650.00
1768, 1650.00
1769, 1648.00
1770, 1649.00
1771, 1651.00
1772, 1649.00
1773, 1650.00
1774, 1648.00
1775, 1647.00
1776, 1648.00
1777, 1647.00
1778, 1647.00
1779, 1646.00
1780, 1645.00
1781, 1646.00
1782, 1647.00
1783, 1646.00
1784, 1646.00
1785, 1646.00
1786, 1645.00
1787, 1646.00
1788, 1644.00
1789, 1642.00
1790, 1644.00
1791, 1642.00
1792, 1644.00
1793, 1641.00
1794, 1642.00
1795, 1643.00
1796, 1642.00
1797, 1641.00
1798, 1641.00
1799, 1641.00
1800, 1639.00
1801, 1640.00
1802, 1640.00
1803, 1639.00
1804, 1641.00
1805, 1636.00
1806, 1637.00
1807, 1638.00
1808, 1637.00
1809, 1637.00
1810, 1636.00
1811, 1637.00
1812, 1635.00
1813, 1636.00
1814, 1635.00
1815, 1635.00
1816, 1631.00
1817, 1632.00
1818, 1632.00
1819, 1632.00
1820, 1632.00
1821, 1630.00
1822, 1631.00
1823, 1630.00
1824, 1627.00
1825, 1627.00
1826, 1628.00
1827, 1627.00
1828, 1627.00
1829, 1625.00
1830, 1626.00
1831, 1623.00
1832, 1620.00
1833, 1619.00
1834, 1617.00
1835, 1617.00
1836, 1617.00
1837, 1614.00
1838, 1613.00
1839, 1613.00
1840, 1611.00
1841, 1610.00
1842, 1609.00
1843, 1605.00
1844, 1604.00
1845, 1602.00
1846, 1601.00
1847, 1600.00
1848, 1597.00
1849, 1595.00
1850, 1594.00
1851, 1592.00
1852, 1591.00
1853, 1589.00
1854, 1587.00
1855, 1586.00
1856, 1586.00
1857, 1584.00
1858, 1581.00
1859, 1580.00
1860, 1578.00
1861, 1578.00
1862, 1576.00
1863, 1575.00
1864, 1572.00
1865, 1573.00
1866, 1570.00
1867, 1570.00
1868, 1568.00
1869, 1569.00
1870, 1567.00
1871, 1566.00
1872, 1565.00
1873, 1562.00
1874, 1564.00
1875, 1560.00
1876, 1561.00
1877, 1561.00
1878, 1559.00
1879, 1560.00
1880, 1559.00
1881, 1558.00
1882, 1558.00
1883, 1557.00
1884, 1555.00
1885, 1555.00
1886, 1555.00
1887, 1555.00
1888, 1555.00
1889, 1553.00
1890, 1553.00
1891, 1555.00
1892, 1554.00
1893, 1553.00
1894, 1552.00
1895, 1552.00
1896, 1552.00
1897, 1552.00
1898, 1553.00
1899, 1550.00
1900, 1551.00
1901, 1551.00
1902, 1552.00
1903, 1550.00
1904, 1549.00
1905, 1549.00
1906, 1549.00
1907, 1551.00
1908, 1550.00
1909, 1551.00
1910, 1550.00
1911, 1549.00
1912, 1549.00
1913, 1547.00
1914, 1549.00
1915, 1549.00
1916, 1549.00
1917, 1550.00
1918, 1550.00
1919, 1546.00
1920, 1548.00
1921, 1548.00
1922, 1549.00
1923, 1549.00
1924, 1547.00
1925, 1548.00
1926, 1549.00
1927, 1549.00
1928, 1547.00
1929, 1548.00
1930, 1549.00
1931, 1547.00
1932, 1549.00
1933, 1548.00
1934, 1549.00
1935, 1548.00
1936, 1548.00
1937, 1548.00
1938, 1548.00
1939, 1548.00
1940, 1549.00
1941, 1549.00
1942, 1548.00
1943, 1550.00
1944, 1551.00
1945, 1550.00
1946, 1552.00
1947, 1548.00
1948, 1549.00
1949, 1552.00
1950, 1551.00
1951, 1550.00
1952, 1551.00
1953, 1550.00
1954, 1552.00
1955, 1551.00
1956, 1552.00
1957, 1553.00
1958, 1553.00
1959, 1551.00
1960, 1552.00
1961, 1554.00
1962, 1552.00
1963, 1553.00
1964, 1554.00
1965, 1555.00
1966, 1555.00
1967, 1556.00
1968, 1556.00
1969, 1556.00
1970, 1558.00
1971, 1557.00
1972, 1558.00
1973, 1556.00
1974, 1559.00
1975, 1556.00
1976, 1559.00
1977, 1559.00
1978, 1559.00
1979, 1559.00
1980, 1561.00
1981, 1559.00
1982, 1562.00
1983, 1561.00
1984, 1562.00
1985, 1562.00
1986, 1563.00
1987, 1562.00
1988, 1562.00
1989, 1564.00
1990, 1565.00
1991, 1563.00
1992, 1565.00
1993, 1563.00
1994, 1567.00
1995, 1565.00
1996, 1567.00
1997, 1565.00
1998, 1566.00
1999, 1566.00
2000, 1568.00
2001, 1567.00
2002, 1568.00
2003, 1569.00
2004, 1570.00
2005, 1570.00
2006, 1569.00
2007, 1571.00
2008, 1572.00
2009, 1570.00
2010, 1572.00
2011, 1570.00
2012, 1572.00
2013, 1572.00
2014, 1573.00
2015, 1572.00
2016, 1573.00
2017, 1573.00
2018, 1576.00
2019, 1575.00
2020, 1573.00
2021, 1574.00
2022, 1575.00
2023, 1578.00
2024, 1576.00
2025, 1577.00
2026, 1578.00
2027, 1577.00
2028, 1578.00
2029, 1578.00
2030, 1580.00
2031, 1579.00
2032, 1581.00
2033, 1581.00
2034, 1580.00
2035, 1581.00
2036, 1582.00
2037, 1583.00
2038, 1582.00
2039, 1582.00
2040, 1583.00
2041, 1585.00
2042, 1586.00
2043, 1586.00
2044, 1585.00
2045, 1585.00
2046, 1589.00
2047, 1589.00
2048, 1589.00
2049, 1589.00
2050, 1590.00
2051, 1590.00
2052, 1591.00
2053, 1591.00
2054, 1592.00
2055, 1593.00
2056, 1594.00
2057, 1593.00
2058, 1595.00
2059, 1596.00
2060, 1598.00
2061, 1597.00
2062, 1597.00
2063, 1598.00
2064, 1600.00
2065, 1598.00
2066, 1599.00
2067, 1599.00
2068, 1602.00
2069, 1602.00
2070, 1601.00
2071, 1603.00
2072, 1603.00
2073, 1604.00
2074, 1605.00
2075, 1607.00
2076, 1606.00
2077, 1606.00
2078, 1609.00
2079, 1608.00
2080, 1609.00
2081, 1609.00
2082, 1607.00
2083, 1609.00
2084, 1610.00
2085, 1609.00
2086, 1610.00
2087, 1610.00
2088, 1611.00
2089, 1613.00
2090, 1612.00
2091, 1612.00
2092, 1613.00
2093, 1614.00
2094, 1615.00
2095, 1616.00
2096, 1615.00
2097, 1614.00
2098, 1615.00
2099, 1617.00
2100, 1617.00
2101, 1617.00
2102, 1617.00
2103, 1617.00
2104, 1618.00
2105, 1619.00
2106, 1617.00
2107, 1621.00
2108, 1620.00
2109, 1619.00
2110, 1621.00
2111, 1620.00
2112, 1621.00
2113, 1623.00
2114, 1622.00
2115, 1623.00
2116, 1621.00
2117, 1622.00
2118, 1624.00
2119, 1623.00
2120, 1623.00
2121, 1625.00
2122, 1624.00
2123, 1625.00
2124, 1625.00
2125, 1624.00
2126, 1625.00
2127, 1625.00
2128, 1625.00
2129, 1626.00
2130, 1625.00
2131, 1628.00
2132, 1626.00
2133, 1627.00
2134, 1627.00
2135, 1626.00
2136, 1627.00
2137, 1627.00
2138, 1630.00
2139, 1628.00
2140, 1628.00
2141, 1629.00
2142, 1629.00
2143, 1629.00
2144, 1630.00
2145, 1628.00
2146, 1629.00
2147, 1631.00
2148, 1630.00
2149, 1631.00
2150, 1629.00
