FW version: 24
Log Version: 3.0.3

General Info:
       Command/Macro Performed,            Timestamp,             Device ID, COM Port, UART/I2C, Test Name, Host Major, Host Minor, Host Revision, Host Git Commit
            Single_measurement,  2023_07_11_10_49_21,       Insight2_F4_xxx,    USB-C,      USB,          ,          0,          1,             1,      4031237645

Show Spectrometer Status:
l0_version, f4_version, battery_perc, battery_mVolt, accelerometer_temp, accelerometer_x, accelerometer_y, accelerometer_z, compass_temp, compass_x, compass_y, compass_z, lamp_0, lamp_1, gain_0, gain_1
        17,         24,           49,          1906,               6192,           65356,             844,           18644,            0,     65356,     65359,     18644,   2866,   2866,      1,      1

Temperature Statistic Info:
NTC AVG [°C], NTC2 AVG [°C]
      38.768,        38.450

Statistic Info:
M1:  num,      min,      max,   median,      AVG,      STD,M2:  num,      min,      max,   median,      AVG,      STD
     301,  1473.00,  1703.00,  1519.00,  1548.61,  71.5058,     401,  1999.00,  2135.00,  2056.00,  2058.84,  44.6028,

Measurements:
Wavelength, Data Amplitude
1350, 1514.00
1351, 1514.00
1352, 1513.00
1353, 1512.00
1354, 1511.00
1355, 1511.00
1356, 1511.00
1357, 1509.00
1358, 1508.00
1359, 1507.00
1360, 1507.00
1361, 1505.00
1362, 1505.00
1363, 1503.00
1364, 1501.00
1365, 1501.00
1366, 1500.00
1367, 1499.00
1368, 1497.00
1369, 1496.00
1370, 1495.00
1371, 1495.00
1372, 1494.00
1373, 1493.00
1374, 1492.00
1375, 1490.00
1376, 1489.00
1377, 1488.00
1378, 1486.00
1379, 1487.00
1380, 1486.00
1381, 1485.00
1382, 1483.00
1383, 1483.00
1384, 1483.00
1385, 1482.00
1386, 1481.00
1387, 1480.00
1388, 1480.00
1389, 1479.00
1390, 1480.00
1391, 1479.00
1392, 1480.00
1393, 1479.00
1394, 1478.00
1395, 1478.00
1396, 1478.00
1397, 1477.00
1398, 1478.00
1399, 1476.00
1400, 1476.00
1401, 1477.00
1402, 1476.00
1403, 1476.00
1404, 1476.00
1405, 1474.00
1406, 1475.00
1407, 1475.00
1408, 1475.00
1409, 1475.00
1410, 1474.00
1411, 1474.00
1412, 1473.00
1413, 1473.00
1414, 1473.00
1415, 1473.00
1416, 1474.00
1417, 1474.00
1418, 1474.00
1419, 1473.00
1420, 1475.00
1421, 1474.00
1422, 1473.00
1423, 1474.00
1424, 1473.00
1425, 1474.00
1426, 1475.00
1427, 1474.00
1428, 1475.00
1429, 1475.00
1430, 1475.00
1431, 1475.00
1432, 1475.00
1433, 1476.00
1434, 1476.00
1435, 1477.00
1436, 1476.00
1437, 1477.00
1438, 1478.00
1439, 1477.00
1440, 1478.00
1441, 1478.00
1442, 1479.00
1443, 1479.00
1444, 1480.00
1445, 1480.00
1446, 1480.00
1447, 1480.00
1448, 1482.00
1449, 1481.00
1450, 1481.00
1451, 1482.00
1452, 1483.00
1453, 1483.00
1454, 1484.00
1455, 1485.00
1456, 1485.00
1457, 1485.00
1458, 1486.00
1459, 1486.00
1460, 1487.00
1461, 1487.00
1462, 1487.00
1463, 1488.00
1464, 1489.00
1465, 1489.00
1466, 1491.00
1467, 1491.00
1468, 1492.00
1469, 1492.00
1470, 1493.00
1471, 1495.00
1472, 1495.00
1473, 1496.00
1474, 1497.00
1475, 1498.00
1476, 1499.00
1477, 1500.00
1478, 1501.00
1479, 1501.00
1480, 1501.00
1481, 1502.00
1482, 1505.00
1483, 1504.00
1484, 1505.00
1485, 1506.00
1486, 1507.00
1487, 1508.00
1488, 1508.00
1489, 1510.00
1490, 1510.00
1491, 1511.00
1492, 1513.00
1493, 1514.00
1494, 1515.00
1495, 1516.00
1496, 1515.00
1497, 1517.00
1498, 1518.00
1499, 1518.00
1500, 1519.00
1501, 1521.00
1502, 1521.00
1503, 1523.00
1504, 1523.00
1505, 1525.00
1506, 1525.00
1507, 1527.00
1508, 1528.00
1509, 1529.00
1510, 1530.00
1511, 1530.00
1512, 1533.00
1513, 1533.00
1514, 1534.00
1515, 1535.00
1516, 1536.00
1517, 1537.00
1518, 1538.00
1519, 1539.00
1520, 1540.00
1521, 1542.00
1522, 1542.00
1523, 1544.00
1524, 1545.00
1525, 1545.00
1526, 1547.00
1527, 1548.00
1528, 1550.00
1529, 1551.00
1530, 1552.00
1531, 1553.00
1532, 1554.00
1533, 1555.00
1534, 1557.00
1535, 1558.00
1536, 1559.00
1537, 1560.00
1538, 1560.00
1539, 1562.00
1540, 1564.00
1541, 1565.00
1542, 1566.00
1543, 1567.00
1544, 1568.00
1545, 1570.00
1546, 1570.00
1547, 1573.00
1548, 1573.00
1549, 1574.00
1550, 1576.00
1551, 1577.00
1552, 1577.00
1553, 1579.00
1554, 1580.00
1555, 1582.00
1556, 1582.00
1557, 1584.00
1558, 1586.00
1559, 1586.00
1560, 1588.00
1561, 1589.00
1562, 1589.00
1563, 1591.00
1564, 1593.00
1565, 1594.00
1566, 1596.00
1567, 1597.00
1568, 1598.00
1569, 1600.00
1570, 1602.00
1571, 1602.00
1572, 1604.00
1573, 1604.00
1574, 1606.00
1575, 1607.00
1576, 1608.00
1577, 1609.00
1578, 1611.00
1579, 1612.00
1580, 1613.00
1581, 1614.00
1582, 1616.00
1583, 1616.00
1584, 1618.00
1585, 1620.00
1586, 1620.00
1587, 1622.00
1588, 1624.00
1589, 1623.00
1590, 1624.00
1591, 1625.00
1592, 1627.00
1593, 1628.00
1594, 1630.00
1595, 1631.00
1596, 1632.00
1597, 1633.00
1598, 1634.00
1599, 1635.00
1600, 1637.00
1601, 1638.00
1602, 1638.00
1603, 1640.00
1604, 1643.00
1605, 1643.00
1606, 1644.00
1607, 1646.00
1608, 1647.00
1609, 1649.00
1610, 1649.00
1611, 1651.00
1612, 1651.00
1613, 1654.00
1614, 1655.00
1615, 1657.00
1616, 1659.00
1617, 1661.00
1618, 1663.00
1619, 1663.00
1620, 1664.00
1621, 1665.00
1622, 1667.00
1623, 1668.00
1624, 1669.00
1625, 1671.00
1626, 1673.00
1627, 1674.00
1628, 1676.00
1629, 1677.00
1630, 1679.00
1631, 1681.00
1632, 1680.00
1633, 1682.00
1634, 1684.00
1635, 1684.00
1636, 1686.00
1637, 1687.00
1638, 1689.00
1639, 1689.00
1640, 1691.00
1641, 1691.00
1642, 1693.00
1643, 1694.00
1644, 1696.00
1645, 1696.00
1646, 1698.00
1647, 1701.00
1648, 1701.00
1649, 1701.00
1650, 1703.00

1750, 2133.00
1751, 2133.00
1752, 2135.00
1753, 2134.00
1754, 2134.00
1755, 2133.00
1756, 2134.00
1757, 2133.00
1758, 2133.00
1759, 2133.00
1760, 2134.00
1761, 2133.00
1762, 2133.00
1763, 2132.00
1764, 2132.00
1765, 2133.00
1766, 2133.00
1767, 2132.00
1768, 2132.00
1769, 2131.00
1770, 2131.00
1771, 2132.00
1772, 2131.00
1773, 2131.00
1774, 2131.00
1775, 2128.00
1776, 2130.00
1777, 2130.00
1778, 2129.00
1779, 2130.00
1780, 2129.00
1781, 2129.00
1782, 2128.00
1783, 2126.00
1784, 2126.00
1785, 2123.00
1786, 2125.00
1787, 2124.00
1788, 2126.00
1789, 2123.00
1790, 2125.00
1791, 2125.00
1792, 2121.00
1793, 2123.00
1794, 2122.00
1795, 2121.00
1796, 2119.00
1797, 2121.00
1798, 2121.00
1799, 2118.00
1800, 2119.00
1801, 2119.00
1802, 2118.00
1803, 2117.00
1804, 2118.00
1805, 2116.00
1806, 2116.00
1807, 2117.00
1808, 2114.00
1809, 2115.00
1810, 2112.00
1811, 2114.00
1812, 2113.00
1813, 2113.00
1814, 2114.00
1815, 2112.00
1816, 2112.00
1817, 2112.00
1818, 2109.00
1819, 2109.00
1820, 2105.00
1821, 2108.00
1822, 2104.00
1823, 2105.00
1824, 2106.00
1825, 2102.00
1826, 2101.00
1827, 2100.00
1828, 2101.00
1829, 2099.00
1830, 2097.00
1831, 2095.00
1832, 2096.00
1833, 2092.00
1834, 2092.00
1835, 2089.00
1836, 2088.00
1837, 2086.00
1838, 2085.00
1839, 2083.00
1840, 2081.00
1841, 2080.00
1842, 2077.00
1843, 2073.00
1844, 2072.00
1845, 2070.00
1846, 2069.00
1847, 2067.00
1848, 2064.00
1849, 2061.00
1850, 2063.00
1851, 2058.00
1852, 2056.00
1853, 2055.00
1854, 2052.00
1855, 2048.00
1856, 2047.00
1857, 2044.00
1858, 2043.00
1859, 2042.00
1860, 2039.00
1861, 2037.00
1862, 2036.00
1863, 2034.00
1864, 2033.00
1865, 2031.00
1866, 2031.00
1867, 2028.00
1868, 2027.00
1869, 2025.00
1870, 2023.00
1871, 2022.00
1872, 2022.00
1873, 2021.00
1874, 2020.00
1875, 2019.00
1876, 2019.00
1877, 2015.00
1878, 2014.00
1879, 2015.00
1880, 2013.00
1881, 2015.00
1882, 2014.00
1883, 2012.00
1884, 2012.00
1885, 2012.00
1886, 2009.00
1887, 2009.00
1888, 2008.00
1889, 2010.00
1890, 2009.00
1891, 2007.00
1892, 2007.00
1893, 2006.00
1894, 2006.00
1895, 2006.00
1896, 2006.00
1897, 2007.00
1898, 2006.00
1899, 2007.00
1900, 2005.00
1901, 2006.00
1902, 2004.00
1903, 2005.00
1904, 2001.00
1905, 2003.00
1906, 2004.00
1907, 2001.00
1908, 2001.00
1909, 2001.00
1910, 2003.00
1911, 2002.00
1912, 2001.00
1913, 2002.00
1914, 1999.00
1915, 2001.00
1916, 2002.00
1917, 1999.00
1918, 2001.00
1919, 1999.00
1920, 2000.00
1921, 2002.00
1922, 2001.00
1923, 2000.00
1924, 2001.00
1925, 2001.00
1926, 2001.00
1927, 2000.00
1928, 2001.00
1929, 2000.00
1930, 1999.00
1931, 1999.00
1932, 2000.00
1933, 2001.00
1934, 2001.00
1935, 2001.00
1936, 2001.00
1937, 2002.00
1938, 2002.00
1939, 2002.00
1940, 2001.00
1941, 2001.00
1942, 2001.00
1943, 2001.00
1944, 2001.00
1945, 2002.00
1946, 2004.00
1947, 2002.00
1948, 2004.00
1949, 2002.00
1950, 2004.00
1951, 2004.00
1952, 2005.00
1953, 2003.00
1954, 2005.00
1955, 2005.00
1956, 2005.00
1957, 2007.00
1958, 2005.00
1959, 2007.00
1960, 2005.00
1961, 2007.00
1962, 2007.00
1963, 2007.00
1964, 2009.00
1965, 2009.00
1966, 2010.00
1967, 2009.00
1968, 2007.00
1969, 2009.00
1970, 2012.00
1971, 2012.00
1972, 2010.00
1973, 2013.00
1974, 2013.00
1975, 2014.00
1976, 2013.00
1977, 2013.00
1978, 2015.00
1979, 2016.00
1980, 2016.00
1981, 2017.00
1982, 2015.00
1983, 2018.00
1984, 2018.00
1985, 2019.00
1986, 2017.00
1987, 2019.00
1988, 2020.00
1989, 2019.00
1990, 2020.00
1991, 2021.00
1992, 2022.00
1993, 2021.00
1994, 2022.00
1995, 2023.00
1996, 2022.00
1997, 2023.00
1998, 2024.00
1999, 2024.00
2000, 2025.00
2001, 2024.00
2002, 2024.00
2003, 2027.00
2004, 2027.00
2005, 2026.00
2006, 2028.00
2007, 2027.00
2008, 2029.00
2009, 2030.00
2010, 2027.00
2011, 2030.00
2012, 2031.00
2013, 2031.00
2014, 2031.00
2015, 2033.00
2016, 2033.00
2017, 2033.00
2018, 2033.00
2019, 2032.00
2020, 2033.00
2021, 2033.00
2022, 2035.00
2023, 2037.00
2024, 2035.00
2025, 2039.00
2026, 2038.00
2027, 2038.00
2028, 2038.00
2029, 2037.00
2030, 2040.00
2031, 2041.00
2032, 2039.00
2033, 2041.00
2034, 2043.00
2035, 2042.00
2036, 2045.00
2037, 2044.00
2038, 2045.00
2039, 2045.00
2040, 2046.00
2041, 2047.00
2042, 2045.00
2043, 2048.00
2044, 2047.00
2045, 2049.00
2046, 2050.00
2047, 2048.00
2048, 2051.00
2049, 2051.00
2050, 2053.00
2051, 2053.00
2052, 2054.00
2053, 2056.00
2054, 2056.00
2055, 2056.00
2056, 2059.00
2057, 2057.00
2058, 2058.00
2059, 2058.00
2060, 2060.00
2061, 2060.00
2062, 2062.00
2063, 2062.00
2064, 2064.00
2065, 2066.00
2066, 2065.00
2067, 2065.00
2068, 2067.00
2069, 2065.00
2070, 2068.00
2071, 2069.00
2072, 2069.00
2073, 2071.00
2074, 2068.00
2075, 2071.00
2076, 2072.00
2077, 2074.00
2078, 2075.00
2079, 2074.00
2080, 2075.00
2081, 2076.00
2082, 2076.00
2083, 2078.00
2084, 2079.00
2085, 2079.00
2086, 2077.00
2087, 2080.00
2088, 2079.00
2089, 2081.00
2090, 2082.00
2091, 2081.00
2092, 2083.00
2093, 2084.00
2094, 2084.00
2095, 2085.00
2096, 2085.00
2097, 2086.00
2098, 2087.00
2099, 2086.00
2100, 2088.00
2101, 2088.00
2102, 2087.00
2103, 2090.00
2104, 2089.00
2105, 2089.00
2106, 2091.00
2107, 2090.00
2108, 2090.00
2109, 2091.00
2110, 2091.00
2111, 2092.00
2112, 2091.00
2113, 2092.00
2114, 2092.00
2115, 2092.00
2116, 2094.00
2117, 2095.00
2118, 2094.00
2119, 2094.00
2120, 2094.00
2121, 2094.00
2122, 2095.00
2123, 2096.00
2124, 2095.00
2125, 2097.00
2126, 2097.00
2127, 2098.00
2128, 2097.00
2129, 2099.00
2130, 2098.00
2131, 2099.00
2132, 2098.00
2133, 2099.00
2134, 2099.00
2135, 2100.00
2136, 2101.00
2137, 2100.00
2138, 2100.00
2139, 2101.00
2140, 2101.00
2141, 2101.00
2142, 2101.00
2143, 2102.00
2144, 2102.00
2145, 2103.00
2146, 2104.00
2147, 2104.00
2148, 2104.00
2149, 2103.00
2150, 2103.00
