FW version: 24
Log Version: 3.0.3

General Info:
       Command/Macro Performed,            Timestamp,             Device ID, COM Port, UART/I2C, Test Name, Host Major, Host Minor, Host Revision, Host Git Commit
            Single_measurement,  2023_07_11_10_48_34,       Insight2_F4_xxx,    USB-C,      USB,          ,          0,          1,             1,      4031237645

Show Spectrometer Status:
l0_version, f4_version, battery_perc, battery_mVolt, accelerometer_temp, accelerometer_x, accelerometer_y, accelerometer_z, compass_temp, compass_x, compass_y, compass_z, lamp_0, lamp_1, gain_0, gain_1
        17,         24,           49,          1907,               6128,           65388,             848,           18700,            0,     65388,     65365,     18764,   2047,   2047,      1,      1

Temperature Statistic Info:
NTC AVG [°C], NTC2 AVG [°C]
      38.362,        38.040

Statistic Info:
M1:  num,      min,      max,   median,      AVG,      STD,M2:  num,      min,      max,   median,      AVG,      STD
     301,   758.00,   883.00,   786.00,   799.97,  39.8098,     401,  1126.00,  1205.00,  1161.00,  1162.52,  25.6169,

Measurements:
Wavelength, Data Amplitude
1350, 777.00
1351, 777.00
1352, 776.00
1353, 776.00
1354, 775.00
1355, 774.00
1356, 775.00
1357, 774.00
1358, 774.00
1359, 773.00
1360, 773.00
1361, 774.00
1362, 773.00
1363, 772.00
1364, 771.00
1365, 772.00
1366, 770.00
1367, 770.00
1368, 769.00
1369, 768.00
1370, 768.00
1371, 767.00
1372, 767.00
1373, 767.00
1374, 766.00
1375, 765.00
1376, 764.00
1377, 765.00
1378, 763.00
1379, 764.00
1380, 763.00
1381, 763.00
1382, 763.00
1383, 762.00
1384, 761.00
1385, 762.00
1386, 761.00
1387, 761.00
1388, 760.00
1389, 761.00
1390, 761.00
1391, 761.00
1392, 759.00
1393, 760.00
1394, 760.00
1395, 759.00
1396, 759.00
1397, 759.00
1398, 760.00
1399, 759.00
1400, 759.00
1401, 759.00
1402, 759.00
1403, 758.00
1404, 758.00
1405, 758.00
1406, 759.00
1407, 758.00
1408, 758.00
1409, 759.00
1410, 758.00
1411, 758.00
1412, 758.00
1413, 758.00
1414, 758.00
1415, 758.00
1416, 758.00
1417, 759.00
1418, 758.00
1419, 758.00
1420, 759.00
1421, 759.00
1422, 758.00
1423, 758.00
1424, 759.00
1425, 759.00
1426, 759.00
1427, 759.00
1428, 759.00
1429, 759.00
1430, 760.00
1431, 759.00
1432, 759.00
1433, 759.00
1434, 759.00
1435, 760.00
1436, 761.00
1437, 760.00
1438, 761.00
1439, 760.00
1440, 761.00
1441, 761.00
1442, 761.00
1443, 761.00
1444, 762.00
1445, 762.00
1446, 763.00
1447, 763.00
1448, 763.00
1449, 763.00
1450, 763.00
1451, 764.00
1452, 764.00
1453, 765.00
1454, 764.00
1455, 764.00
1456, 765.00
1457, 765.00
1458, 765.00
1459, 765.00
1460, 767.00
1461, 766.00
1462, 767.00
1463, 766.00
1464, 767.00
1465, 767.00
1466, 768.00
1467, 769.00
1468, 769.00
1469, 769.00
1470, 769.00
1471, 770.00
1472, 771.00
1473, 771.00
1474, 771.00
1475, 772.00
1476, 772.00
1477, 773.00
1478, 774.00
1479, 774.00
1480, 775.00
1481, 775.00
1482, 776.00
1483, 776.00
1484, 776.00
1485, 777.00
1486, 777.00
1487, 778.00
1488, 779.00
1489, 779.00
1490, 779.00
1491, 781.00
1492, 781.00
1493, 781.00
1494, 783.00
1495, 783.00
1496, 784.00
1497, 784.00
1498, 784.00
1499, 785.00
1500, 786.00
1501, 786.00
1502, 786.00
1503, 787.00
1504, 788.00
1505, 788.00
1506, 789.00
1507, 790.00
1508, 790.00
1509, 791.00
1510, 791.00
1511, 791.00
1512, 792.00
1513, 793.00
1514, 793.00
1515, 793.00
1516, 794.00
1517, 795.00
1518, 796.00
1519, 796.00
1520, 797.00
1521, 797.00
1522, 799.00
1523, 799.00
1524, 800.00
1525, 800.00
1526, 800.00
1527, 802.00
1528, 802.00
1529, 803.00
1530, 804.00
1531, 805.00
1532, 805.00
1533, 806.00
1534, 806.00
1535, 807.00
1536, 807.00
1537, 809.00
1538, 809.00
1539, 810.00
1540, 810.00
1541, 811.00
1542, 811.00
1543, 813.00
1544, 813.00
1545, 814.00
1546, 814.00
1547, 815.00
1548, 815.00
1549, 816.00
1550, 817.00
1551, 818.00
1552, 818.00
1553, 819.00
1554, 819.00
1555, 819.00
1556, 821.00
1557, 821.00
1558, 822.00
1559, 823.00
1560, 823.00
1561, 825.00
1562, 824.00
1563, 825.00
1564, 827.00
1565, 826.00
1566, 827.00
1567, 828.00
1568, 828.00
1569, 829.00
1570, 829.00
1571, 831.00
1572, 830.00
1573, 832.00
1574, 834.00
1575, 834.00
1576, 834.00
1577, 834.00
1578, 834.00
1579, 836.00
1580, 836.00
1581, 836.00
1582, 837.00
1583, 838.00
1584, 839.00
1585, 839.00
1586, 840.00
1587, 840.00
1588, 840.00
1589, 842.00
1590, 843.00
1591, 843.00
1592, 844.00
1593, 845.00
1594, 845.00
1595, 846.00
1596, 845.00
1597, 846.00
1598, 847.00
1599, 848.00
1600, 849.00
1601, 849.00
1602, 851.00
1603, 851.00
1604, 851.00
1605, 852.00
1606, 853.00
1607, 854.00
1608, 853.00
1609, 856.00
1610, 855.00
1611, 857.00
1612, 857.00
1613, 858.00
1614, 859.00
1615, 860.00
1616, 861.00
1617, 862.00
1618, 863.00
1619, 863.00
1620, 864.00
1621, 865.00
1622, 866.00
1623, 866.00
1624, 867.00
1625, 868.00
1626, 869.00
1627, 870.00
1628, 870.00
1629, 871.00
1630, 872.00
1631, 872.00
1632, 873.00
1633, 873.00
1634, 874.00
1635, 875.00
1636, 875.00
1637, 876.00
1638, 877.00
1639, 877.00
1640, 878.00
1641, 878.00
1642, 879.00
1643, 879.00
1644, 880.00
1645, 880.00
1646, 881.00
1647, 882.00
1648, 882.00
1649, 882.00
1650, 883.00

1750, 1203.00
1751, 1205.00
1752, 1204.00
1753, 1203.00
1754, 1203.00
1755, 1203.00
1756, 1205.00
1757, 1202.00
1758, 1203.00
1759, 1204.00
1760, 1202.00
1761, 1202.00
1762, 1202.00
1763, 1202.00
1764, 1204.00
1765, 1205.00
1766, 1203.00
1767, 1201.00
1768, 1202.00
1769, 1203.00
1770, 1202.00
1771, 1203.00
1772, 1203.00
1773, 1201.00
1774, 1203.00
1775, 1202.00
1776, 1200.00
1777, 1201.00
1778, 1203.00
1779, 1200.00
1780, 1200.00
1781, 1199.00
1782, 1200.00
1783, 1200.00
1784, 1198.00
1785, 1199.00
1786, 1198.00
1787, 1198.00
1788, 1199.00
1789, 1199.00
1790, 1199.00
1791, 1198.00
1792, 1198.00
1793, 1197.00
1794, 1195.00
1795, 1198.00
1796, 1196.00
1797, 1197.00
1798, 1197.00
1799, 1194.00
1800, 1194.00
1801, 1196.00
1802, 1195.00
1803, 1195.00
1804, 1195.00
1805, 1194.00
1806, 1194.00
1807, 1192.00
1808, 1192.00
1809, 1191.00
1810, 1193.00
1811, 1191.00
1812, 1193.00
1813, 1192.00
1814, 1192.00
1815, 1192.00
1816, 1191.00
1817, 1193.00
1818, 1191.00
1819, 1191.00
1820, 1190.00
1821, 1189.00
1822, 1189.00
1823, 1188.00
1824, 1186.00
1825, 1190.00
1826, 1187.00
1827, 1189.00
1828, 1185.00
1829, 1185.00
1830, 1184.00
1831, 1182.00
1832, 1182.00
1833, 1182.00
1834, 1178.00
1835, 1179.00
1836, 1180.00
1837, 1177.00
1838, 1176.00
1839, 1174.00
1840, 1173.00
1841, 1173.00
1842, 1173.00
1843, 1172.00
1844, 1170.00
1845, 1167.00
1846, 1168.00
1847, 1168.00
1848, 1165.00
1849, 1164.00
1850, 1162.00
1851, 1161.00
1852, 1160.00
1853, 1159.00
1854, 1159.00
1855, 1158.00
1856, 1153.00
1857, 1156.00
1858, 1153.00
1859, 1152.00
1860, 1152.00
1861, 1148.00
1862, 1149.00
1863, 1148.00
1864, 1148.00
1865, 1146.00
1866, 1145.00
1867, 1144.00
1868, 1144.00
1869, 1142.00
1870, 1142.00
1871, 1141.00
1872, 1140.00
1873, 1142.00
1874, 1138.00
1875, 1139.00
1876, 1137.00
1877, 1137.00
1878, 1137.00
1879, 1136.00
1880, 1137.00
1881, 1136.00
1882, 1135.00
1883, 1136.00
1884, 1138.00
1885, 1134.00
1886, 1136.00
1887, 1132.00
1888, 1133.00
1889, 1133.00
1890, 1134.00
1891, 1132.00
1892, 1134.00
1893, 1132.00
1894, 1132.00
1895, 1131.00
1896, 1132.00
1897, 1131.00
1898, 1130.00
1899, 1131.00
1900, 1129.00
1901, 1130.00
1902, 1132.00
1903, 1131.00
1904, 1131.00
1905, 1131.00
1906, 1130.00
1907, 1129.00
1908, 1130.00
1909, 1130.00
1910, 1129.00
1911, 1131.00
1912, 1129.00
1913, 1129.00
1914, 1130.00
1915, 1128.00
1916, 1130.00
1917, 1128.00
1918, 1129.00
1919, 1129.00
1920, 1127.00
1921, 1128.00
1922, 1128.00
1923, 1128.00
1924, 1129.00
1925, 1128.00
1926, 1127.00
1927, 1128.00
1928, 1129.00
1929, 1127.00
1930, 1126.00
1931, 1127.00
1932, 1129.00
1933, 1129.00
1934, 1127.00
1935, 1128.00
1936, 1128.00
1937, 1128.00
1938, 1128.00
1939, 1129.00
1940, 1128.00
1941, 1128.00
1942, 1128.00
1943, 1130.00
1944, 1131.00
1945, 1132.00
1946, 1129.00
1947, 1130.00
1948, 1130.00
1949, 1130.00
1950, 1130.00
1951, 1130.00
1952, 1132.00
1953, 1132.00
1954, 1133.00
1955, 1131.00
1956, 1130.00
1957, 1131.00
1958, 1132.00
1959, 1132.00
1960, 1132.00
1961, 1131.00
1962, 1132.00
1963, 1132.00
1964, 1133.00
1965, 1133.00
1966, 1133.00
1967, 1135.00
1968, 1133.00
1969, 1135.00
1970, 1133.00
1971, 1136.00
1972, 1136.00
1973, 1136.00
1974, 1136.00
1975, 1137.00
1976, 1137.00
1977, 1138.00
1978, 1136.00
1979, 1136.00
1980, 1137.00
1981, 1139.00
1982, 1137.00
1983, 1139.00
1984, 1139.00
1985, 1138.00
1986, 1140.00
1987, 1141.00
1988, 1142.00
1989, 1140.00
1990, 1139.00
1991, 1141.00
1992, 1141.00
1993, 1141.00
1994, 1142.00
1995, 1141.00
1996, 1143.00
1997, 1140.00
1998, 1142.00
1999, 1142.00
2000, 1143.00
2001, 1144.00
2002, 1143.00
2003, 1144.00
2004, 1145.00
2005, 1144.00
2006, 1145.00
2007, 1144.00
2008, 1146.00
2009, 1147.00
2010, 1146.00
2011, 1146.00
2012, 1148.00
2013, 1148.00
2014, 1147.00
2015, 1146.00
2016, 1147.00
2017, 1147.00
2018, 1147.00
2019, 1147.00
2020, 1149.00
2021, 1147.00
2022, 1149.00
2023, 1150.00
2024, 1150.00
2025, 1152.00
2026, 1150.00
2027, 1152.00
2028, 1150.00
2029, 1151.00
2030, 1151.00
2031, 1152.00
2032, 1154.00
2033, 1153.00
2034, 1153.00
2035, 1154.00
2036, 1153.00
2037, 1155.00
2038, 1154.00
2039, 1157.00
2040, 1155.00
2041, 1156.00
2042, 1155.00
2043, 1157.00
2044, 1156.00
2045, 1157.00
2046, 1157.00
2047, 1159.00
2048, 1160.00
2049, 1161.00
2050, 1160.00
2051, 1160.00
2052, 1159.00
2053, 1161.00
2054, 1162.00
2055, 1162.00
2056, 1161.00
2057, 1162.00
2058, 1164.00
2059, 1165.00
2060, 1166.00
2061, 1166.00
2062, 1165.00
2063, 1167.00
2064, 1167.00
2065, 1166.00
2066, 1167.00
2067, 1168.00
2068, 1167.00
2069, 1168.00
2070, 1169.00
2071, 1169.00
2072, 1172.00
2073, 1170.00
2074, 1169.00
2075, 1171.00
2076, 1173.00
2077, 1172.00
2078, 1173.00
2079, 1173.00
2080, 1173.00
2081, 1175.00
2082, 1174.00
2083, 1175.00
2084, 1173.00
2085, 1175.00
2086, 1176.00
2087, 1176.00
2088, 1178.00
2089, 1177.00
2090, 1178.00
2091, 1176.00
2092, 1178.00
2093, 1179.00
2094, 1177.00
2095, 1178.00
2096, 1179.00
2097, 1180.00
2098, 1180.00
2099, 1181.00
2100, 1179.00
2101, 1180.00
2102, 1182.00
2103, 1180.00
2104, 1180.00
2105, 1182.00
2106, 1181.00
2107, 1181.00
2108, 1182.00
2109, 1186.00
2110, 1183.00
2111, 1185.00
2112, 1183.00
2113, 1185.00
2114, 1185.00
2115, 1184.00
2116, 1184.00
2117, 1185.00
2118, 1185.00
2119, 1186.00
2120, 1187.00
2121, 1186.00
2122, 1186.00
2123, 1186.00
2124, 1187.00
2125, 1186.00
2126, 1185.00
2127, 1186.00
2128, 1187.00
2129, 1188.00
2130, 1187.00
2131, 1188.00
2132, 1187.00
2133, 1189.00
2134, 1190.00
2135, 1188.00
2136, 1187.00
2137, 1189.00
2138, 1189.00
2139, 1188.00
2140, 1190.00
2141, 1190.00
2142, 1190.00
2143, 1191.00
2144, 1190.00
2145, 1191.00
2146, 1192.00
2147, 1192.00
2148, 1191.00
2149, 1191.00
2150, 1190.00
