FW version: 24
Log Version: 3.0.3

General Info:
       Command/Macro Performed,            Timestamp,             Device ID, COM Port, UART/I2C, Test Name, Host Major, Host Minor, Host Revision, Host Git Commit
            Single_measurement,  2023_07_11_10_49_12,       Insight2_F4_xxx,    USB-C,      USB,          ,          0,          1,             1,      4031237645

Show Spectrometer Status:
l0_version, f4_version, battery_perc, battery_mVolt, accelerometer_temp, accelerometer_x, accelerometer_y, accelerometer_z, compass_temp, compass_x, compass_y, compass_z, lamp_0, lamp_1, gain_0, gain_1
        17,         24,           49,          1908,               6176,           65336,             852,           18720,            0,     65404,     65365,     18799,   2866,   2866,      1,      1

Temperature Statistic Info:
NTC AVG [°C], NTC2 AVG [°C]
      38.710,        38.391

Statistic Info:
M1:  num,      min,      max,   median,      AVG,      STD,M2:  num,      min,      max,   median,      AVG,      STD
     301,  1474.00,  1704.00,  1521.00,  1549.58,  71.4403,     401,  1999.00,  2136.00,  2056.00,  2059.71,  44.7667,

Measurements:
Wavelength, Data Amplitude
1350, 1515.00
1351, 1515.00
1352, 1513.00
1353, 1514.00
1354, 1512.00
1355, 1512.00
1356, 1511.00
1357, 1510.00
1358, 1509.00
1359, 1508.00
1360, 1508.00
1361, 1506.00
1362, 1505.00
1363, 1504.00
1364, 1502.00
1365, 1503.00
1366, 1501.00
1367, 1501.00
1368, 1498.00
1369, 1497.00
1370, 1496.00
1371, 1496.00
1372, 1495.00
1373, 1493.00
1374, 1492.00
1375, 1491.00
1376, 1489.00
1377, 1489.00
1378, 1488.00
1379, 1489.00
1380, 1487.00
1381, 1486.00
1382, 1485.00
1383, 1485.00
1384, 1484.00
1385, 1483.00
1386, 1482.00
1387, 1482.00
1388, 1481.00
1389, 1482.00
1390, 1480.00
1391, 1480.00
1392, 1480.00
1393, 1479.00
1394, 1479.00
1395, 1478.00
1396, 1478.00
1397, 1478.00
1398, 1478.00
1399, 1477.00
1400, 1477.00
1401, 1476.00
1402, 1477.00
1403, 1477.00
1404, 1478.00
1405, 1477.00
1406, 1476.00
1407, 1477.00
1408, 1476.00
1409, 1475.00
1410, 1475.00
1411, 1475.00
1412, 1475.00
1413, 1475.00
1414, 1475.00
1415, 1476.00
1416, 1474.00
1417, 1474.00
1418, 1474.00
1419, 1474.00
1420, 1475.00
1421, 1476.00
1422, 1474.00
1423, 1475.00
1424, 1475.00
1425, 1475.00
1426, 1475.00
1427, 1475.00
1428, 1474.00
1429, 1476.00
1430, 1476.00
1431, 1475.00
1432, 1476.00
1433, 1477.00
1434, 1477.00
1435, 1477.00
1436, 1477.00
1437, 1478.00
1438, 1478.00
1439, 1478.00
1440, 1478.00
1441, 1478.00
1442, 1480.00
1443, 1480.00
1444, 1480.00
1445, 1479.00
1446, 1481.00
1447, 1481.00
1448, 1482.00
1449, 1482.00
1450, 1483.00
1451, 1483.00
1452, 1484.00
1453, 1484.00
1454, 1484.00
1455, 1484.00
1456, 1485.00
1457, 1486.00
1458, 1487.00
1459, 1487.00
1460, 1488.00
1461, 1488.00
1462, 1489.00
1463, 1490.00
1464, 1491.00
1465, 1491.00
1466, 1491.00
1467, 1492.00
1468, 1493.00
1469, 1493.00
1470, 1495.00
1471, 1496.00
1472, 1497.00
1473, 1497.00
1474, 1499.00
1475, 1499.00
1476, 1499.00
1477, 1501.00
1478, 1501.00
1479, 1501.00
1480, 1503.00
1481, 1503.00
1482, 1505.00
1483, 1505.00
1484, 1506.00
1485, 1506.00
1486, 1507.00
1487, 1508.00
1488, 1510.00
1489, 1510.00
1490, 1511.00
1491, 1513.00
1492, 1513.00
1493, 1515.00
1494, 1516.00
1495, 1517.00
1496, 1517.00
1497, 1518.00
1498, 1519.00
1499, 1520.00
1500, 1521.00
1501, 1521.00
1502, 1523.00
1503, 1524.00
1504, 1525.00
1505, 1526.00
1506, 1527.00
1507, 1528.00
1508, 1530.00
1509, 1529.00
1510, 1530.00
1511, 1532.00
1512, 1533.00
1513, 1534.00
1514, 1535.00
1515, 1536.00
1516, 1537.00
1517, 1539.00
1518, 1541.00
1519, 1541.00
1520, 1542.00
1521, 1542.00
1522, 1545.00
1523, 1545.00
1524, 1546.00
1525, 1548.00
1526, 1549.00
1527, 1550.00
1528, 1551.00
1529, 1552.00
1530, 1553.00
1531, 1554.00
1532, 1556.00
1533, 1556.00
1534, 1557.00
1535, 1558.00
1536, 1561.00
1537, 1562.00
1538, 1561.00
1539, 1563.00
1540, 1566.00
1541, 1567.00
1542, 1568.00
1543, 1569.00
1544, 1569.00
1545, 1570.00
1546, 1571.00
1547, 1573.00
1548, 1574.00
1549, 1576.00
1550, 1576.00
1551, 1577.00
1552, 1579.00
1553, 1579.00
1554, 1581.00
1555, 1584.00
1556, 1583.00
1557, 1585.00
1558, 1587.00
1559, 1587.00
1560, 1589.00
1561, 1590.00
1562, 1592.00
1563, 1593.00
1564, 1594.00
1565, 1596.00
1566, 1597.00
1567, 1598.00
1568, 1601.00
1569, 1601.00
1570, 1601.00
1571, 1604.00
1572, 1605.00
1573, 1606.00
1574, 1607.00
1575, 1608.00
1576, 1610.00
1577, 1611.00
1578, 1612.00
1579, 1613.00
1580, 1614.00
1581, 1615.00
1582, 1617.00
1583, 1617.00
1584, 1618.00
1585, 1621.00
1586, 1621.00
1587, 1622.00
1588, 1624.00
1589, 1624.00
1590, 1626.00
1591, 1627.00
1592, 1628.00
1593, 1629.00
1594, 1630.00
1595, 1631.00
1596, 1633.00
1597, 1634.00
1598, 1635.00
1599, 1636.00
1600, 1637.00
1601, 1637.00
1602, 1639.00
1603, 1640.00
1604, 1643.00
1605, 1645.00
1606, 1644.00
1607, 1646.00
1608, 1649.00
1609, 1649.00
1610, 1651.00
1611, 1652.00
1612, 1653.00
1613, 1655.00
1614, 1655.00
1615, 1658.00
1616, 1659.00
1617, 1661.00
1618, 1661.00
1619, 1664.00
1620, 1664.00
1621, 1667.00
1622, 1668.00
1623, 1669.00
1624, 1670.00
1625, 1671.00
1626, 1673.00
1627, 1675.00
1628, 1677.00
1629, 1677.00
1630, 1679.00
1631, 1680.00
1632, 1682.00
1633, 1683.00
1634, 1684.00
1635, 1686.00
1636, 1687.00
1637, 1689.00
1638, 1688.00
1639, 1690.00
1640, 1692.00
1641, 1693.00
1642, 1694.00
1643, 1695.00
1644, 1696.00
1645, 1697.00
1646, 1698.00
1647, 1700.00
1648, 1701.00
1649, 1703.00
1650, 1704.00

1750, 2134.00
1751, 2135.00
1752, 2136.00
1753, 2136.00
1754, 2135.00
1755, 2135.00
1756, 2136.00
1757, 2134.00
1758, 2136.00
1759, 2135.00
1760, 2134.00
1761, 2135.00
1762, 2135.00
1763, 2133.00
1764, 2134.00
1765, 2133.00
1766, 2135.00
1767, 2133.00
1768, 2133.00
1769, 2133.00
1770, 2133.00
1771, 2133.00
1772, 2131.00
1773, 2133.00
1774, 2131.00
1775, 2131.00
1776, 2131.00
1777, 2130.00
1778, 2129.00
1779, 2130.00
1780, 2129.00
1781, 2129.00
1782, 2129.00
1783, 2129.00
1784, 2128.00
1785, 2126.00
1786, 2125.00
1787, 2126.00
1788, 2122.00
1789, 2125.00
1790, 2125.00
1791, 2125.00
1792, 2124.00
1793, 2123.00
1794, 2121.00
1795, 2124.00
1796, 2122.00
1797, 2120.00
1798, 2122.00
1799, 2121.00
1800, 2119.00
1801, 2121.00
1802, 2119.00
1803, 2118.00
1804, 2118.00
1805, 2116.00
1806, 2117.00
1807, 2116.00
1808, 2117.00
1809, 2116.00
1810, 2114.00
1811, 2116.00
1812, 2114.00
1813, 2115.00
1814, 2113.00
1815, 2112.00
1816, 2113.00
1817, 2112.00
1818, 2111.00
1819, 2109.00
1820, 2110.00
1821, 2109.00
1822, 2108.00
1823, 2106.00
1824, 2104.00
1825, 2104.00
1826, 2104.00
1827, 2102.00
1828, 2100.00
1829, 2099.00
1830, 2098.00
1831, 2096.00
1832, 2095.00
1833, 2093.00
1834, 2092.00
1835, 2090.00
1836, 2089.00
1837, 2085.00
1838, 2087.00
1839, 2085.00
1840, 2082.00
1841, 2081.00
1842, 2079.00
1843, 2074.00
1844, 2074.00
1845, 2071.00
1846, 2068.00
1847, 2067.00
1848, 2065.00
1849, 2065.00
1850, 2063.00
1851, 2059.00
1852, 2056.00
1853, 2053.00
1854, 2051.00
1855, 2052.00
1856, 2049.00
1857, 2047.00
1858, 2042.00
1859, 2041.00
1860, 2041.00
1861, 2039.00
1862, 2036.00
1863, 2036.00
1864, 2033.00
1865, 2032.00
1866, 2030.00
1867, 2028.00
1868, 2027.00
1869, 2025.00
1870, 2025.00
1871, 2024.00
1872, 2023.00
1873, 2021.00
1874, 2020.00
1875, 2020.00
1876, 2019.00
1877, 2018.00
1878, 2017.00
1879, 2014.00
1880, 2016.00
1881, 2013.00
1882, 2013.00
1883, 2013.00
1884, 2013.00
1885, 2011.00
1886, 2010.00
1887, 2009.00
1888, 2010.00
1889, 2009.00
1890, 2009.00
1891, 2007.00
1892, 2008.00
1893, 2007.00
1894, 2007.00
1895, 2008.00
1896, 2007.00
1897, 2007.00
1898, 2005.00
1899, 2004.00
1900, 2004.00
1901, 2005.00
1902, 2005.00
1903, 2004.00
1904, 2004.00
1905, 2003.00
1906, 2003.00
1907, 2004.00
1908, 2003.00
1909, 2003.00
1910, 2002.00
1911, 2002.00
1912, 2003.00
1913, 2002.00
1914, 2001.00
1915, 2003.00
1916, 2004.00
1917, 2001.00
1918, 2002.00
1919, 2001.00
1920, 2003.00
1921, 2001.00
1922, 1999.00
1923, 2001.00
1924, 2003.00
1925, 2002.00
1926, 2002.00
1927, 2002.00
1928, 2001.00
1929, 2001.00
1930, 2000.00
1931, 2002.00
1932, 2001.00
1933, 2001.00
1934, 2003.00
1935, 2004.00
1936, 2001.00
1937, 2001.00
1938, 2001.00
1939, 2002.00
1940, 2002.00
1941, 2001.00
1942, 2004.00
1943, 2003.00
1944, 2004.00
1945, 2003.00
1946, 2004.00
1947, 2002.00
1948, 2002.00
1949, 2004.00
1950, 2004.00
1951, 2005.00
1952, 2004.00
1953, 2005.00
1954, 2006.00
1955, 2005.00
1956, 2005.00
1957, 2005.00
1958, 2007.00
1959, 2008.00
1960, 2008.00
1961, 2009.00
1962, 2009.00
1963, 2009.00
1964, 2008.00
1965, 2008.00
1966, 2008.00
1967, 2010.00
1968, 2012.00
1969, 2010.00
1970, 2012.00
1971, 2013.00
1972, 2010.00
1973, 2012.00
1974, 2012.00
1975, 2013.00
1976, 2015.00
1977, 2015.00
1978, 2013.00
1979, 2016.00
1980, 2016.00
1981, 2017.00
1982, 2017.00
1983, 2017.00
1984, 2018.00
1985, 2018.00
1986, 2018.00
1987, 2019.00
1988, 2020.00
1989, 2021.00
1990, 2021.00
1991, 2023.00
1992, 2021.00
1993, 2021.00
1994, 2023.00
1995, 2023.00
1996, 2023.00
1997, 2026.00
1998, 2023.00
1999, 2026.00
2000, 2025.00
2001, 2025.00
2002, 2025.00
2003, 2025.00
2004, 2030.00
2005, 2029.00
2006, 2027.00
2007, 2029.00
2008, 2029.00
2009, 2029.00
2010, 2030.00
2011, 2030.00
2012, 2031.00
2013, 2033.00
2014, 2031.00
2015, 2033.00
2016, 2033.00
2017, 2034.00
2018, 2033.00
2019, 2034.00
2020, 2035.00
2021, 2034.00
2022, 2036.00
2023, 2037.00
2024, 2035.00
2025, 2037.00
2026, 2037.00
2027, 2039.00
2028, 2038.00
2029, 2041.00
2030, 2039.00
2031, 2042.00
2032, 2042.00
2033, 2041.00
2034, 2041.00
2035, 2043.00
2036, 2043.00
2037, 2045.00
2038, 2046.00
2039, 2046.00
2040, 2045.00
2041, 2048.00
2042, 2047.00
2043, 2047.00
2044, 2050.00
2045, 2050.00
2046, 2051.00
2047, 2051.00
2048, 2052.00
2049, 2052.00
2050, 2054.00
2051, 2055.00
2052, 2057.00
2053, 2056.00
2054, 2056.00
2055, 2057.00
2056, 2060.00
2057, 2060.00
2058, 2060.00
2059, 2060.00
2060, 2064.00
2061, 2064.00
2062, 2063.00
2063, 2063.00
2064, 2065.00
2065, 2065.00
2066, 2064.00
2067, 2067.00
2068, 2068.00
2069, 2069.00
2070, 2069.00
2071, 2073.00
2072, 2072.00
2073, 2070.00
2074, 2070.00
2075, 2072.00
2076, 2073.00
2077, 2074.00
2078, 2077.00
2079, 2075.00
2080, 2076.00
2081, 2077.00
2082, 2077.00
2083, 2078.00
2084, 2080.00
2085, 2078.00
2086, 2080.00
2087, 2080.00
2088, 2083.00
2089, 2081.00
2090, 2083.00
2091, 2081.00
2092, 2083.00
2093, 2083.00
2094, 2085.00
2095, 2085.00
2096, 2087.00
2097, 2087.00
2098, 2089.00
2099, 2087.00
2100, 2089.00
2101, 2090.00
2102, 2089.00
2103, 2090.00
2104, 2089.00
2105, 2089.00
2106, 2091.00
2107, 2092.00
2108, 2092.00
2109, 2094.00
2110, 2092.00
2111, 2093.00
2112, 2093.00
2113, 2093.00
2114, 2094.00
2115, 2093.00
2116, 2094.00
2117, 2095.00
2118, 2094.00
2119, 2095.00
2120, 2096.00
2121, 2097.00
2122, 2095.00
2123, 2096.00
2124, 2096.00
2125, 2097.00
2126, 2098.00
2127, 2098.00
2128, 2098.00
2129, 2098.00
2130, 2099.00
2131, 2097.00
2132, 2099.00
2133, 2098.00
2134, 2101.00
2135, 2101.00
2136, 2099.00
2137, 2102.00
2138, 2103.00
2139, 2103.00
2140, 2102.00
2141, 2103.00
2142, 2101.00
2143, 2104.00
2144, 2103.00
2145, 2104.00
2146, 2104.00
2147, 2104.00
2148, 2104.00
2149, 2103.00
2150, 2104.00
