FW version: 24
Log Version: 3.0.3

General Info:
       Command/Macro Performed,            Timestamp,             Device ID, COM Port, UART/I2C, Test Name, Host Major, Host Minor, Host Revision, Host Git Commit
            Single_measurement,  2023_07_11_10_49_40,       Insight2_F4_xxx,    USB-C,      USB,          ,          0,          1,             1,      4031237645

Show Spectrometer Status:
l0_version, f4_version, battery_perc, battery_mVolt, accelerometer_temp, accelerometer_x, accelerometer_y, accelerometer_z, compass_temp, compass_x, compass_y, compass_z, lamp_0, lamp_1, gain_0, gain_1
        17,         24,           49,          1914,               6208,           65332,             868,           18756,            0,     65343,     65398,     18767,   3276,   3276,      1,      1

Temperature Statistic Info:
NTC AVG [°C], NTC2 AVG [°C]
      38.968,        38.623

Statistic Info:
M1:  num,      min,      max,   median,      AVG,      STD,M2:  num,      min,      max,   median,      AVG,      STD
     301,  1892.00,  2178.00,  1950.00,  1986.42,  88.9820,     401,  2481.00,  2649.00,  2548.00,  2552.94,  54.8711,

Measurements:
Wavelength, Data Amplitude
1350, 1947.00
1351, 1947.00
1352, 1943.00
1353, 1943.00
1354, 1941.00
1355, 1941.00
1356, 1941.00
1357, 1940.00
1358, 1938.00
1359, 1937.00
1360, 1936.00
1361, 1934.00
1362, 1933.00
1363, 1932.00
1364, 1930.00
1365, 1929.00
1366, 1928.00
1367, 1926.00
1368, 1925.00
1369, 1923.00
1370, 1921.00
1371, 1921.00
1372, 1919.00
1373, 1917.00
1374, 1916.00
1375, 1915.00
1376, 1914.00
1377, 1912.00
1378, 1911.00
1379, 1910.00
1380, 1910.00
1381, 1909.00
1382, 1907.00
1383, 1906.00
1384, 1906.00
1385, 1904.00
1386, 1904.00
1387, 1903.00
1388, 1902.00
1389, 1902.00
1390, 1901.00
1391, 1901.00
1392, 1900.00
1393, 1899.00
1394, 1899.00
1395, 1898.00
1396, 1897.00
1397, 1897.00
1398, 1898.00
1399, 1897.00
1400, 1897.00
1401, 1897.00
1402, 1895.00
1403, 1896.00
1404, 1896.00
1405, 1895.00
1406, 1895.00
1407, 1895.00
1408, 1895.00
1409, 1895.00
1410, 1894.00
1411, 1894.00
1412, 1894.00
1413, 1893.00
1414, 1894.00
1415, 1893.00
1416, 1893.00
1417, 1893.00
1418, 1893.00
1419, 1893.00
1420, 1893.00
1421, 1893.00
1422, 1894.00
1423, 1892.00
1424, 1893.00
1425, 1892.00
1426, 1894.00
1427, 1893.00
1428, 1893.00
1429, 1894.00
1430, 1894.00
1431, 1895.00
1432, 1895.00
1433, 1895.00
1434, 1895.00
1435, 1895.00
1436, 1896.00
1437, 1897.00
1438, 1897.00
1439, 1897.00
1440, 1898.00
1441, 1898.00
1442, 1899.00
1443, 1899.00
1444, 1899.00
1445, 1899.00
1446, 1901.00
1447, 1900.00
1448, 1902.00
1449, 1901.00
1450, 1903.00
1451, 1903.00
1452, 1903.00
1453, 1904.00
1454, 1906.00
1455, 1906.00
1456, 1906.00
1457, 1906.00
1458, 1907.00
1459, 1909.00
1460, 1910.00
1461, 1911.00
1462, 1911.00
1463, 1912.00
1464, 1913.00
1465, 1913.00
1466, 1914.00
1467, 1915.00
1468, 1916.00
1469, 1916.00
1470, 1917.00
1471, 1919.00
1472, 1919.00
1473, 1919.00
1474, 1921.00
1475, 1921.00
1476, 1923.00
1477, 1924.00
1478, 1925.00
1479, 1927.00
1480, 1928.00
1481, 1928.00
1482, 1929.00
1483, 1931.00
1484, 1933.00
1485, 1933.00
1486, 1935.00
1487, 1936.00
1488, 1937.00
1489, 1938.00
1490, 1938.00
1491, 1940.00
1492, 1941.00
1493, 1942.00
1494, 1943.00
1495, 1943.00
1496, 1946.00
1497, 1947.00
1498, 1949.00
1499, 1948.00
1500, 1950.00
1501, 1952.00
1502, 1953.00
1503, 1954.00
1504, 1954.00
1505, 1956.00
1506, 1956.00
1507, 1958.00
1508, 1959.00
1509, 1961.00
1510, 1963.00
1511, 1963.00
1512, 1966.00
1513, 1967.00
1514, 1968.00
1515, 1968.00
1516, 1970.00
1517, 1972.00
1518, 1973.00
1519, 1973.00
1520, 1975.00
1521, 1977.00
1522, 1979.00
1523, 1980.00
1524, 1980.00
1525, 1983.00
1526, 1984.00
1527, 1985.00
1528, 1987.00
1529, 1989.00
1530, 1990.00
1531, 1991.00
1532, 1992.00
1533, 1994.00
1534, 1997.00
1535, 1997.00
1536, 1999.00
1537, 2000.00
1538, 2000.00
1539, 2003.00
1540, 2004.00
1541, 2005.00
1542, 2007.00
1543, 2010.00
1544, 2011.00
1545, 2012.00
1546, 2013.00
1547, 2014.00
1548, 2016.00
1549, 2018.00
1550, 2019.00
1551, 2020.00
1552, 2023.00
1553, 2024.00
1554, 2025.00
1555, 2027.00
1556, 2027.00
1557, 2031.00
1558, 2032.00
1559, 2034.00
1560, 2035.00
1561, 2037.00
1562, 2038.00
1563, 2040.00
1564, 2041.00
1565, 2043.00
1566, 2045.00
1567, 2047.00
1568, 2048.00
1569, 2049.00
1570, 2052.00
1571, 2053.00
1572, 2055.00
1573, 2057.00
1574, 2059.00
1575, 2060.00
1576, 2061.00
1577, 2062.00
1578, 2064.00
1579, 2066.00
1580, 2068.00
1581, 2068.00
1582, 2070.00
1583, 2070.00
1584, 2072.00
1585, 2075.00
1586, 2075.00
1587, 2076.00
1588, 2079.00
1589, 2080.00
1590, 2081.00
1591, 2084.00
1592, 2084.00
1593, 2086.00
1594, 2086.00
1595, 2089.00
1596, 2090.00
1597, 2091.00
1598, 2093.00
1599, 2094.00
1600, 2097.00
1601, 2098.00
1602, 2099.00
1603, 2100.00
1604, 2102.00
1605, 2104.00
1606, 2105.00
1607, 2106.00
1608, 2108.00
1609, 2111.00
1610, 2112.00
1611, 2115.00
1612, 2117.00
1613, 2118.00
1614, 2120.00
1615, 2120.00
1616, 2124.00
1617, 2125.00
1618, 2127.00
1619, 2129.00
1620, 2130.00
1621, 2132.00
1622, 2134.00
1623, 2136.00
1624, 2137.00
1625, 2140.00
1626, 2141.00
1627, 2143.00
1628, 2145.00
1629, 2147.00
1630, 2149.00
1631, 2149.00
1632, 2152.00
1633, 2153.00
1634, 2155.00
1635, 2156.00
1636, 2157.00
1637, 2158.00
1638, 2160.00
1639, 2163.00
1640, 2163.00
1641, 2163.00
1642, 2167.00
1643, 2167.00
1644, 2170.00
1645, 2171.00
1646, 2172.00
1647, 2174.00
1648, 2176.00
1649, 2176.00
1650, 2178.00

1750, 2647.00
1751, 2646.00
1752, 2649.00
1753, 2646.00
1754, 2647.00
1755, 2647.00
1756, 2647.00
1757, 2648.00
1758, 2647.00
1759, 2647.00
1760, 2648.00
1761, 2645.00
1762, 2647.00
1763, 2647.00
1764, 2645.00
1765, 2645.00
1766, 2646.00
1767, 2647.00
1768, 2645.00
1769, 2644.00
1770, 2643.00
1771, 2643.00
1772, 2643.00
1773, 2643.00
1774, 2642.00
1775, 2642.00
1776, 2641.00
1777, 2642.00
1778, 2639.00
1779, 2639.00
1780, 2640.00
1781, 2639.00
1782, 2639.00
1783, 2638.00
1784, 2639.00
1785, 2637.00
1786, 2636.00
1787, 2635.00
1788, 2635.00
1789, 2633.00
1790, 2633.00
1791, 2634.00
1792, 2632.00
1793, 2632.00
1794, 2631.00
1795, 2632.00
1796, 2630.00
1797, 2631.00
1798, 2629.00
1799, 2628.00
1800, 2629.00
1801, 2627.00
1802, 2626.00
1803, 2626.00
1804, 2626.00
1805, 2625.00
1806, 2624.00
1807, 2624.00
1808, 2625.00
1809, 2624.00
1810, 2621.00
1811, 2621.00
1812, 2621.00
1813, 2619.00
1814, 2620.00
1815, 2621.00
1816, 2619.00
1817, 2618.00
1818, 2617.00
1819, 2615.00
1820, 2612.00
1821, 2613.00
1822, 2611.00
1823, 2608.00
1824, 2609.00
1825, 2608.00
1826, 2605.00
1827, 2605.00
1828, 2604.00
1829, 2602.00
1830, 2600.00
1831, 2599.00
1832, 2599.00
1833, 2594.00
1834, 2592.00
1835, 2592.00
1836, 2591.00
1837, 2585.00
1838, 2585.00
1839, 2581.00
1840, 2579.00
1841, 2577.00
1842, 2576.00
1843, 2571.00
1844, 2569.00
1845, 2568.00
1846, 2565.00
1847, 2563.00
1848, 2561.00
1849, 2555.00
1850, 2554.00
1851, 2551.00
1852, 2548.00
1853, 2548.00
1854, 2543.00
1855, 2541.00
1856, 2539.00
1857, 2537.00
1858, 2533.00
1859, 2531.00
1860, 2530.00
1861, 2529.00
1862, 2525.00
1863, 2524.00
1864, 2523.00
1865, 2519.00
1866, 2517.00
1867, 2513.00
1868, 2515.00
1869, 2513.00
1870, 2511.00
1871, 2509.00
1872, 2507.00
1873, 2507.00
1874, 2505.00
1875, 2504.00
1876, 2503.00
1877, 2501.00
1878, 2502.00
1879, 2499.00
1880, 2497.00
1881, 2497.00
1882, 2496.00
1883, 2495.00
1884, 2496.00
1885, 2493.00
1886, 2493.00
1887, 2493.00
1888, 2493.00
1889, 2492.00
1890, 2490.00
1891, 2491.00
1892, 2489.00
1893, 2489.00
1894, 2487.00
1895, 2488.00
1896, 2487.00
1897, 2489.00
1898, 2487.00
1899, 2487.00
1900, 2487.00
1901, 2485.00
1902, 2485.00
1903, 2486.00
1904, 2484.00
1905, 2485.00
1906, 2484.00
1907, 2484.00
1908, 2485.00
1909, 2483.00
1910, 2485.00
1911, 2483.00
1912, 2483.00
1913, 2482.00
1914, 2481.00
1915, 2481.00
1916, 2482.00
1917, 2483.00
1918, 2483.00
1919, 2483.00
1920, 2482.00
1921, 2482.00
1922, 2483.00
1923, 2482.00
1924, 2482.00
1925, 2482.00
1926, 2481.00
1927, 2481.00
1928, 2482.00
1929, 2483.00
1930, 2481.00
1931, 2483.00
1932, 2481.00
1933, 2481.00
1934, 2481.00
1935, 2482.00
1936, 2483.00
1937, 2484.00
1938, 2484.00
1939, 2482.00
1940, 2484.00
1941, 2481.00
1942, 2482.00
1943, 2484.00
1944, 2485.00
1945, 2485.00
1946, 2483.00
1947, 2485.00
1948, 2485.00
1949, 2485.00
1950, 2483.00
1951, 2484.00
1952, 2485.00
1953, 2486.00
1954, 2487.00
1955, 2487.00
1956, 2487.00
1957, 2487.00
1958, 2488.00
1959, 2490.00
1960, 2488.00
1961, 2490.00
1962, 2491.00
1963, 2491.00
1964, 2492.00
1965, 2490.00
1966, 2494.00
1967, 2493.00
1968, 2493.00
1969, 2493.00
1970, 2494.00
1971, 2493.00
1972, 2494.00
1973, 2495.00
1974, 2498.00
1975, 2495.00
1976, 2498.00
1977, 2499.00
1978, 2498.00
1979, 2498.00
1980, 2501.00
1981, 2501.00
1982, 2500.00
1983, 2501.00
1984, 2502.00
1985, 2503.00
1986, 2502.00
1987, 2504.00
1988, 2505.00
1989, 2505.00
1990, 2504.00
1991, 2505.00
1992, 2505.00
1993, 2506.00
1994, 2508.00
1995, 2508.00
1996, 2511.00
1997, 2510.00
1998, 2509.00
1999, 2509.00
2000, 2510.00
2001, 2514.00
2002, 2513.00
2003, 2513.00
2004, 2515.00
2005, 2512.00
2006, 2515.00
2007, 2516.00
2008, 2515.00
2009, 2517.00
2010, 2519.00
2011, 2517.00
2012, 2517.00
2013, 2519.00
2014, 2519.00
2015, 2519.00
2016, 2520.00
2017, 2520.00
2018, 2522.00
2019, 2522.00
2020, 2521.00
2021, 2524.00
2022, 2522.00
2023, 2523.00
2024, 2527.00
2025, 2525.00
2026, 2525.00
2027, 2527.00
2028, 2528.00
2029, 2528.00
2030, 2529.00
2031, 2529.00
2032, 2531.00
2033, 2533.00
2034, 2532.00
2035, 2531.00
2036, 2533.00
2037, 2534.00
2038, 2535.00
2039, 2537.00
2040, 2537.00
2041, 2537.00
2042, 2538.00
2043, 2536.00
2044, 2539.00
2045, 2543.00
2046, 2539.00
2047, 2543.00
2048, 2543.00
2049, 2543.00
2050, 2543.00
2051, 2546.00
2052, 2547.00
2053, 2547.00
2054, 2548.00
2055, 2550.00
2056, 2551.00
2057, 2551.00
2058, 2551.00
2059, 2552.00
2060, 2556.00
2061, 2555.00
2062, 2558.00
2063, 2556.00
2064, 2557.00
2065, 2557.00
2066, 2560.00
2067, 2559.00
2068, 2563.00
2069, 2562.00
2070, 2563.00
2071, 2564.00
2072, 2566.00
2073, 2566.00
2074, 2567.00
2075, 2568.00
2076, 2569.00
2077, 2570.00
2078, 2569.00
2079, 2571.00
2080, 2573.00
2081, 2574.00
2082, 2573.00
2083, 2575.00
2084, 2575.00
2085, 2578.00
2086, 2576.00
2087, 2579.00
2088, 2579.00
2089, 2579.00
2090, 2579.00
2091, 2580.00
2092, 2583.00
2093, 2581.00
2094, 2582.00
2095, 2581.00
2096, 2585.00
2097, 2583.00
2098, 2585.00
2099, 2584.00
2100, 2587.00
2101, 2586.00
2102, 2585.00
2103, 2587.00
2104, 2587.00
2105, 2589.00
2106, 2588.00
2107, 2589.00
2108, 2590.00
2109, 2590.00
2110, 2593.00
2111, 2590.00
2112, 2592.00
2113, 2592.00
2114, 2594.00
2115, 2593.00
2116, 2592.00
2117, 2594.00
2118, 2596.00
2119, 2595.00
2120, 2594.00
2121, 2595.00
2122, 2596.00
2123, 2597.00
2124, 2596.00
2125, 2598.00
2126, 2597.00
2127, 2597.00
2128, 2599.00
2129, 2599.00
2130, 2599.00
2131, 2601.00
2132, 2599.00
2133, 2601.00
2134, 2600.00
2135, 2601.00
2136, 2601.00
2137, 2601.00
2138, 2603.00
2139, 2603.00
2140, 2604.00
2141, 2604.00
2142, 2603.00
2143, 2603.00
2144, 2605.00
2145, 2605.00
2146, 2603.00
2147, 2606.00
2148, 2605.00
2149, 2604.00
2150, 2606.00
