FW version: 24
Log Version: 3.0.3

General Info:
       Command/Macro Performed,            Timestamp,             Device ID, COM Port, UART/I2C, Test Name, Host Major, Host Minor, Host Revision, Host Git Commit
            Single_measurement,  2023_06_29_11_43_34,       Insight2_F4_xxx,    USB-C,      USB,          ,          0,          1,             1,      4031237645

Show Spectrometer Status:
l0_version, f4_version, battery_perc, battery_mVolt, accelerometer_temp, accelerometer_x, accelerometer_y, accelerometer_z, compass_temp, compass_x, compass_y, compass_z, lamp_0, lamp_1, gain_0, gain_1
        17,         24,           95,          2077,               5888,           65384,               4,           18456,            0,     65384,     65383,     65531,   3276,   3276,      1,      1

Temperature Statistic Info:
NTC AVG [°C], NTC2 AVG [°C]
      37.897,        37.583

Statistic Info:
M1:  num,      min,      max,   median,      AVG,      STD,M2:  num,      min,      max,   median,      AVG,      STD
     301,  2447.00,  2811.00,  2520.00,  2566.56, 113.0278,     401,  3126.00,  3343.00,  3212.00,  3218.80,  70.1907,

Measurements:
Wavelength, Data Amplitude
1350, 2519.00
1351, 2519.00
1352, 2516.00
1353, 2516.00
1354, 2515.00
1355, 2513.00
1356, 2513.00
1357, 2511.00
1358, 2510.00
1359, 2507.00
1360, 2507.00
1361, 2504.00
1362, 2504.00
1363, 2501.00
1364, 2498.00
1365, 2497.00
1366, 2495.00
1367, 2494.00
1368, 2491.00
1369, 2489.00
1370, 2487.00
1371, 2485.00
1372, 2483.00
1373, 2481.00
1374, 2481.00
1375, 2479.00
1376, 2477.00
1377, 2475.00
1378, 2473.00
1379, 2473.00
1380, 2471.00
1381, 2469.00
1382, 2467.00
1383, 2467.00
1384, 2466.00
1385, 2464.00
1386, 2463.00
1387, 2462.00
1388, 2461.00
1389, 2460.00
1390, 2458.00
1391, 2459.00
1392, 2457.00
1393, 2458.00
1394, 2456.00
1395, 2455.00
1396, 2455.00
1397, 2454.00
1398, 2455.00
1399, 2453.00
1400, 2453.00
1401, 2452.00
1402, 2452.00
1403, 2451.00
1404, 2452.00
1405, 2451.00
1406, 2451.00
1407, 2450.00
1408, 2450.00
1409, 2449.00
1410, 2450.00
1411, 2450.00
1412, 2449.00
1413, 2448.00
1414, 2449.00
1415, 2448.00
1416, 2449.00
1417, 2449.00
1418, 2447.00
1419, 2448.00
1420, 2447.00
1421, 2447.00
1422, 2448.00
1423, 2448.00
1424, 2448.00
1425, 2448.00
1426, 2448.00
1427, 2448.00
1428, 2448.00
1429, 2447.00
1430, 2450.00
1431, 2450.00
1432, 2450.00
1433, 2450.00
1434, 2451.00
1435, 2450.00
1436, 2450.00
1437, 2451.00
1438, 2452.00
1439, 2452.00
1440, 2453.00
1441, 2453.00
1442, 2453.00
1443, 2454.00
1444, 2456.00
1445, 2456.00
1446, 2457.00
1447, 2457.00
1448, 2459.00
1449, 2459.00
1450, 2459.00
1451, 2460.00
1452, 2461.00
1453, 2461.00
1454, 2462.00
1455, 2463.00
1456, 2464.00
1457, 2465.00
1458, 2466.00
1459, 2467.00
1460, 2468.00
1461, 2468.00
1462, 2469.00
1463, 2470.00
1464, 2471.00
1465, 2471.00
1466, 2474.00
1467, 2474.00
1468, 2476.00
1469, 2476.00
1470, 2478.00
1471, 2480.00
1472, 2480.00
1473, 2481.00
1474, 2483.00
1475, 2484.00
1476, 2485.00
1477, 2487.00
1478, 2488.00
1479, 2490.00
1480, 2491.00
1481, 2491.00
1482, 2493.00
1483, 2495.00
1484, 2495.00
1485, 2497.00
1486, 2499.00
1487, 2502.00
1488, 2501.00
1489, 2503.00
1490, 2505.00
1491, 2506.00
1492, 2507.00
1493, 2509.00
1494, 2511.00
1495, 2512.00
1496, 2513.00
1497, 2515.00
1498, 2516.00
1499, 2518.00
1500, 2520.00
1501, 2521.00
1502, 2521.00
1503, 2524.00
1504, 2525.00
1505, 2527.00
1506, 2529.00
1507, 2530.00
1508, 2531.00
1509, 2533.00
1510, 2535.00
1511, 2536.00
1512, 2538.00
1513, 2540.00
1514, 2541.00
1515, 2543.00
1516, 2545.00
1517, 2547.00
1518, 2549.00
1519, 2549.00
1520, 2552.00
1521, 2553.00
1522, 2554.00
1523, 2557.00
1524, 2559.00
1525, 2562.00
1526, 2564.00
1527, 2564.00
1528, 2567.00
1529, 2567.00
1530, 2570.00
1531, 2571.00
1532, 2573.00
1533, 2575.00
1534, 2577.00
1535, 2579.00
1536, 2580.00
1537, 2582.00
1538, 2584.00
1539, 2586.00
1540, 2588.00
1541, 2589.00
1542, 2592.00
1543, 2594.00
1544, 2596.00
1545, 2599.00
1546, 2599.00
1547, 2601.00
1548, 2602.00
1549, 2606.00
1550, 2608.00
1551, 2609.00
1552, 2610.00
1553, 2613.00
1554, 2615.00
1555, 2617.00
1556, 2619.00
1557, 2621.00
1558, 2623.00
1559, 2626.00
1560, 2628.00
1561, 2629.00
1562, 2631.00
1563, 2635.00
1564, 2636.00
1565, 2638.00
1566, 2641.00
1567, 2642.00
1568, 2645.00
1569, 2647.00
1570, 2649.00
1571, 2650.00
1572, 2653.00
1573, 2655.00
1574, 2657.00
1575, 2659.00
1576, 2661.00
1577, 2663.00
1578, 2665.00
1579, 2667.00
1580, 2669.00
1581, 2671.00
1582, 2675.00
1583, 2674.00
1584, 2677.00
1585, 2678.00
1586, 2679.00
1587, 2681.00
1588, 2683.00
1589, 2686.00
1590, 2687.00
1591, 2690.00
1592, 2691.00
1593, 2691.00
1594, 2694.00
1595, 2697.00
1596, 2697.00
1597, 2701.00
1598, 2701.00
1599, 2704.00
1600, 2705.00
1601, 2708.00
1602, 2710.00
1603, 2712.00
1604, 2713.00
1605, 2716.00
1606, 2719.00
1607, 2720.00
1608, 2722.00
1609, 2723.00
1610, 2727.00
1611, 2728.00
1612, 2731.00
1613, 2733.00
1614, 2737.00
1615, 2739.00
1616, 2739.00
1617, 2743.00
1618, 2745.00
1619, 2747.00
1620, 2749.00
1621, 2751.00
1622, 2753.00
1623, 2757.00
1624, 2758.00
1625, 2761.00
1626, 2765.00
1627, 2765.00
1628, 2769.00
1629, 2771.00
1630, 2773.00
1631, 2774.00
1632, 2775.00
1633, 2779.00
1634, 2780.00
1635, 2783.00
1636, 2784.00
1637, 2787.00
1638, 2789.00
1639, 2792.00
1640, 2793.00
1641, 2794.00
1642, 2796.00
1643, 2797.00
1644, 2800.00
1645, 2803.00
1646, 2803.00
1647, 2805.00
1648, 2807.00
1649, 2809.00
1650, 2811.00

1750, 3343.00
1751, 3339.00
1752, 3340.00
1753, 3341.00
1754, 3342.00
1755, 3341.00
1756, 3339.00
1757, 3341.00
1758, 3340.00
1759, 3342.00
1760, 3337.00
1761, 3339.00
1762, 3341.00
1763, 3339.00
1764, 3339.00
1765, 3340.00
1766, 3339.00
1767, 3339.00
1768, 3338.00
1769, 3339.00
1770, 3337.00
1771, 3337.00
1772, 3335.00
1773, 3335.00
1774, 3336.00
1775, 3334.00
1776, 3334.00
1777, 3335.00
1778, 3331.00
1779, 3331.00
1780, 3332.00
1781, 3331.00
1782, 3330.00
1783, 3329.00
1784, 3327.00
1785, 3326.00
1786, 3326.00
1787, 3325.00
1788, 3326.00
1789, 3325.00
1790, 3324.00
1791, 3322.00
1792, 3321.00
1793, 3319.00
1794, 3322.00
1795, 3320.00
1796, 3321.00
1797, 3319.00
1798, 3316.00
1799, 3318.00
1800, 3317.00
1801, 3317.00
1802, 3316.00
1803, 3314.00
1804, 3314.00
1805, 3313.00
1806, 3310.00
1807, 3311.00
1808, 3312.00
1809, 3311.00
1810, 3309.00
1811, 3309.00
1812, 3306.00
1813, 3307.00
1814, 3305.00
1815, 3305.00
1816, 3302.00
1817, 3302.00
1818, 3300.00
1819, 3302.00
1820, 3300.00
1821, 3298.00
1822, 3295.00
1823, 3296.00
1824, 3293.00
1825, 3291.00
1826, 3291.00
1827, 3287.00
1828, 3283.00
1829, 3284.00
1830, 3280.00
1831, 3279.00
1832, 3278.00
1833, 3276.00
1834, 3274.00
1835, 3271.00
1836, 3269.00
1837, 3266.00
1838, 3261.00
1839, 3259.00
1840, 3257.00
1841, 3254.00
1842, 3251.00
1843, 3247.00
1844, 3244.00
1845, 3241.00
1846, 3236.00
1847, 3237.00
1848, 3231.00
1849, 3225.00
1850, 3223.00
1851, 3221.00
1852, 3217.00
1853, 3215.00
1854, 3212.00
1855, 3206.00
1856, 3206.00
1857, 3200.00
1858, 3196.00
1859, 3195.00
1860, 3192.00
1861, 3189.00
1862, 3186.00
1863, 3184.00
1864, 3183.00
1865, 3178.00
1866, 3177.00
1867, 3173.00
1868, 3172.00
1869, 3169.00
1870, 3169.00
1871, 3167.00
1872, 3164.00
1873, 3160.00
1874, 3160.00
1875, 3160.00
1876, 3156.00
1877, 3155.00
1878, 3153.00
1879, 3153.00
1880, 3152.00
1881, 3150.00
1882, 3150.00
1883, 3147.00
1884, 3148.00
1885, 3147.00
1886, 3144.00
1887, 3143.00
1888, 3143.00
1889, 3143.00
1890, 3142.00
1891, 3141.00
1892, 3140.00
1893, 3140.00
1894, 3138.00
1895, 3139.00
1896, 3137.00
1897, 3137.00
1898, 3136.00
1899, 3135.00
1900, 3136.00
1901, 3134.00
1902, 3134.00
1903, 3135.00
1904, 3135.00
1905, 3133.00
1906, 3132.00
1907, 3132.00
1908, 3132.00
1909, 3132.00
1910, 3131.00
1911, 3130.00
1912, 3131.00
1913, 3131.00
1914, 3131.00
1915, 3129.00
1916, 3130.00
1917, 3129.00
1918, 3129.00
1919, 3127.00
1920, 3129.00
1921, 3129.00
1922, 3127.00
1923, 3130.00
1924, 3129.00
1925, 3128.00
1926, 3127.00
1927, 3129.00
1928, 3127.00
1929, 3127.00
1930, 3127.00
1931, 3128.00
1932, 3128.00
1933, 3129.00
1934, 3127.00
1935, 3129.00
1936, 3127.00
1937, 3126.00
1938, 3129.00
1939, 3128.00
1940, 3129.00
1941, 3130.00
1942, 3129.00
1943, 3129.00
1944, 3130.00
1945, 3131.00
1946, 3129.00
1947, 3131.00
1948, 3132.00
1949, 3132.00
1950, 3133.00
1951, 3132.00
1952, 3135.00
1953, 3136.00
1954, 3134.00
1955, 3134.00
1956, 3137.00
1957, 3135.00
1958, 3137.00
1959, 3136.00
1960, 3136.00
1961, 3139.00
1962, 3138.00
1963, 3137.00
1964, 3140.00
1965, 3140.00
1966, 3139.00
1967, 3139.00
1968, 3141.00
1969, 3141.00
1970, 3143.00
1971, 3143.00
1972, 3146.00
1973, 3146.00
1974, 3145.00
1975, 3145.00
1976, 3147.00
1977, 3146.00
1978, 3148.00
1979, 3150.00
1980, 3149.00
1981, 3151.00
1982, 3151.00
1983, 3153.00
1984, 3152.00
1985, 3151.00
1986, 3155.00
1987, 3156.00
1988, 3155.00
1989, 3156.00
1990, 3158.00
1991, 3156.00
1992, 3158.00
1993, 3160.00
1994, 3160.00
1995, 3162.00
1996, 3161.00
1997, 3163.00
1998, 3163.00
1999, 3165.00
2000, 3165.00
2001, 3164.00
2002, 3167.00
2003, 3168.00
2004, 3167.00
2005, 3168.00
2006, 3168.00
2007, 3168.00
2008, 3169.00
2009, 3171.00
2010, 3173.00
2011, 3173.00
2012, 3171.00
2013, 3174.00
2014, 3174.00
2015, 3175.00
2016, 3176.00
2017, 3177.00
2018, 3176.00
2019, 3179.00
2020, 3180.00
2021, 3179.00
2022, 3181.00
2023, 3182.00
2024, 3183.00
2025, 3181.00
2026, 3184.00
2027, 3185.00
2028, 3185.00
2029, 3185.00
2030, 3188.00
2031, 3189.00
2032, 3191.00
2033, 3190.00
2034, 3192.00
2035, 3191.00
2036, 3193.00
2037, 3193.00
2038, 3192.00
2039, 3194.00
2040, 3195.00
2041, 3196.00
2042, 3199.00
2043, 3196.00
2044, 3199.00
2045, 3200.00
2046, 3201.00
2047, 3201.00
2048, 3204.00
2049, 3204.00
2050, 3207.00
2051, 3207.00
2052, 3208.00
2053, 3211.00
2054, 3211.00
2055, 3213.00
2056, 3213.00
2057, 3215.00
2058, 3216.00
2059, 3217.00
2060, 3217.00
2061, 3220.00
2062, 3220.00
2063, 3222.00
2064, 3221.00
2065, 3223.00
2066, 3225.00
2067, 3228.00
2068, 3226.00
2069, 3229.00
2070, 3230.00
2071, 3231.00
2072, 3230.00
2073, 3234.00
2074, 3234.00
2075, 3234.00
2076, 3236.00
2077, 3237.00
2078, 3239.00
2079, 3240.00
2080, 3238.00
2081, 3241.00
2082, 3241.00
2083, 3244.00
2084, 3245.00
2085, 3244.00
2086, 3247.00
2087, 3246.00
2088, 3248.00
2089, 3249.00
2090, 3249.00
2091, 3249.00
2092, 3252.00
2093, 3254.00
2094, 3253.00
2095, 3255.00
2096, 3256.00
2097, 3256.00
2098, 3257.00
2099, 3257.00
2100, 3258.00
2101, 3258.00
2102, 3260.00
2103, 3260.00
2104, 3259.00
2105, 3261.00
2106, 3260.00
2107, 3264.00
2108, 3264.00
2109, 3265.00
2110, 3262.00
2111, 3265.00
2112, 3265.00
2113, 3267.00
2114, 3266.00
2115, 3268.00
2116, 3267.00
2117, 3267.00
2118, 3269.00
2119, 3269.00
2120, 3272.00
2121, 3269.00
2122, 3271.00
2123, 3271.00
2124, 3274.00
2125, 3272.00
2126, 3273.00
2127, 3275.00
2128, 3275.00
2129, 3276.00
2130, 3275.00
2131, 3278.00
2132, 3274.00
2133, 3275.00
2134, 3277.00
2135, 3277.00
2136, 3279.00
2137, 3277.00
2138, 3278.00
2139, 3281.00
2140, 3279.00
2141, 3281.00
2142, 3282.00
2143, 3282.00
2144, 3281.00
2145, 3283.00
2146, 3282.00
2147, 3283.00
2148, 3283.00
2149, 3285.00
2150, 3284.00
