FW version: 24
Log Version: 3.0.3

General Info:
       Command/Macro Performed,            Timestamp,             Device ID, COM Port, UART/I2C, Test Name, Host Major, Host Minor, Host Revision, Host Git Commit
            Single_measurement,  2023_06_29_11_43_15,       Insight2_F4_xxx,    USB-C,      USB,          ,          0,          1,             1,      4031237645

Show Spectrometer Status:
l0_version, f4_version, battery_perc, battery_mVolt, accelerometer_temp, accelerometer_x, accelerometer_y, accelerometer_z, compass_temp, compass_x, compass_y, compass_z, lamp_0, lamp_1, gain_0, gain_1
        17,         24,           95,          2075,               5872,           65372,           65524,           18404,            0,     65407,     65525,     65532,   2866,   2866,      1,      1

Temperature Statistic Info:
NTC AVG [°C], NTC2 AVG [°C]
      37.726,        37.411

Statistic Info:
M1:  num,      min,      max,   median,      AVG,      STD,M2:  num,      min,      max,   median,      AVG,      STD
     301,  1902.00,  2197.00,  1960.00,  1998.76,  91.2420,     401,  2517.00,  2691.00,  2589.00,  2593.74,  57.0048,

Measurements:
Wavelength, Data Amplitude
1350, 1959.00
1351, 1957.00
1352, 1955.00
1353, 1955.00
1354, 1954.00
1355, 1953.00
1356, 1952.00
1357, 1951.00
1358, 1951.00
1359, 1948.00
1360, 1948.00
1361, 1945.00
1362, 1945.00
1363, 1943.00
1364, 1942.00
1365, 1941.00
1366, 1939.00
1367, 1938.00
1368, 1935.00
1369, 1935.00
1370, 1934.00
1371, 1933.00
1372, 1931.00
1373, 1928.00
1374, 1927.00
1375, 1927.00
1376, 1925.00
1377, 1923.00
1378, 1922.00
1379, 1921.00
1380, 1921.00
1381, 1918.00
1382, 1918.00
1383, 1916.00
1384, 1916.00
1385, 1916.00
1386, 1915.00
1387, 1914.00
1388, 1913.00
1389, 1912.00
1390, 1912.00
1391, 1912.00
1392, 1910.00
1393, 1911.00
1394, 1910.00
1395, 1909.00
1396, 1909.00
1397, 1908.00
1398, 1908.00
1399, 1906.00
1400, 1907.00
1401, 1907.00
1402, 1905.00
1403, 1906.00
1404, 1906.00
1405, 1906.00
1406, 1905.00
1407, 1905.00
1408, 1905.00
1409, 1906.00
1410, 1905.00
1411, 1904.00
1412, 1904.00
1413, 1905.00
1414, 1903.00
1415, 1904.00
1416, 1903.00
1417, 1905.00
1418, 1903.00
1419, 1904.00
1420, 1904.00
1421, 1904.00
1422, 1904.00
1423, 1902.00
1424, 1904.00
1425, 1904.00
1426, 1904.00
1427, 1904.00
1428, 1904.00
1429, 1905.00
1430, 1904.00
1431, 1906.00
1432, 1906.00
1433, 1906.00
1434, 1907.00
1435, 1906.00
1436, 1906.00
1437, 1907.00
1438, 1909.00
1439, 1908.00
1440, 1908.00
1441, 1908.00
1442, 1909.00
1443, 1909.00
1444, 1909.00
1445, 1911.00
1446, 1911.00
1447, 1911.00
1448, 1912.00
1449, 1913.00
1450, 1913.00
1451, 1913.00
1452, 1914.00
1453, 1915.00
1454, 1915.00
1455, 1916.00
1456, 1916.00
1457, 1917.00
1458, 1917.00
1459, 1919.00
1460, 1919.00
1461, 1919.00
1462, 1921.00
1463, 1922.00
1464, 1922.00
1465, 1924.00
1466, 1924.00
1467, 1925.00
1468, 1925.00
1469, 1927.00
1470, 1928.00
1471, 1929.00
1472, 1929.00
1473, 1930.00
1474, 1931.00
1475, 1931.00
1476, 1933.00
1477, 1935.00
1478, 1937.00
1479, 1937.00
1480, 1938.00
1481, 1938.00
1482, 1940.00
1483, 1942.00
1484, 1942.00
1485, 1943.00
1486, 1944.00
1487, 1946.00
1488, 1947.00
1489, 1949.00
1490, 1948.00
1491, 1950.00
1492, 1952.00
1493, 1953.00
1494, 1955.00
1495, 1956.00
1496, 1955.00
1497, 1957.00
1498, 1957.00
1499, 1960.00
1500, 1960.00
1501, 1962.00
1502, 1964.00
1503, 1965.00
1504, 1966.00
1505, 1968.00
1506, 1968.00
1507, 1969.00
1508, 1971.00
1509, 1973.00
1510, 1973.00
1511, 1975.00
1512, 1977.00
1513, 1978.00
1514, 1980.00
1515, 1980.00
1516, 1982.00
1517, 1983.00
1518, 1984.00
1519, 1987.00
1520, 1987.00
1521, 1989.00
1522, 1989.00
1523, 1991.00
1524, 1993.00
1525, 1994.00
1526, 1997.00
1527, 1998.00
1528, 1998.00
1529, 2000.00
1530, 2001.00
1531, 2003.00
1532, 2004.00
1533, 2005.00
1534, 2006.00
1535, 2009.00
1536, 2011.00
1537, 2011.00
1538, 2014.00
1539, 2014.00
1540, 2016.00
1541, 2018.00
1542, 2018.00
1543, 2021.00
1544, 2022.00
1545, 2023.00
1546, 2025.00
1547, 2026.00
1548, 2029.00
1549, 2030.00
1550, 2031.00
1551, 2033.00
1552, 2034.00
1553, 2036.00
1554, 2038.00
1555, 2040.00
1556, 2041.00
1557, 2043.00
1558, 2044.00
1559, 2046.00
1560, 2046.00
1561, 2049.00
1562, 2051.00
1563, 2053.00
1564, 2054.00
1565, 2056.00
1566, 2058.00
1567, 2059.00
1568, 2062.00
1569, 2064.00
1570, 2065.00
1571, 2065.00
1572, 2069.00
1573, 2070.00
1574, 2071.00
1575, 2073.00
1576, 2075.00
1577, 2077.00
1578, 2077.00
1579, 2080.00
1580, 2080.00
1581, 2084.00
1582, 2086.00
1583, 2085.00
1584, 2088.00
1585, 2089.00
1586, 2090.00
1587, 2091.00
1588, 2092.00
1589, 2094.00
1590, 2096.00
1591, 2098.00
1592, 2098.00
1593, 2101.00
1594, 2102.00
1595, 2103.00
1596, 2105.00
1597, 2107.00
1598, 2108.00
1599, 2110.00
1600, 2111.00
1601, 2112.00
1602, 2114.00
1603, 2117.00
1604, 2118.00
1605, 2121.00
1606, 2121.00
1607, 2122.00
1608, 2124.00
1609, 2126.00
1610, 2129.00
1611, 2130.00
1612, 2132.00
1613, 2133.00
1614, 2136.00
1615, 2137.00
1616, 2139.00
1617, 2141.00
1618, 2142.00
1619, 2145.00
1620, 2147.00
1621, 2149.00
1622, 2151.00
1623, 2153.00
1624, 2155.00
1625, 2155.00
1626, 2158.00
1627, 2159.00
1628, 2162.00
1629, 2165.00
1630, 2165.00
1631, 2166.00
1632, 2169.00
1633, 2171.00
1634, 2172.00
1635, 2174.00
1636, 2175.00
1637, 2177.00
1638, 2178.00
1639, 2180.00
1640, 2181.00
1641, 2182.00
1642, 2184.00
1643, 2185.00
1644, 2188.00
1645, 2188.00
1646, 2189.00
1647, 2192.00
1648, 2193.00
1649, 2195.00
1650, 2197.00

1750, 2688.00
1751, 2691.00
1752, 2689.00
1753, 2689.00
1754, 2691.00
1755, 2689.00
1756, 2691.00
1757, 2690.00
1758, 2690.00
1759, 2690.00
1760, 2691.00
1761, 2689.00
1762, 2690.00
1763, 2688.00
1764, 2689.00
1765, 2688.00
1766, 2689.00
1767, 2689.00
1768, 2687.00
1769, 2687.00
1770, 2687.00
1771, 2685.00
1772, 2688.00
1773, 2687.00
1774, 2685.00
1775, 2686.00
1776, 2684.00
1777, 2683.00
1778, 2685.00
1779, 2683.00
1780, 2685.00
1781, 2683.00
1782, 2682.00
1783, 2684.00
1784, 2681.00
1785, 2679.00
1786, 2679.00
1787, 2678.00
1788, 2678.00
1789, 2678.00
1790, 2679.00
1791, 2677.00
1792, 2677.00
1793, 2676.00
1794, 2674.00
1795, 2674.00
1796, 2675.00
1797, 2673.00
1798, 2672.00
1799, 2672.00
1800, 2671.00
1801, 2671.00
1802, 2669.00
1803, 2671.00
1804, 2670.00
1805, 2668.00
1806, 2669.00
1807, 2670.00
1808, 2668.00
1809, 2666.00
1810, 2666.00
1811, 2665.00
1812, 2664.00
1813, 2663.00
1814, 2664.00
1815, 2662.00
1816, 2662.00
1817, 2662.00
1818, 2660.00
1819, 2659.00
1820, 2658.00
1821, 2657.00
1822, 2656.00
1823, 2654.00
1824, 2653.00
1825, 2652.00
1826, 2651.00
1827, 2651.00
1828, 2646.00
1829, 2645.00
1830, 2643.00
1831, 2643.00
1832, 2640.00
1833, 2639.00
1834, 2639.00
1835, 2636.00
1836, 2635.00
1837, 2631.00
1838, 2628.00
1839, 2625.00
1840, 2625.00
1841, 2620.00
1842, 2618.00
1843, 2617.00
1844, 2614.00
1845, 2610.00
1846, 2609.00
1847, 2605.00
1848, 2603.00
1849, 2599.00
1850, 2597.00
1851, 2594.00
1852, 2592.00
1853, 2590.00
1854, 2589.00
1855, 2582.00
1856, 2582.00
1857, 2577.00
1858, 2576.00
1859, 2575.00
1860, 2572.00
1861, 2568.00
1862, 2567.00
1863, 2564.00
1864, 2563.00
1865, 2560.00
1866, 2557.00
1867, 2557.00
1868, 2554.00
1869, 2553.00
1870, 2550.00
1871, 2551.00
1872, 2549.00
1873, 2547.00
1874, 2547.00
1875, 2545.00
1876, 2543.00
1877, 2541.00
1878, 2541.00
1879, 2540.00
1880, 2539.00
1881, 2536.00
1882, 2537.00
1883, 2535.00
1884, 2536.00
1885, 2534.00
1886, 2533.00
1887, 2534.00
1888, 2532.00
1889, 2530.00
1890, 2531.00
1891, 2530.00
1892, 2530.00
1893, 2528.00
1894, 2529.00
1895, 2528.00
1896, 2527.00
1897, 2527.00
1898, 2526.00
1899, 2525.00
1900, 2525.00
1901, 2525.00
1902, 2523.00
1903, 2525.00
1904, 2525.00
1905, 2523.00
1906, 2523.00
1907, 2522.00
1908, 2522.00
1909, 2521.00
1910, 2523.00
1911, 2521.00
1912, 2521.00
1913, 2520.00
1914, 2520.00
1915, 2522.00
1916, 2521.00
1917, 2520.00
1918, 2518.00
1919, 2518.00
1920, 2520.00
1921, 2519.00
1922, 2521.00
1923, 2519.00
1924, 2517.00
1925, 2518.00
1926, 2518.00
1927, 2518.00
1928, 2519.00
1929, 2518.00
1930, 2519.00
1931, 2519.00
1932, 2519.00
1933, 2519.00
1934, 2520.00
1935, 2521.00
1936, 2520.00
1937, 2519.00
1938, 2520.00
1939, 2519.00
1940, 2521.00
1941, 2521.00
1942, 2522.00
1943, 2521.00
1944, 2521.00
1945, 2522.00
1946, 2521.00
1947, 2523.00
1948, 2523.00
1949, 2522.00
1950, 2522.00
1951, 2522.00
1952, 2523.00
1953, 2524.00
1954, 2524.00
1955, 2523.00
1956, 2526.00
1957, 2525.00
1958, 2526.00
1959, 2526.00
1960, 2526.00
1961, 2527.00
1962, 2527.00
1963, 2527.00
1964, 2529.00
1965, 2528.00
1966, 2529.00
1967, 2529.00
1968, 2530.00
1969, 2531.00
1970, 2532.00
1971, 2533.00
1972, 2534.00
1973, 2531.00
1974, 2534.00
1975, 2534.00
1976, 2534.00
1977, 2535.00
1978, 2535.00
1979, 2538.00
1980, 2539.00
1981, 2537.00
1982, 2539.00
1983, 2539.00
1984, 2541.00
1985, 2540.00
1986, 2540.00
1987, 2542.00
1988, 2544.00
1989, 2543.00
1990, 2543.00
1991, 2543.00
1992, 2545.00
1993, 2544.00
1994, 2545.00
1995, 2545.00
1996, 2547.00
1997, 2549.00
1998, 2547.00
1999, 2548.00
2000, 2549.00
2001, 2549.00
2002, 2551.00
2003, 2551.00
2004, 2552.00
2005, 2552.00
2006, 2554.00
2007, 2553.00
2008, 2555.00
2009, 2554.00
2010, 2555.00
2011, 2557.00
2012, 2557.00
2013, 2556.00
2014, 2559.00
2015, 2559.00
2016, 2559.00
2017, 2560.00
2018, 2560.00
2019, 2562.00
2020, 2559.00
2021, 2562.00
2022, 2563.00
2023, 2566.00
2024, 2565.00
2025, 2565.00
2026, 2567.00
2027, 2567.00
2028, 2569.00
2029, 2568.00
2030, 2569.00
2031, 2569.00
2032, 2570.00
2033, 2571.00
2034, 2572.00
2035, 2572.00
2036, 2572.00
2037, 2575.00
2038, 2575.00
2039, 2576.00
2040, 2576.00
2041, 2576.00
2042, 2577.00
2043, 2580.00
2044, 2580.00
2045, 2580.00
2046, 2582.00
2047, 2583.00
2048, 2584.00
2049, 2583.00
2050, 2585.00
2051, 2588.00
2052, 2584.00
2053, 2586.00
2054, 2589.00
2055, 2589.00
2056, 2589.00
2057, 2592.00
2058, 2593.00
2059, 2593.00
2060, 2595.00
2061, 2597.00
2062, 2594.00
2063, 2596.00
2064, 2598.00
2065, 2599.00
2066, 2601.00
2067, 2602.00
2068, 2602.00
2069, 2603.00
2070, 2604.00
2071, 2607.00
2072, 2607.00
2073, 2606.00
2074, 2607.00
2075, 2608.00
2076, 2609.00
2077, 2611.00
2078, 2612.00
2079, 2611.00
2080, 2613.00
2081, 2614.00
2082, 2615.00
2083, 2614.00
2084, 2617.00
2085, 2616.00
2086, 2619.00
2087, 2619.00
2088, 2620.00
2089, 2621.00
2090, 2621.00
2091, 2621.00
2092, 2623.00
2093, 2625.00
2094, 2624.00
2095, 2626.00
2096, 2625.00
2097, 2625.00
2098, 2625.00
2099, 2627.00
2100, 2627.00
2101, 2630.00
2102, 2630.00
2103, 2630.00
2104, 2632.00
2105, 2631.00
2106, 2631.00
2107, 2631.00
2108, 2632.00
2109, 2633.00
2110, 2633.00
2111, 2634.00
2112, 2635.00
2113, 2635.00
2114, 2635.00
2115, 2635.00
2116, 2636.00
2117, 2637.00
2118, 2636.00
2119, 2636.00
2120, 2637.00
2121, 2639.00
2122, 2638.00
2123, 2638.00
2124, 2640.00
2125, 2640.00
2126, 2641.00
2127, 2642.00
2128, 2643.00
2129, 2642.00
2130, 2642.00
2131, 2643.00
2132, 2643.00
2133, 2644.00
2134, 2645.00
2135, 2645.00
2136, 2643.00
2137, 2644.00
2138, 2645.00
2139, 2646.00
2140, 2647.00
2141, 2646.00
2142, 2647.00
2143, 2645.00
2144, 2647.00
2145, 2647.00
2146, 2649.00
2147, 2647.00
2148, 2647.00
2149, 2649.00
2150, 2648.00
