FW version: 24
Log Version: 3.0.3

General Info:
       Command/Macro Performed,            Timestamp,             Device ID, COM Port, UART/I2C, Test Name, Host Major, Host Minor, Host Revision, Host Git Commit
            Single_measurement,  2023_06_29_11_43_23,       Insight2_F4_xxx,    USB-C,      USB,          ,          0,          1,             1,      4031237645

Show Spectrometer Status:
l0_version, f4_version, battery_perc, battery_mVolt, accelerometer_temp, accelerometer_x, accelerometer_y, accelerometer_z, compass_temp, compass_x, compass_y, compass_z, lamp_0, lamp_1, gain_0, gain_1
        17,         24,           95,          2077,               5872,           65368,              16,           18484,            0,     65402,     65393,     65534,   2866,   2866,      1,      1

Temperature Statistic Info:
NTC AVG [°C], NTC2 AVG [°C]
      37.812,        37.497

Statistic Info:
M1:  num,      min,      max,   median,      AVG,      STD,M2:  num,      min,      max,   median,      AVG,      STD
     301,  1902.00,  2196.00,  1960.00,  1998.15,  91.2653,     401,  2517.00,  2692.00,  2589.00,  2593.23,  56.8873,

Measurements:
Wavelength, Data Amplitude
1350, 1957.00
1351, 1956.00
1352, 1955.00
1353, 1955.00
1354, 1953.00
1355, 1951.00
1356, 1952.00
1357, 1949.00
1358, 1949.00
1359, 1948.00
1360, 1947.00
1361, 1945.00
1362, 1945.00
1363, 1943.00
1364, 1941.00
1365, 1940.00
1366, 1939.00
1367, 1937.00
1368, 1936.00
1369, 1934.00
1370, 1933.00
1371, 1931.00
1372, 1929.00
1373, 1928.00
1374, 1926.00
1375, 1926.00
1376, 1924.00
1377, 1922.00
1378, 1921.00
1379, 1921.00
1380, 1919.00
1381, 1919.00
1382, 1917.00
1383, 1917.00
1384, 1916.00
1385, 1915.00
1386, 1914.00
1387, 1913.00
1388, 1912.00
1389, 1911.00
1390, 1912.00
1391, 1911.00
1392, 1910.00
1393, 1910.00
1394, 1909.00
1395, 1909.00
1396, 1907.00
1397, 1909.00
1398, 1908.00
1399, 1907.00
1400, 1906.00
1401, 1906.00
1402, 1905.00
1403, 1905.00
1404, 1905.00
1405, 1905.00
1406, 1905.00
1407, 1904.00
1408, 1904.00
1409, 1905.00
1410, 1903.00
1411, 1904.00
1412, 1903.00
1413, 1903.00
1414, 1903.00
1415, 1903.00
1416, 1903.00
1417, 1903.00
1418, 1903.00
1419, 1903.00
1420, 1903.00
1421, 1903.00
1422, 1903.00
1423, 1904.00
1424, 1902.00
1425, 1904.00
1426, 1904.00
1427, 1903.00
1428, 1903.00
1429, 1903.00
1430, 1903.00
1431, 1906.00
1432, 1905.00
1433, 1904.00
1434, 1906.00
1435, 1906.00
1436, 1906.00
1437, 1906.00
1438, 1907.00
1439, 1907.00
1440, 1907.00
1441, 1907.00
1442, 1908.00
1443, 1909.00
1444, 1910.00
1445, 1909.00
1446, 1909.00
1447, 1911.00
1448, 1911.00
1449, 1912.00
1450, 1913.00
1451, 1913.00
1452, 1914.00
1453, 1913.00
1454, 1915.00
1455, 1916.00
1456, 1915.00
1457, 1917.00
1458, 1917.00
1459, 1918.00
1460, 1919.00
1461, 1919.00
1462, 1920.00
1463, 1920.00
1464, 1921.00
1465, 1924.00
1466, 1924.00
1467, 1924.00
1468, 1925.00
1469, 1926.00
1470, 1927.00
1471, 1928.00
1472, 1928.00
1473, 1930.00
1474, 1930.00
1475, 1931.00
1476, 1933.00
1477, 1934.00
1478, 1935.00
1479, 1937.00
1480, 1938.00
1481, 1939.00
1482, 1938.00
1483, 1941.00
1484, 1942.00
1485, 1943.00
1486, 1944.00
1487, 1945.00
1488, 1946.00
1489, 1948.00
1490, 1947.00
1491, 1949.00
1492, 1951.00
1493, 1952.00
1494, 1954.00
1495, 1955.00
1496, 1956.00
1497, 1957.00
1498, 1958.00
1499, 1959.00
1500, 1960.00
1501, 1961.00
1502, 1962.00
1503, 1964.00
1504, 1966.00
1505, 1967.00
1506, 1968.00
1507, 1969.00
1508, 1971.00
1509, 1972.00
1510, 1973.00
1511, 1974.00
1512, 1976.00
1513, 1976.00
1514, 1979.00
1515, 1980.00
1516, 1980.00
1517, 1983.00
1518, 1983.00
1519, 1985.00
1520, 1987.00
1521, 1988.00
1522, 1990.00
1523, 1991.00
1524, 1992.00
1525, 1994.00
1526, 1995.00
1527, 1996.00
1528, 1998.00
1529, 2000.00
1530, 2001.00
1531, 2001.00
1532, 2004.00
1533, 2007.00
1534, 2007.00
1535, 2008.00
1536, 2010.00
1537, 2012.00
1538, 2013.00
1539, 2015.00
1540, 2017.00
1541, 2017.00
1542, 2019.00
1543, 2021.00
1544, 2021.00
1545, 2023.00
1546, 2025.00
1547, 2027.00
1548, 2027.00
1549, 2029.00
1550, 2031.00
1551, 2033.00
1552, 2034.00
1553, 2036.00
1554, 2037.00
1555, 2039.00
1556, 2040.00
1557, 2042.00
1558, 2044.00
1559, 2046.00
1560, 2047.00
1561, 2050.00
1562, 2050.00
1563, 2053.00
1564, 2055.00
1565, 2056.00
1566, 2057.00
1567, 2059.00
1568, 2060.00
1569, 2062.00
1570, 2065.00
1571, 2066.00
1572, 2068.00
1573, 2069.00
1574, 2071.00
1575, 2073.00
1576, 2074.00
1577, 2075.00
1578, 2078.00
1579, 2079.00
1580, 2080.00
1581, 2082.00
1582, 2084.00
1583, 2084.00
1584, 2087.00
1585, 2088.00
1586, 2089.00
1587, 2091.00
1588, 2093.00
1589, 2095.00
1590, 2095.00
1591, 2097.00
1592, 2097.00
1593, 2100.00
1594, 2101.00
1595, 2103.00
1596, 2104.00
1597, 2106.00
1598, 2107.00
1599, 2108.00
1600, 2109.00
1601, 2113.00
1602, 2113.00
1603, 2115.00
1604, 2117.00
1605, 2118.00
1606, 2121.00
1607, 2122.00
1608, 2124.00
1609, 2126.00
1610, 2128.00
1611, 2130.00
1612, 2131.00
1613, 2133.00
1614, 2134.00
1615, 2137.00
1616, 2138.00
1617, 2141.00
1618, 2142.00
1619, 2144.00
1620, 2146.00
1621, 2147.00
1622, 2151.00
1623, 2153.00
1624, 2154.00
1625, 2155.00
1626, 2158.00
1627, 2159.00
1628, 2161.00
1629, 2163.00
1630, 2165.00
1631, 2165.00
1632, 2167.00
1633, 2170.00
1634, 2170.00
1635, 2172.00
1636, 2175.00
1637, 2176.00
1638, 2177.00
1639, 2180.00
1640, 2181.00
1641, 2183.00
1642, 2183.00
1643, 2185.00
1644, 2187.00
1645, 2188.00
1646, 2190.00
1647, 2191.00
1648, 2193.00
1649, 2194.00
1650, 2196.00

1750, 2689.00
1751, 2692.00
1752, 2688.00
1753, 2691.00
1754, 2689.00
1755, 2690.00
1756, 2691.00
1757, 2690.00
1758, 2691.00
1759, 2690.00
1760, 2688.00
1761, 2690.00
1762, 2689.00
1763, 2689.00
1764, 2688.00
1765, 2688.00
1766, 2689.00
1767, 2689.00
1768, 2688.00
1769, 2687.00
1770, 2686.00
1771, 2689.00
1772, 2686.00
1773, 2685.00
1774, 2686.00
1775, 2686.00
1776, 2686.00
1777, 2684.00
1778, 2686.00
1779, 2683.00
1780, 2682.00
1781, 2683.00
1782, 2684.00
1783, 2680.00
1784, 2681.00
1785, 2680.00
1786, 2678.00
1787, 2678.00
1788, 2677.00
1789, 2678.00
1790, 2677.00
1791, 2678.00
1792, 2676.00
1793, 2675.00
1794, 2675.00
1795, 2673.00
1796, 2673.00
1797, 2671.00
1798, 2670.00
1799, 2670.00
1800, 2671.00
1801, 2671.00
1802, 2669.00
1803, 2669.00
1804, 2668.00
1805, 2669.00
1806, 2666.00
1807, 2668.00
1808, 2668.00
1809, 2664.00
1810, 2664.00
1811, 2665.00
1812, 2663.00
1813, 2662.00
1814, 2662.00
1815, 2663.00
1816, 2662.00
1817, 2660.00
1818, 2657.00
1819, 2658.00
1820, 2656.00
1821, 2657.00
1822, 2656.00
1823, 2653.00
1824, 2651.00
1825, 2649.00
1826, 2650.00
1827, 2647.00
1828, 2647.00
1829, 2646.00
1830, 2644.00
1831, 2641.00
1832, 2641.00
1833, 2639.00
1834, 2637.00
1835, 2634.00
1836, 2631.00
1837, 2629.00
1838, 2627.00
1839, 2626.00
1840, 2624.00
1841, 2620.00
1842, 2618.00
1843, 2615.00
1844, 2613.00
1845, 2609.00
1846, 2607.00
1847, 2604.00
1848, 2603.00
1849, 2599.00
1850, 2596.00
1851, 2595.00
1852, 2592.00
1853, 2589.00
1854, 2585.00
1855, 2585.00
1856, 2582.00
1857, 2577.00
1858, 2576.00
1859, 2574.00
1860, 2572.00
1861, 2569.00
1862, 2565.00
1863, 2564.00
1864, 2562.00
1865, 2560.00
1866, 2557.00
1867, 2556.00
1868, 2554.00
1869, 2553.00
1870, 2551.00
1871, 2550.00
1872, 2548.00
1873, 2547.00
1874, 2541.00
1875, 2543.00
1876, 2542.00
1877, 2539.00
1878, 2539.00
1879, 2538.00
1880, 2540.00
1881, 2535.00
1882, 2534.00
1883, 2534.00
1884, 2533.00
1885, 2533.00
1886, 2532.00
1887, 2531.00
1888, 2531.00
1889, 2531.00
1890, 2530.00
1891, 2529.00
1892, 2527.00
1893, 2527.00
1894, 2528.00
1895, 2528.00
1896, 2527.00
1897, 2526.00
1898, 2524.00
1899, 2525.00
1900, 2524.00
1901, 2525.00
1902, 2525.00
1903, 2524.00
1904, 2525.00
1905, 2523.00
1906, 2523.00
1907, 2521.00
1908, 2523.00
1909, 2521.00
1910, 2523.00
1911, 2522.00
1912, 2521.00
1913, 2521.00
1914, 2519.00
1915, 2521.00
1916, 2521.00
1917, 2518.00
1918, 2521.00
1919, 2521.00
1920, 2519.00
1921, 2519.00
1922, 2519.00
1923, 2519.00
1924, 2519.00
1925, 2518.00
1926, 2519.00
1927, 2519.00
1928, 2518.00
1929, 2518.00
1930, 2518.00
1931, 2519.00
1932, 2519.00
1933, 2520.00
1934, 2518.00
1935, 2520.00
1936, 2520.00
1937, 2520.00
1938, 2521.00
1939, 2522.00
1940, 2520.00
1941, 2521.00
1942, 2519.00
1943, 2517.00
1944, 2521.00
1945, 2522.00
1946, 2523.00
1947, 2521.00
1948, 2522.00
1949, 2522.00
1950, 2523.00
1951, 2521.00
1952, 2523.00
1953, 2525.00
1954, 2525.00
1955, 2523.00
1956, 2524.00
1957, 2525.00
1958, 2526.00
1959, 2526.00
1960, 2529.00
1961, 2526.00
1962, 2527.00
1963, 2528.00
1964, 2529.00
1965, 2528.00
1966, 2531.00
1967, 2530.00
1968, 2532.00
1969, 2529.00
1970, 2531.00
1971, 2533.00
1972, 2534.00
1973, 2535.00
1974, 2535.00
1975, 2532.00
1976, 2536.00
1977, 2535.00
1978, 2535.00
1979, 2536.00
1980, 2536.00
1981, 2538.00
1982, 2539.00
1983, 2540.00
1984, 2539.00
1985, 2540.00
1986, 2541.00
1987, 2540.00
1988, 2542.00
1989, 2541.00
1990, 2543.00
1991, 2542.00
1992, 2543.00
1993, 2545.00
1994, 2546.00
1995, 2547.00
1996, 2545.00
1997, 2547.00
1998, 2548.00
1999, 2549.00
2000, 2549.00
2001, 2551.00
2002, 2551.00
2003, 2550.00
2004, 2551.00
2005, 2552.00
2006, 2554.00
2007, 2554.00
2008, 2553.00
2009, 2553.00
2010, 2555.00
2011, 2555.00
2012, 2557.00
2013, 2557.00
2014, 2557.00
2015, 2559.00
2016, 2559.00
2017, 2560.00
2018, 2559.00
2019, 2561.00
2020, 2560.00
2021, 2563.00
2022, 2561.00
2023, 2564.00
2024, 2564.00
2025, 2565.00
2026, 2565.00
2027, 2566.00
2028, 2566.00
2029, 2568.00
2030, 2570.00
2031, 2569.00
2032, 2568.00
2033, 2570.00
2034, 2571.00
2035, 2572.00
2036, 2573.00
2037, 2573.00
2038, 2574.00
2039, 2575.00
2040, 2577.00
2041, 2577.00
2042, 2578.00
2043, 2579.00
2044, 2579.00
2045, 2580.00
2046, 2580.00
2047, 2581.00
2048, 2583.00
2049, 2584.00
2050, 2583.00
2051, 2586.00
2052, 2585.00
2053, 2586.00
2054, 2589.00
2055, 2591.00
2056, 2589.00
2057, 2592.00
2058, 2592.00
2059, 2592.00
2060, 2594.00
2061, 2595.00
2062, 2595.00
2063, 2596.00
2064, 2600.00
2065, 2596.00
2066, 2599.00
2067, 2602.00
2068, 2601.00
2069, 2602.00
2070, 2605.00
2071, 2604.00
2072, 2606.00
2073, 2607.00
2074, 2605.00
2075, 2608.00
2076, 2609.00
2077, 2608.00
2078, 2611.00
2079, 2610.00
2080, 2613.00
2081, 2612.00
2082, 2614.00
2083, 2616.00
2084, 2616.00
2085, 2617.00
2086, 2620.00
2087, 2619.00
2088, 2619.00
2089, 2620.00
2090, 2619.00
2091, 2621.00
2092, 2623.00
2093, 2623.00
2094, 2622.00
2095, 2625.00
2096, 2624.00
2097, 2627.00
2098, 2625.00
2099, 2625.00
2100, 2627.00
2101, 2627.00
2102, 2629.00
2103, 2628.00
2104, 2631.00
2105, 2630.00
2106, 2631.00
2107, 2630.00
2108, 2629.00
2109, 2632.00
2110, 2633.00
2111, 2632.00
2112, 2635.00
2113, 2634.00
2114, 2634.00
2115, 2635.00
2116, 2635.00
2117, 2636.00
2118, 2636.00
2119, 2637.00
2120, 2637.00
2121, 2637.00
2122, 2637.00
2123, 2637.00
2124, 2638.00
2125, 2638.00
2126, 2641.00
2127, 2641.00
2128, 2640.00
2129, 2641.00
2130, 2642.00
2131, 2641.00
2132, 2643.00
2133, 2644.00
2134, 2642.00
2135, 2644.00
2136, 2645.00
2137, 2645.00
2138, 2644.00
2139, 2645.00
2140, 2645.00
2141, 2646.00
2142, 2645.00
2143, 2645.00
2144, 2647.00
2145, 2647.00
2146, 2648.00
2147, 2647.00
2148, 2648.00
2149, 2649.00
2150, 2648.00
