FW version: 24
Log Version: 3.0.3

General Info:
       Command/Macro Performed,            Timestamp,             Device ID, COM Port, UART/I2C, Test Name, Host Major, Host Minor, Host Revision, Host Git Commit
            Single_measurement,  2023_06_29_11_43_42,       Insight2_F4_xxx,    USB-C,      USB,          ,          0,          1,             1,      4031237645

Show Spectrometer Status:
l0_version, f4_version, battery_perc, battery_mVolt, accelerometer_temp, accelerometer_x, accelerometer_y, accelerometer_z, compass_temp, compass_x, compass_y, compass_z, lamp_0, lamp_1, gain_0, gain_1
        17,         24,           95,          2078,               5888,           65388,              32,           18540,            0,     65388,     65382,     65535,   3276,   3276,      1,      1

Temperature Statistic Info:
NTC AVG [°C], NTC2 AVG [°C]
      37.954,        37.640

Statistic Info:
M1:  num,      min,      max,   median,      AVG,      STD,M2:  num,      min,      max,   median,      AVG,      STD
     301,  2445.00,  2810.00,  2519.00,  2565.27, 113.0158,     401,  3124.00,  3341.00,  3210.00,  3217.49,  70.2504,

Measurements:
Wavelength, Data Amplitude
1350, 2519.00
1351, 2517.00
1352, 2516.00
1353, 2515.00
1354, 2512.00
1355, 2511.00
1356, 2513.00
1357, 2510.00
1358, 2509.00
1359, 2506.00
1360, 2504.00
1361, 2502.00
1362, 2501.00
1363, 2499.00
1364, 2497.00
1365, 2496.00
1366, 2493.00
1367, 2492.00
1368, 2491.00
1369, 2487.00
1370, 2487.00
1371, 2484.00
1372, 2481.00
1373, 2481.00
1374, 2479.00
1375, 2476.00
1376, 2475.00
1377, 2473.00
1378, 2471.00
1379, 2470.00
1380, 2469.00
1381, 2468.00
1382, 2467.00
1383, 2465.00
1384, 2465.00
1385, 2463.00
1386, 2461.00
1387, 2462.00
1388, 2460.00
1389, 2459.00
1390, 2458.00
1391, 2457.00
1392, 2457.00
1393, 2456.00
1394, 2454.00
1395, 2454.00
1396, 2454.00
1397, 2453.00
1398, 2453.00
1399, 2452.00
1400, 2452.00
1401, 2451.00
1402, 2450.00
1403, 2451.00
1404, 2449.00
1405, 2450.00
1406, 2450.00
1407, 2448.00
1408, 2448.00
1409, 2448.00
1410, 2448.00
1411, 2447.00
1412, 2448.00
1413, 2447.00
1414, 2448.00
1415, 2448.00
1416, 2448.00
1417, 2447.00
1418, 2448.00
1419, 2447.00
1420, 2447.00
1421, 2447.00
1422, 2445.00
1423, 2447.00
1424, 2447.00
1425, 2448.00
1426, 2447.00
1427, 2447.00
1428, 2448.00
1429, 2447.00
1430, 2447.00
1431, 2449.00
1432, 2448.00
1433, 2449.00
1434, 2449.00
1435, 2449.00
1436, 2450.00
1437, 2450.00
1438, 2450.00
1439, 2451.00
1440, 2451.00
1441, 2452.00
1442, 2452.00
1443, 2455.00
1444, 2455.00
1445, 2454.00
1446, 2455.00
1447, 2456.00
1448, 2456.00
1449, 2458.00
1450, 2456.00
1451, 2459.00
1452, 2458.00
1453, 2460.00
1454, 2461.00
1455, 2462.00
1456, 2463.00
1457, 2464.00
1458, 2463.00
1459, 2466.00
1460, 2465.00
1461, 2467.00
1462, 2468.00
1463, 2469.00
1464, 2470.00
1465, 2470.00
1466, 2472.00
1467, 2473.00
1468, 2474.00
1469, 2474.00
1470, 2476.00
1471, 2478.00
1472, 2478.00
1473, 2481.00
1474, 2481.00
1475, 2482.00
1476, 2484.00
1477, 2485.00
1478, 2486.00
1479, 2488.00
1480, 2489.00
1481, 2491.00
1482, 2492.00
1483, 2493.00
1484, 2494.00
1485, 2496.00
1486, 2499.00
1487, 2499.00
1488, 2501.00
1489, 2503.00
1490, 2504.00
1491, 2506.00
1492, 2507.00
1493, 2508.00
1494, 2510.00
1495, 2511.00
1496, 2513.00
1497, 2513.00
1498, 2516.00
1499, 2517.00
1500, 2519.00
1501, 2520.00
1502, 2521.00
1503, 2523.00
1504, 2525.00
1505, 2525.00
1506, 2527.00
1507, 2529.00
1508, 2531.00
1509, 2533.00
1510, 2534.00
1511, 2534.00
1512, 2537.00
1513, 2538.00
1514, 2540.00
1515, 2542.00
1516, 2544.00
1517, 2545.00
1518, 2547.00
1519, 2548.00
1520, 2551.00
1521, 2552.00
1522, 2554.00
1523, 2556.00
1524, 2557.00
1525, 2559.00
1526, 2561.00
1527, 2562.00
1528, 2563.00
1529, 2567.00
1530, 2568.00
1531, 2571.00
1532, 2572.00
1533, 2575.00
1534, 2576.00
1535, 2578.00
1536, 2579.00
1537, 2581.00
1538, 2584.00
1539, 2585.00
1540, 2587.00
1541, 2590.00
1542, 2590.00
1543, 2593.00
1544, 2594.00
1545, 2597.00
1546, 2597.00
1547, 2600.00
1548, 2602.00
1549, 2604.00
1550, 2606.00
1551, 2608.00
1552, 2609.00
1553, 2612.00
1554, 2612.00
1555, 2615.00
1556, 2618.00
1557, 2619.00
1558, 2621.00
1559, 2624.00
1560, 2626.00
1561, 2627.00
1562, 2631.00
1563, 2633.00
1564, 2635.00
1565, 2636.00
1566, 2639.00
1567, 2640.00
1568, 2643.00
1569, 2645.00
1570, 2648.00
1571, 2649.00
1572, 2651.00
1573, 2653.00
1574, 2655.00
1575, 2657.00
1576, 2661.00
1577, 2662.00
1578, 2664.00
1579, 2665.00
1580, 2667.00
1581, 2669.00
1582, 2672.00
1583, 2673.00
1584, 2675.00
1585, 2678.00
1586, 2679.00
1587, 2681.00
1588, 2683.00
1589, 2683.00
1590, 2686.00
1591, 2689.00
1592, 2690.00
1593, 2692.00
1594, 2693.00
1595, 2693.00
1596, 2697.00
1597, 2699.00
1598, 2701.00
1599, 2703.00
1600, 2704.00
1601, 2707.00
1602, 2708.00
1603, 2711.00
1604, 2711.00
1605, 2715.00
1606, 2717.00
1607, 2720.00
1608, 2721.00
1609, 2724.00
1610, 2726.00
1611, 2727.00
1612, 2730.00
1613, 2732.00
1614, 2735.00
1615, 2736.00
1616, 2739.00
1617, 2741.00
1618, 2744.00
1619, 2746.00
1620, 2749.00
1621, 2751.00
1622, 2753.00
1623, 2755.00
1624, 2759.00
1625, 2759.00
1626, 2762.00
1627, 2765.00
1628, 2767.00
1629, 2768.00
1630, 2771.00
1631, 2773.00
1632, 2775.00
1633, 2777.00
1634, 2779.00
1635, 2782.00
1636, 2783.00
1637, 2785.00
1638, 2786.00
1639, 2789.00
1640, 2790.00
1641, 2792.00
1642, 2794.00
1643, 2797.00
1644, 2799.00
1645, 2801.00
1646, 2801.00
1647, 2803.00
1648, 2807.00
1649, 2809.00
1650, 2810.00

1750, 3339.00
1751, 3338.00
1752, 3339.00
1753, 3341.00
1754, 3338.00
1755, 3340.00
1756, 3339.00
1757, 3337.00
1758, 3339.00
1759, 3338.00
1760, 3339.00
1761, 3339.00
1762, 3339.00
1763, 3338.00
1764, 3338.00
1765, 3340.00
1766, 3339.00
1767, 3335.00
1768, 3337.00
1769, 3338.00
1770, 3336.00
1771, 3337.00
1772, 3333.00
1773, 3333.00
1774, 3333.00
1775, 3333.00
1776, 3333.00
1777, 3331.00
1778, 3332.00
1779, 3330.00
1780, 3331.00
1781, 3330.00
1782, 3329.00
1783, 3328.00
1784, 3327.00
1785, 3324.00
1786, 3325.00
1787, 3322.00
1788, 3324.00
1789, 3324.00
1790, 3321.00
1791, 3320.00
1792, 3322.00
1793, 3321.00
1794, 3319.00
1795, 3318.00
1796, 3317.00
1797, 3318.00
1798, 3317.00
1799, 3315.00
1800, 3315.00
1801, 3314.00
1802, 3313.00
1803, 3313.00
1804, 3312.00
1805, 3311.00
1806, 3311.00
1807, 3311.00
1808, 3310.00
1809, 3308.00
1810, 3308.00
1811, 3307.00
1812, 3307.00
1813, 3305.00
1814, 3303.00
1815, 3302.00
1816, 3303.00
1817, 3302.00
1818, 3301.00
1819, 3300.00
1820, 3297.00
1821, 3295.00
1822, 3297.00
1823, 3294.00
1824, 3292.00
1825, 3291.00
1826, 3289.00
1827, 3284.00
1828, 3285.00
1829, 3283.00
1830, 3280.00
1831, 3279.00
1832, 3273.00
1833, 3274.00
1834, 3273.00
1835, 3267.00
1836, 3266.00
1837, 3263.00
1838, 3259.00
1839, 3258.00
1840, 3255.00
1841, 3252.00
1842, 3249.00
1843, 3243.00
1844, 3243.00
1845, 3238.00
1846, 3237.00
1847, 3231.00
1848, 3229.00
1849, 3224.00
1850, 3221.00
1851, 3218.00
1852, 3217.00
1853, 3213.00
1854, 3209.00
1855, 3204.00
1856, 3201.00
1857, 3199.00
1858, 3197.00
1859, 3194.00
1860, 3191.00
1861, 3188.00
1862, 3184.00
1863, 3181.00
1864, 3181.00
1865, 3177.00
1866, 3174.00
1867, 3172.00
1868, 3170.00
1869, 3169.00
1870, 3166.00
1871, 3165.00
1872, 3160.00
1873, 3161.00
1874, 3159.00
1875, 3157.00
1876, 3156.00
1877, 3153.00
1878, 3150.00
1879, 3152.00
1880, 3148.00
1881, 3149.00
1882, 3148.00
1883, 3148.00
1884, 3145.00
1885, 3145.00
1886, 3145.00
1887, 3143.00
1888, 3143.00
1889, 3140.00
1890, 3142.00
1891, 3138.00
1892, 3139.00
1893, 3137.00
1894, 3138.00
1895, 3138.00
1896, 3137.00
1897, 3136.00
1898, 3135.00
1899, 3133.00
1900, 3133.00
1901, 3135.00
1902, 3133.00
1903, 3133.00
1904, 3132.00
1905, 3132.00
1906, 3131.00
1907, 3131.00
1908, 3129.00
1909, 3129.00
1910, 3131.00
1911, 3129.00
1912, 3130.00
1913, 3129.00
1914, 3127.00
1915, 3128.00
1916, 3127.00
1917, 3127.00
1918, 3128.00
1919, 3126.00
1920, 3127.00
1921, 3125.00
1922, 3128.00
1923, 3128.00
1924, 3127.00
1925, 3127.00
1926, 3125.00
1927, 3128.00
1928, 3128.00
1929, 3125.00
1930, 3125.00
1931, 3127.00
1932, 3127.00
1933, 3124.00
1934, 3126.00
1935, 3127.00
1936, 3127.00
1937, 3130.00
1938, 3128.00
1939, 3126.00
1940, 3126.00
1941, 3129.00
1942, 3130.00
1943, 3128.00
1944, 3130.00
1945, 3129.00
1946, 3128.00
1947, 3128.00
1948, 3128.00
1949, 3129.00
1950, 3129.00
1951, 3131.00
1952, 3130.00
1953, 3132.00
1954, 3133.00
1955, 3132.00
1956, 3134.00
1957, 3134.00
1958, 3135.00
1959, 3133.00
1960, 3136.00
1961, 3137.00
1962, 3136.00
1963, 3137.00
1964, 3139.00
1965, 3137.00
1966, 3139.00
1967, 3137.00
1968, 3139.00
1969, 3142.00
1970, 3142.00
1971, 3142.00
1972, 3144.00
1973, 3143.00
1974, 3142.00
1975, 3145.00
1976, 3146.00
1977, 3147.00
1978, 3149.00
1979, 3148.00
1980, 3147.00
1981, 3150.00
1982, 3150.00
1983, 3151.00
1984, 3151.00
1985, 3152.00
1986, 3151.00
1987, 3154.00
1988, 3154.00
1989, 3156.00
1990, 3156.00
1991, 3157.00
1992, 3156.00
1993, 3159.00
1994, 3159.00
1995, 3161.00
1996, 3161.00
1997, 3160.00
1998, 3162.00
1999, 3163.00
2000, 3164.00
2001, 3162.00
2002, 3165.00
2003, 3165.00
2004, 3167.00
2005, 3167.00
2006, 3169.00
2007, 3168.00
2008, 3169.00
2009, 3170.00
2010, 3170.00
2011, 3171.00
2012, 3170.00
2013, 3171.00
2014, 3175.00
2015, 3173.00
2016, 3173.00
2017, 3176.00
2018, 3176.00
2019, 3177.00
2020, 3178.00
2021, 3178.00
2022, 3178.00
2023, 3180.00
2024, 3181.00
2025, 3183.00
2026, 3183.00
2027, 3183.00
2028, 3186.00
2029, 3186.00
2030, 3183.00
2031, 3188.00
2032, 3188.00
2033, 3187.00
2034, 3189.00
2035, 3191.00
2036, 3192.00
2037, 3192.00
2038, 3192.00
2039, 3195.00
2040, 3196.00
2041, 3196.00
2042, 3199.00
2043, 3197.00
2044, 3198.00
2045, 3201.00
2046, 3201.00
2047, 3204.00
2048, 3202.00
2049, 3204.00
2050, 3205.00
2051, 3205.00
2052, 3207.00
2053, 3210.00
2054, 3210.00
2055, 3212.00
2056, 3214.00
2057, 3212.00
2058, 3213.00
2059, 3214.00
2060, 3216.00
2061, 3219.00
2062, 3218.00
2063, 3219.00
2064, 3220.00
2065, 3222.00
2066, 3224.00
2067, 3227.00
2068, 3228.00
2069, 3228.00
2070, 3227.00
2071, 3229.00
2072, 3231.00
2073, 3232.00
2074, 3235.00
2075, 3233.00
2076, 3236.00
2077, 3238.00
2078, 3236.00
2079, 3238.00
2080, 3239.00
2081, 3241.00
2082, 3239.00
2083, 3242.00
2084, 3243.00
2085, 3245.00
2086, 3246.00
2087, 3246.00
2088, 3248.00
2089, 3248.00
2090, 3250.00
2091, 3250.00
2092, 3252.00
2093, 3252.00
2094, 3252.00
2095, 3253.00
2096, 3255.00
2097, 3255.00
2098, 3254.00
2099, 3256.00
2100, 3255.00
2101, 3258.00
2102, 3258.00
2103, 3259.00
2104, 3259.00
2105, 3260.00
2106, 3262.00
2107, 3262.00
2108, 3263.00
2109, 3261.00
2110, 3263.00
2111, 3264.00
2112, 3266.00
2113, 3265.00
2114, 3266.00
2115, 3267.00
2116, 3269.00
2117, 3268.00
2118, 3269.00
2119, 3269.00
2120, 3269.00
2121, 3269.00
2122, 3270.00
2123, 3270.00
2124, 3272.00
2125, 3271.00
2126, 3270.00
2127, 3272.00
2128, 3274.00
2129, 3273.00
2130, 3275.00
2131, 3275.00
2132, 3276.00
2133, 3275.00
2134, 3277.00
2135, 3276.00
2136, 3277.00
2137, 3277.00
2138, 3278.00
2139, 3279.00
2140, 3279.00
2141, 3281.00
2142, 3280.00
2143, 3278.00
2144, 3279.00
2145, 3280.00
2146, 3280.00
2147, 3282.00
2148, 3283.00
2149, 3283.00
2150, 3283.00
