FW version: 24
Log Version: 3.0.3

General Info:
       Command/Macro Performed,            Timestamp,             Device ID, COM Port, UART/I2C, Test Name, Host Major, Host Minor, Host Revision, Host Git Commit
            Single_measurement,  2023_07_04_11_56_25,       Insight2_F4_xxx,    USB-C,      USB,          ,          0,          1,             1,      4031237645

Show Spectrometer Status:
l0_version, f4_version, battery_perc, battery_mVolt, accelerometer_temp, accelerometer_x, accelerometer_y, accelerometer_z, compass_temp, compass_x, compass_y, compass_z, lamp_0, lamp_1, gain_0, gain_1
        17,         24,           38,          1886,               6256,           65148,            2216,           19256,            0,     65406,     65530,     19259,   3276,   3276,      1,      1

Temperature Statistic Info:
NTC AVG [°C], NTC2 AVG [°C]
      39.175,        38.796

Statistic Info:
M1:  num,      min,      max,   median,      AVG,      STD,M2:  num,      min,      max,   median,      AVG,      STD
     301,  1919.00,  2176.00,  1977.00,  2004.57,  80.2631,     401,  2595.00,  2753.00,  2679.00,  2674.53,  53.2739,

Measurements:
Wavelength, Data Amplitude
1350, 1951.00
1351, 1951.00
1352, 1950.00
1353, 1951.00
1354, 1948.00
1355, 1949.00
1356, 1948.00
1357, 1949.00
1358, 1948.00
1359, 1947.00
1360, 1946.00
1361, 1946.00
1362, 1946.00
1363, 1944.00
1364, 1943.00
1365, 1942.00
1366, 1941.00
1367, 1941.00
1368, 1941.00
1369, 1939.00
1370, 1939.00
1371, 1937.00
1372, 1936.00
1373, 1935.00
1374, 1935.00
1375, 1934.00
1376, 1933.00
1377, 1932.00
1378, 1931.00
1379, 1931.00
1380, 1930.00
1381, 1930.00
1382, 1929.00
1383, 1928.00
1384, 1929.00
1385, 1927.00
1386, 1926.00
1387, 1925.00
1388, 1925.00
1389, 1924.00
1390, 1924.00
1391, 1924.00
1392, 1924.00
1393, 1924.00
1394, 1923.00
1395, 1922.00
1396, 1923.00
1397, 1921.00
1398, 1922.00
1399, 1921.00
1400, 1920.00
1401, 1922.00
1402, 1922.00
1403, 1920.00
1404, 1921.00
1405, 1921.00
1406, 1920.00
1407, 1921.00
1408, 1921.00
1409, 1920.00
1410, 1919.00
1411, 1921.00
1412, 1921.00
1413, 1920.00
1414, 1919.00
1415, 1919.00
1416, 1919.00
1417, 1919.00
1418, 1921.00
1419, 1919.00
1420, 1919.00
1421, 1921.00
1422, 1919.00
1423, 1920.00
1424, 1920.00
1425, 1920.00
1426, 1921.00
1427, 1921.00
1428, 1921.00
1429, 1921.00
1430, 1922.00
1431, 1922.00
1432, 1923.00
1433, 1924.00
1434, 1923.00
1435, 1925.00
1436, 1924.00
1437, 1925.00
1438, 1925.00
1439, 1926.00
1440, 1927.00
1441, 1926.00
1442, 1928.00
1443, 1928.00
1444, 1928.00
1445, 1930.00
1446, 1929.00
1447, 1931.00
1448, 1930.00
1449, 1931.00
1450, 1933.00
1451, 1932.00
1452, 1934.00
1453, 1934.00
1454, 1934.00
1455, 1935.00
1456, 1936.00
1457, 1935.00
1458, 1938.00
1459, 1938.00
1460, 1939.00
1461, 1939.00
1462, 1941.00
1463, 1940.00
1464, 1940.00
1465, 1943.00
1466, 1943.00
1467, 1944.00
1468, 1944.00
1469, 1946.00
1470, 1947.00
1471, 1947.00
1472, 1948.00
1473, 1949.00
1474, 1950.00
1475, 1951.00
1476, 1952.00
1477, 1953.00
1478, 1953.00
1479, 1955.00
1480, 1957.00
1481, 1957.00
1482, 1958.00
1483, 1959.00
1484, 1961.00
1485, 1961.00
1486, 1963.00
1487, 1963.00
1488, 1965.00
1489, 1966.00
1490, 1966.00
1491, 1968.00
1492, 1969.00
1493, 1970.00
1494, 1970.00
1495, 1971.00
1496, 1973.00
1497, 1974.00
1498, 1975.00
1499, 1976.00
1500, 1977.00
1501, 1978.00
1502, 1979.00
1503, 1980.00
1504, 1981.00
1505, 1983.00
1506, 1983.00
1507, 1984.00
1508, 1985.00
1509, 1986.00
1510, 1988.00
1511, 1988.00
1512, 1989.00
1513, 1991.00
1514, 1992.00
1515, 1993.00
1516, 1995.00
1517, 1996.00
1518, 1997.00
1519, 1999.00
1520, 1999.00
1521, 2001.00
1522, 2001.00
1523, 2004.00
1524, 2005.00
1525, 2005.00
1526, 2007.00
1527, 2007.00
1528, 2010.00
1529, 2011.00
1530, 2011.00
1531, 2012.00
1532, 2015.00
1533, 2015.00
1534, 2016.00
1535, 2019.00
1536, 2019.00
1537, 2019.00
1538, 2022.00
1539, 2022.00
1540, 2024.00
1541, 2024.00
1542, 2026.00
1543, 2029.00
1544, 2029.00
1545, 2029.00
1546, 2031.00
1547, 2032.00
1548, 2035.00
1549, 2035.00
1550, 2035.00
1551, 2036.00
1552, 2039.00
1553, 2041.00
1554, 2042.00
1555, 2043.00
1556, 2043.00
1557, 2046.00
1558, 2047.00
1559, 2049.00
1560, 2050.00
1561, 2053.00
1562, 2053.00
1563, 2054.00
1564, 2056.00
1565, 2058.00
1566, 2059.00
1567, 2061.00
1568, 2061.00
1569, 2063.00
1570, 2064.00
1571, 2065.00
1572, 2068.00
1573, 2069.00
1574, 2070.00
1575, 2071.00
1576, 2073.00
1577, 2074.00
1578, 2076.00
1579, 2077.00
1580, 2078.00
1581, 2081.00
1582, 2080.00
1583, 2081.00
1584, 2083.00
1585, 2085.00
1586, 2086.00
1587, 2086.00
1588, 2088.00
1589, 2089.00
1590, 2090.00
1591, 2091.00
1592, 2092.00
1593, 2094.00
1594, 2095.00
1595, 2097.00
1596, 2098.00
1597, 2099.00
1598, 2101.00
1599, 2101.00
1600, 2104.00
1601, 2104.00
1602, 2105.00
1603, 2106.00
1604, 2108.00
1605, 2109.00
1606, 2111.00
1607, 2112.00
1608, 2113.00
1609, 2116.00
1610, 2117.00
1611, 2118.00
1612, 2120.00
1613, 2122.00
1614, 2122.00
1615, 2125.00
1616, 2127.00
1617, 2128.00
1618, 2130.00
1619, 2132.00
1620, 2133.00
1621, 2133.00
1622, 2136.00
1623, 2137.00
1624, 2140.00
1625, 2141.00
1626, 2142.00
1627, 2144.00
1628, 2145.00
1629, 2147.00
1630, 2148.00
1631, 2150.00
1632, 2151.00
1633, 2153.00
1634, 2154.00
1635, 2156.00
1636, 2157.00
1637, 2159.00
1638, 2159.00
1639, 2162.00
1640, 2162.00
1641, 2164.00
1642, 2165.00
1643, 2165.00
1644, 2167.00
1645, 2169.00
1646, 2169.00
1647, 2171.00
1648, 2173.00
1649, 2175.00
1650, 2176.00

1750, 2750.00
1751, 2750.00
1752, 2751.00
1753, 2749.00
1754, 2751.00
1755, 2751.00
1756, 2750.00
1757, 2750.00
1758, 2749.00
1759, 2750.00
1760, 2749.00
1761, 2751.00
1762, 2753.00
1763, 2751.00
1764, 2750.00
1765, 2750.00
1766, 2750.00
1767, 2749.00
1768, 2750.00
1769, 2749.00
1770, 2748.00
1771, 2747.00
1772, 2747.00
1773, 2746.00
1774, 2746.00
1775, 2746.00
1776, 2746.00
1777, 2743.00
1778, 2745.00
1779, 2745.00
1780, 2744.00
1781, 2744.00
1782, 2743.00
1783, 2741.00
1784, 2742.00
1785, 2740.00
1786, 2740.00
1787, 2739.00
1788, 2739.00
1789, 2739.00
1790, 2738.00
1791, 2737.00
1792, 2736.00
1793, 2738.00
1794, 2736.00
1795, 2736.00
1796, 2733.00
1797, 2736.00
1798, 2733.00
1799, 2735.00
1800, 2735.00
1801, 2734.00
1802, 2732.00
1803, 2733.00
1804, 2731.00
1805, 2733.00
1806, 2730.00
1807, 2731.00
1808, 2730.00
1809, 2730.00
1810, 2730.00
1811, 2730.00
1812, 2728.00
1813, 2730.00
1814, 2728.00
1815, 2727.00
1816, 2729.00
1817, 2727.00
1818, 2726.00
1819, 2726.00
1820, 2726.00
1821, 2725.00
1822, 2721.00
1823, 2722.00
1824, 2723.00
1825, 2720.00
1826, 2718.00
1827, 2720.00
1828, 2719.00
1829, 2719.00
1830, 2717.00
1831, 2713.00
1832, 2713.00
1833, 2711.00
1834, 2710.00
1835, 2708.00
1836, 2706.00
1837, 2704.00
1838, 2704.00
1839, 2700.00
1840, 2700.00
1841, 2698.00
1842, 2697.00
1843, 2694.00
1844, 2692.00
1845, 2690.00
1846, 2687.00
1847, 2686.00
1848, 2683.00
1849, 2679.00
1850, 2679.00
1851, 2675.00
1852, 2673.00
1853, 2671.00
1854, 2667.00
1855, 2664.00
1856, 2663.00
1857, 2661.00
1858, 2657.00
1859, 2655.00
1860, 2653.00
1861, 2652.00
1862, 2648.00
1863, 2645.00
1864, 2642.00
1865, 2640.00
1866, 2638.00
1867, 2636.00
1868, 2635.00
1869, 2633.00
1870, 2629.00
1871, 2629.00
1872, 2626.00
1873, 2624.00
1874, 2624.00
1875, 2620.00
1876, 2619.00
1877, 2619.00
1878, 2617.00
1879, 2617.00
1880, 2615.00
1881, 2615.00
1882, 2613.00
1883, 2612.00
1884, 2612.00
1885, 2610.00
1886, 2610.00
1887, 2610.00
1888, 2607.00
1889, 2608.00
1890, 2605.00
1891, 2607.00
1892, 2605.00
1893, 2603.00
1894, 2603.00
1895, 2603.00
1896, 2603.00
1897, 2602.00
1898, 2603.00
1899, 2602.00
1900, 2602.00
1901, 2600.00
1902, 2600.00
1903, 2598.00
1904, 2601.00
1905, 2600.00
1906, 2599.00
1907, 2599.00
1908, 2599.00
1909, 2599.00
1910, 2598.00
1911, 2597.00
1912, 2597.00
1913, 2597.00
1914, 2599.00
1915, 2596.00
1916, 2597.00
1917, 2598.00
1918, 2598.00
1919, 2595.00
1920, 2597.00
1921, 2597.00
1922, 2596.00
1923, 2599.00
1924, 2597.00
1925, 2596.00
1926, 2598.00
1927, 2597.00
1928, 2599.00
1929, 2598.00
1930, 2598.00
1931, 2599.00
1932, 2597.00
1933, 2598.00
1934, 2599.00
1935, 2599.00
1936, 2598.00
1937, 2601.00
1938, 2599.00
1939, 2599.00
1940, 2600.00
1941, 2603.00
1942, 2602.00
1943, 2603.00
1944, 2603.00
1945, 2599.00
1946, 2601.00
1947, 2602.00
1948, 2604.00
1949, 2603.00
1950, 2603.00
1951, 2605.00
1952, 2605.00
1953, 2605.00
1954, 2606.00
1955, 2606.00
1956, 2607.00
1957, 2607.00
1958, 2608.00
1959, 2609.00
1960, 2610.00
1961, 2611.00
1962, 2611.00
1963, 2611.00
1964, 2613.00
1965, 2613.00
1966, 2613.00
1967, 2614.00
1968, 2615.00
1969, 2615.00
1970, 2616.00
1971, 2615.00
1972, 2617.00
1973, 2619.00
1974, 2619.00
1975, 2621.00
1976, 2620.00
1977, 2620.00
1978, 2623.00
1979, 2623.00
1980, 2624.00
1981, 2625.00
1982, 2624.00
1983, 2626.00
1984, 2626.00
1985, 2628.00
1986, 2627.00
1987, 2628.00
1988, 2629.00
1989, 2629.00
1990, 2632.00
1991, 2632.00
1992, 2631.00
1993, 2632.00
1994, 2635.00
1995, 2635.00
1996, 2636.00
1997, 2637.00
1998, 2638.00
1999, 2637.00
2000, 2639.00
2001, 2640.00
2002, 2640.00
2003, 2642.00
2004, 2643.00
2005, 2643.00
2006, 2643.00
2007, 2644.00
2008, 2644.00
2009, 2644.00
2010, 2647.00
2011, 2649.00
2012, 2647.00
2013, 2646.00
2014, 2649.00
2015, 2650.00
2016, 2650.00
2017, 2649.00
2018, 2652.00
2019, 2651.00
2020, 2652.00
2021, 2652.00
2022, 2655.00
2023, 2654.00
2024, 2655.00
2025, 2655.00
2026, 2656.00
2027, 2657.00
2028, 2658.00
2029, 2660.00
2030, 2661.00
2031, 2661.00
2032, 2660.00
2033, 2662.00
2034, 2662.00
2035, 2665.00
2036, 2665.00
2037, 2664.00
2038, 2665.00
2039, 2667.00
2040, 2668.00
2041, 2669.00
2042, 2670.00
2043, 2671.00
2044, 2671.00
2045, 2672.00
2046, 2674.00
2047, 2675.00
2048, 2675.00
2049, 2675.00
2050, 2677.00
2051, 2679.00
2052, 2680.00
2053, 2681.00
2054, 2682.00
2055, 2685.00
2056, 2683.00
2057, 2685.00
2058, 2686.00
2059, 2685.00
2060, 2686.00
2061, 2690.00
2062, 2689.00
2063, 2690.00
2064, 2691.00
2065, 2693.00
2066, 2694.00
2067, 2693.00
2068, 2696.00
2069, 2695.00
2070, 2697.00
2071, 2698.00
2072, 2699.00
2073, 2702.00
2074, 2702.00
2075, 2702.00
2076, 2705.00
2077, 2705.00
2078, 2705.00
2079, 2704.00
2080, 2705.00
2081, 2710.00
2082, 2708.00
2083, 2710.00
2084, 2710.00
2085, 2712.00
2086, 2712.00
2087, 2713.00
2088, 2714.00
2089, 2713.00
2090, 2716.00
2091, 2715.00
2092, 2715.00
2093, 2717.00
2094, 2716.00
2095, 2716.00
2096, 2719.00
2097, 2718.00
2098, 2719.00
2099, 2719.00
2100, 2718.00
2101, 2720.00
2102, 2722.00
2103, 2721.00
2104, 2722.00
2105, 2722.00
2106, 2724.00
2107, 2724.00
2108, 2724.00
2109, 2723.00
2110, 2725.00
2111, 2727.00
2112, 2725.00
2113, 2727.00
2114, 2727.00
2115, 2724.00
2116, 2727.00
2117, 2728.00
2118, 2728.00
2119, 2729.00
2120, 2729.00
2121, 2730.00
2122, 2727.00
2123, 2729.00
2124, 2730.00
2125, 2731.00
2126, 2730.00
2127, 2731.00
2128, 2730.00
2129, 2733.00
2130, 2731.00
2131, 2731.00
2132, 2733.00
2133, 2731.00
2134, 2733.00
2135, 2732.00
2136, 2732.00
2137, 2733.00
2138, 2733.00
2139, 2734.00
2140, 2731.00
2141, 2735.00
2142, 2735.00
2143, 2734.00
2144, 2736.00
2145, 2737.00
2146, 2738.00
2147, 2735.00
2148, 2735.00
2149, 2737.00
2150, 2734.00
