FW version: 24
Log Version: 3.0.3

General Info:
       Command/Macro Performed,            Timestamp,             Device ID, COM Port, UART/I2C, Test Name, Host Major, Host Minor, Host Revision, Host Git Commit
            Single_measurement,  2023_07_11_10_40_50,       Insight2_F4_xxx,    USB-C,      USB,          ,          0,          1,             1,      4031237645

Show Spectrometer Status:
l0_version, f4_version, battery_perc, battery_mVolt, accelerometer_temp, accelerometer_x, accelerometer_y, accelerometer_z, compass_temp, compass_x, compass_y, compass_z, lamp_0, lamp_1, gain_0, gain_1
        17,         24,           49,          1907,               5792,           65288,              44,           18668,            0,     65357,     65388,     18687,   2457,   2457,      1,      1

Temperature Statistic Info:
NTC AVG [°C], NTC2 AVG [°C]
      37.063,        36.722

Statistic Info:
M1:  num,      min,      max,   median,      AVG,      STD,M2:  num,      min,      max,   median,      AVG,      STD
     301,  1095.00,  1260.00,  1130.00,  1149.50,  51.2607,     401,  1535.00,  1637.00,  1580.00,  1582.19,  33.5210,

Measurements:
Wavelength, Data Amplitude
1350, 1121.00
1351, 1121.00
1352, 1121.00
1353, 1121.00
1354, 1119.00
1355, 1119.00
1356, 1118.00
1357, 1118.00
1358, 1118.00
1359, 1117.00
1360, 1117.00
1361, 1116.00
1362, 1115.00
1363, 1115.00
1364, 1114.00
1365, 1114.00
1366, 1113.00
1367, 1111.00
1368, 1111.00
1369, 1110.00
1370, 1110.00
1371, 1109.00
1372, 1109.00
1373, 1108.00
1374, 1106.00
1375, 1106.00
1376, 1106.00
1377, 1105.00
1378, 1104.00
1379, 1104.00
1380, 1103.00
1381, 1102.00
1382, 1102.00
1383, 1102.00
1384, 1102.00
1385, 1101.00
1386, 1102.00
1387, 1101.00
1388, 1100.00
1389, 1100.00
1390, 1100.00
1391, 1099.00
1392, 1099.00
1393, 1099.00
1394, 1098.00
1395, 1098.00
1396, 1098.00
1397, 1097.00
1398, 1097.00
1399, 1097.00
1400, 1096.00
1401, 1097.00
1402, 1097.00
1403, 1098.00
1404, 1096.00
1405, 1097.00
1406, 1097.00
1407, 1096.00
1408, 1096.00
1409, 1096.00
1410, 1096.00
1411, 1097.00
1412, 1096.00
1413, 1096.00
1414, 1096.00
1415, 1096.00
1416, 1096.00
1417, 1096.00
1418, 1096.00
1419, 1095.00
1420, 1096.00
1421, 1096.00
1422, 1096.00
1423, 1096.00
1424, 1096.00
1425, 1096.00
1426, 1097.00
1427, 1097.00
1428, 1097.00
1429, 1096.00
1430, 1097.00
1431, 1097.00
1432, 1097.00
1433, 1097.00
1434, 1098.00
1435, 1098.00
1436, 1097.00
1437, 1097.00
1438, 1098.00
1439, 1098.00
1440, 1099.00
1441, 1099.00
1442, 1099.00
1443, 1101.00
1444, 1101.00
1445, 1100.00
1446, 1101.00
1447, 1100.00
1448, 1101.00
1449, 1102.00
1450, 1102.00
1451, 1102.00
1452, 1103.00
1453, 1103.00
1454, 1103.00
1455, 1104.00
1456, 1104.00
1457, 1105.00
1458, 1105.00
1459, 1106.00
1460, 1106.00
1461, 1107.00
1462, 1106.00
1463, 1107.00
1464, 1108.00
1465, 1108.00
1466, 1109.00
1467, 1110.00
1468, 1110.00
1469, 1110.00
1470, 1110.00
1471, 1112.00
1472, 1111.00
1473, 1113.00
1474, 1113.00
1475, 1114.00
1476, 1114.00
1477, 1116.00
1478, 1116.00
1479, 1115.00
1480, 1116.00
1481, 1118.00
1482, 1118.00
1483, 1119.00
1484, 1118.00
1485, 1120.00
1486, 1121.00
1487, 1120.00
1488, 1122.00
1489, 1122.00
1490, 1123.00
1491, 1123.00
1492, 1124.00
1493, 1125.00
1494, 1125.00
1495, 1128.00
1496, 1127.00
1497, 1128.00
1498, 1128.00
1499, 1129.00
1500, 1130.00
1501, 1131.00
1502, 1131.00
1503, 1131.00
1504, 1133.00
1505, 1134.00
1506, 1133.00
1507, 1135.00
1508, 1136.00
1509, 1135.00
1510, 1137.00
1511, 1137.00
1512, 1138.00
1513, 1139.00
1514, 1140.00
1515, 1141.00
1516, 1142.00
1517, 1143.00
1518, 1144.00
1519, 1144.00
1520, 1146.00
1521, 1146.00
1522, 1146.00
1523, 1147.00
1524, 1148.00
1525, 1148.00
1526, 1151.00
1527, 1151.00
1528, 1152.00
1529, 1153.00
1530, 1153.00
1531, 1153.00
1532, 1154.00
1533, 1156.00
1534, 1156.00
1535, 1157.00
1536, 1158.00
1537, 1159.00
1538, 1160.00
1539, 1161.00
1540, 1161.00
1541, 1162.00
1542, 1163.00
1543, 1164.00
1544, 1164.00
1545, 1166.00
1546, 1167.00
1547, 1167.00
1548, 1168.00
1549, 1170.00
1550, 1169.00
1551, 1171.00
1552, 1172.00
1553, 1171.00
1554, 1173.00
1555, 1173.00
1556, 1175.00
1557, 1176.00
1558, 1177.00
1559, 1177.00
1560, 1178.00
1561, 1179.00
1562, 1180.00
1563, 1180.00
1564, 1182.00
1565, 1183.00
1566, 1183.00
1567, 1185.00
1568, 1185.00
1569, 1186.00
1570, 1187.00
1571, 1187.00
1572, 1190.00
1573, 1190.00
1574, 1190.00
1575, 1192.00
1576, 1193.00
1577, 1193.00
1578, 1194.00
1579, 1195.00
1580, 1196.00
1581, 1196.00
1582, 1197.00
1583, 1197.00
1584, 1199.00
1585, 1200.00
1586, 1201.00
1587, 1201.00
1588, 1202.00
1589, 1202.00
1590, 1203.00
1591, 1204.00
1592, 1205.00
1593, 1206.00
1594, 1208.00
1595, 1207.00
1596, 1209.00
1597, 1209.00
1598, 1210.00
1599, 1211.00
1600, 1212.00
1601, 1213.00
1602, 1213.00
1603, 1215.00
1604, 1216.00
1605, 1217.00
1606, 1218.00
1607, 1219.00
1608, 1219.00
1609, 1220.00
1610, 1221.00
1611, 1222.00
1612, 1223.00
1613, 1224.00
1614, 1226.00
1615, 1226.00
1616, 1227.00
1617, 1229.00
1618, 1229.00
1619, 1230.00
1620, 1232.00
1621, 1233.00
1622, 1234.00
1623, 1235.00
1624, 1237.00
1625, 1237.00
1626, 1238.00
1627, 1240.00
1628, 1240.00
1629, 1242.00
1630, 1243.00
1631, 1242.00
1632, 1245.00
1633, 1246.00
1634, 1246.00
1635, 1247.00
1636, 1248.00
1637, 1249.00
1638, 1250.00
1639, 1251.00
1640, 1251.00
1641, 1251.00
1642, 1254.00
1643, 1254.00
1644, 1255.00
1645, 1256.00
1646, 1257.00
1647, 1257.00
1648, 1258.00
1649, 1259.00
1650, 1260.00

1750, 1635.00
1751, 1636.00
1752, 1635.00
1753, 1634.00
1754, 1636.00
1755, 1636.00
1756, 1635.00
1757, 1637.00
1758, 1635.00
1759, 1636.00
1760, 1635.00
1761, 1636.00
1762, 1637.00
1763, 1637.00
1764, 1636.00
1765, 1636.00
1766, 1634.00
1767, 1635.00
1768, 1635.00
1769, 1634.00
1770, 1635.00
1771, 1636.00
1772, 1635.00
1773, 1632.00
1774, 1633.00
1775, 1634.00
1776, 1632.00
1777, 1633.00
1778, 1633.00
1779, 1633.00
1780, 1631.00
1781, 1632.00
1782, 1629.00
1783, 1631.00
1784, 1630.00
1785, 1630.00
1786, 1630.00
1787, 1631.00
1788, 1631.00
1789, 1629.00
1790, 1630.00
1791, 1629.00
1792, 1629.00
1793, 1627.00
1794, 1627.00
1795, 1631.00
1796, 1625.00
1797, 1625.00
1798, 1627.00
1799, 1626.00
1800, 1626.00
1801, 1625.00
1802, 1624.00
1803, 1626.00
1804, 1624.00
1805, 1622.00
1806, 1624.00
1807, 1624.00
1808, 1622.00
1809, 1622.00
1810, 1624.00
1811, 1623.00
1812, 1622.00
1813, 1621.00
1814, 1620.00
1815, 1621.00
1816, 1621.00
1817, 1618.00
1818, 1619.00
1819, 1619.00
1820, 1617.00
1821, 1617.00
1822, 1616.00
1823, 1617.00
1824, 1615.00
1825, 1616.00
1826, 1614.00
1827, 1613.00
1828, 1613.00
1829, 1611.00
1830, 1609.00
1831, 1610.00
1832, 1608.00
1833, 1608.00
1834, 1608.00
1835, 1605.00
1836, 1603.00
1837, 1604.00
1838, 1602.00
1839, 1600.00
1840, 1600.00
1841, 1598.00
1842, 1596.00
1843, 1593.00
1844, 1594.00
1845, 1591.00
1846, 1591.00
1847, 1591.00
1848, 1587.00
1849, 1585.00
1850, 1584.00
1851, 1582.00
1852, 1580.00
1853, 1581.00
1854, 1577.00
1855, 1576.00
1856, 1575.00
1857, 1575.00
1858, 1571.00
1859, 1571.00
1860, 1567.00
1861, 1567.00
1862, 1567.00
1863, 1564.00
1864, 1564.00
1865, 1562.00
1866, 1560.00
1867, 1561.00
1868, 1558.00
1869, 1557.00
1870, 1558.00
1871, 1556.00
1872, 1553.00
1873, 1553.00
1874, 1551.00
1875, 1552.00
1876, 1552.00
1877, 1548.00
1878, 1550.00
1879, 1548.00
1880, 1549.00
1881, 1547.00
1882, 1547.00
1883, 1547.00
1884, 1545.00
1885, 1544.00
1886, 1544.00
1887, 1543.00
1888, 1544.00
1889, 1543.00
1890, 1545.00
1891, 1541.00
1892, 1544.00
1893, 1543.00
1894, 1543.00
1895, 1542.00
1896, 1541.00
1897, 1541.00
1898, 1541.00
1899, 1541.00
1900, 1540.00
1901, 1540.00
1902, 1539.00
1903, 1540.00
1904, 1540.00
1905, 1540.00
1906, 1538.00
1907, 1539.00
1908, 1539.00
1909, 1537.00
1910, 1538.00
1911, 1539.00
1912, 1540.00
1913, 1540.00
1914, 1540.00
1915, 1539.00
1916, 1538.00
1917, 1538.00
1918, 1540.00
1919, 1537.00
1920, 1538.00
1921, 1537.00
1922, 1537.00
1923, 1538.00
1924, 1538.00
1925, 1536.00
1926, 1537.00
1927, 1538.00
1928, 1537.00
1929, 1535.00
1930, 1535.00
1931, 1536.00
1932, 1539.00
1933, 1538.00
1934, 1538.00
1935, 1538.00
1936, 1537.00
1937, 1538.00
1938, 1540.00
1939, 1538.00
1940, 1536.00
1941, 1539.00
1942, 1538.00
1943, 1539.00
1944, 1537.00
1945, 1538.00
1946, 1539.00
1947, 1539.00
1948, 1540.00
1949, 1540.00
1950, 1540.00
1951, 1539.00
1952, 1541.00
1953, 1538.00
1954, 1539.00
1955, 1541.00
1956, 1541.00
1957, 1541.00
1958, 1542.00
1959, 1542.00
1960, 1542.00
1961, 1542.00
1962, 1543.00
1963, 1542.00
1964, 1542.00
1965, 1545.00
1966, 1544.00
1967, 1544.00
1968, 1546.00
1969, 1545.00
1970, 1546.00
1971, 1545.00
1972, 1547.00
1973, 1546.00
1974, 1546.00
1975, 1547.00
1976, 1548.00
1977, 1549.00
1978, 1549.00
1979, 1548.00
1980, 1550.00
1981, 1549.00
1982, 1550.00
1983, 1552.00
1984, 1552.00
1985, 1552.00
1986, 1552.00
1987, 1552.00
1988, 1552.00
1989, 1553.00
1990, 1553.00
1991, 1554.00
1992, 1554.00
1993, 1553.00
1994, 1555.00
1995, 1555.00
1996, 1554.00
1997, 1555.00
1998, 1556.00
1999, 1557.00
2000, 1557.00
2001, 1556.00
2002, 1556.00
2003, 1557.00
2004, 1558.00
2005, 1557.00
2006, 1560.00
2007, 1558.00
2008, 1561.00
2009, 1560.00
2010, 1559.00
2011, 1560.00
2012, 1561.00
2013, 1560.00
2014, 1562.00
2015, 1562.00
2016, 1563.00
2017, 1562.00
2018, 1563.00
2019, 1562.00
2020, 1564.00
2021, 1564.00
2022, 1566.00
2023, 1564.00
2024, 1565.00
2025, 1566.00
2026, 1567.00
2027, 1566.00
2028, 1567.00
2029, 1567.00
2030, 1568.00
2031, 1568.00
2032, 1568.00
2033, 1571.00
2034, 1569.00
2035, 1571.00
2036, 1572.00
2037, 1572.00
2038, 1572.00
2039, 1573.00
2040, 1573.00
2041, 1574.00
2042, 1573.00
2043, 1575.00
2044, 1574.00
2045, 1575.00
2046, 1576.00
2047, 1578.00
2048, 1577.00
2049, 1578.00
2050, 1579.00
2051, 1579.00
2052, 1579.00
2053, 1580.00
2054, 1583.00
2055, 1581.00
2056, 1583.00
2057, 1582.00
2058, 1584.00
2059, 1585.00
2060, 1585.00
2061, 1585.00
2062, 1584.00
2063, 1585.00
2064, 1586.00
2065, 1589.00
2066, 1588.00
2067, 1588.00
2068, 1589.00
2069, 1589.00
2070, 1590.00
2071, 1590.00
2072, 1591.00
2073, 1591.00
2074, 1593.00
2075, 1595.00
2076, 1594.00
2077, 1594.00
2078, 1596.00
2079, 1595.00
2080, 1597.00
2081, 1597.00
2082, 1598.00
2083, 1598.00
2084, 1601.00
2085, 1600.00
2086, 1601.00
2087, 1600.00
2088, 1601.00
2089, 1603.00
2090, 1602.00
2091, 1603.00
2092, 1603.00
2093, 1602.00
2094, 1603.00
2095, 1604.00
2096, 1604.00
2097, 1603.00
2098, 1604.00
2099, 1606.00
2100, 1607.00
2101, 1607.00
2102, 1606.00
2103, 1605.00
2104, 1608.00
2105, 1607.00
2106, 1608.00
2107, 1609.00
2108, 1608.00
2109, 1609.00
2110, 1608.00
2111, 1608.00
2112, 1611.00
2113, 1609.00
2114, 1609.00
2115, 1608.00
2116, 1609.00
2117, 1609.00
2118, 1611.00
2119, 1611.00
2120, 1611.00
2121, 1613.00
2122, 1613.00
2123, 1611.00
2124, 1611.00
2125, 1613.00
2126, 1614.00
2127, 1612.00
2128, 1615.00
2129, 1614.00
2130, 1613.00
2131, 1614.00
2132, 1615.00
2133, 1615.00
2134, 1615.00
2135, 1617.00
2136, 1615.00
2137, 1615.00
2138, 1615.00
2139, 1614.00
2140, 1616.00
2141, 1617.00
2142, 1616.00
2143, 1617.00
2144, 1616.00
2145, 1617.00
2146, 1616.00
2147, 1616.00
2148, 1617.00
2149, 1616.00
2150, 1618.00
