FW version: 24
Log Version: 3.0.3

General Info:
       Command/Macro Performed,            Timestamp,             Device ID, COM Port, UART/I2C, Test Name, Host Major, Host Minor, Host Revision, Host Git Commit
            Single_measurement,  2023_07_11_10_40_19,       Insight2_F4_xxx,    USB-C,      USB,          ,          0,          1,             1,      4031237645

Show Spectrometer Status:
l0_version, f4_version, battery_perc, battery_mVolt, accelerometer_temp, accelerometer_x, accelerometer_y, accelerometer_z, compass_temp, compass_x, compass_y, compass_z, lamp_0, lamp_1, gain_0, gain_1
        17,         24,           49,          1904,               5744,           65312,              32,           18688,            0,     65385,     65376,     18777,   3276,   3276,      0,      0

Temperature Statistic Info:
NTC AVG [°C], NTC2 AVG [°C]
      36.807,        36.465

Statistic Info:
M1:  num,      min,      max,   median,      AVG,      STD,M2:  num,      min,      max,   median,      AVG,      STD
     301,   657.00,   749.00,   676.00,   687.52,  28.6613,     401,   854.00,   911.00,   878.00,   879.38,  18.3086,

Measurements:
Wavelength, Data Amplitude
1350, 674.00
1351, 674.00
1352, 674.00
1353, 673.00
1354, 673.00
1355, 673.00
1356, 673.00
1357, 672.00
1358, 672.00
1359, 671.00
1360, 672.00
1361, 671.00
1362, 670.00
1363, 670.00
1364, 669.00
1365, 669.00
1366, 669.00
1367, 668.00
1368, 668.00
1369, 667.00
1370, 667.00
1371, 666.00
1372, 666.00
1373, 665.00
1374, 666.00
1375, 665.00
1376, 664.00
1377, 663.00
1378, 663.00
1379, 663.00
1380, 663.00
1381, 662.00
1382, 662.00
1383, 662.00
1384, 661.00
1385, 661.00
1386, 661.00
1387, 661.00
1388, 660.00
1389, 660.00
1390, 660.00
1391, 660.00
1392, 660.00
1393, 660.00
1394, 660.00
1395, 659.00
1396, 660.00
1397, 659.00
1398, 659.00
1399, 658.00
1400, 659.00
1401, 659.00
1402, 658.00
1403, 658.00
1404, 658.00
1405, 658.00
1406, 658.00
1407, 658.00
1408, 658.00
1409, 658.00
1410, 658.00
1411, 658.00
1412, 658.00
1413, 658.00
1414, 657.00
1415, 657.00
1416, 657.00
1417, 657.00
1418, 657.00
1419, 657.00
1420, 657.00
1421, 657.00
1422, 657.00
1423, 658.00
1424, 658.00
1425, 657.00
1426, 658.00
1427, 658.00
1428, 658.00
1429, 658.00
1430, 658.00
1431, 658.00
1432, 658.00
1433, 658.00
1434, 658.00
1435, 658.00
1436, 659.00
1437, 658.00
1438, 659.00
1439, 659.00
1440, 659.00
1441, 659.00
1442, 659.00
1443, 659.00
1444, 660.00
1445, 660.00
1446, 660.00
1447, 660.00
1448, 660.00
1449, 660.00
1450, 660.00
1451, 661.00
1452, 661.00
1453, 661.00
1454, 661.00
1455, 661.00
1456, 662.00
1457, 662.00
1458, 662.00
1459, 663.00
1460, 662.00
1461, 663.00
1462, 663.00
1463, 663.00
1464, 664.00
1465, 663.00
1466, 664.00
1467, 664.00
1468, 664.00
1469, 665.00
1470, 665.00
1471, 666.00
1472, 666.00
1473, 666.00
1474, 667.00
1475, 667.00
1476, 667.00
1477, 667.00
1478, 668.00
1479, 668.00
1480, 668.00
1481, 669.00
1482, 669.00
1483, 669.00
1484, 670.00
1485, 670.00
1486, 671.00
1487, 671.00
1488, 672.00
1489, 672.00
1490, 672.00
1491, 673.00
1492, 674.00
1493, 674.00
1494, 674.00
1495, 674.00
1496, 674.00
1497, 674.00
1498, 675.00
1499, 675.00
1500, 676.00
1501, 676.00
1502, 677.00
1503, 676.00
1504, 677.00
1505, 678.00
1506, 678.00
1507, 679.00
1508, 679.00
1509, 679.00
1510, 680.00
1511, 681.00
1512, 680.00
1513, 681.00
1514, 682.00
1515, 682.00
1516, 682.00
1517, 683.00
1518, 683.00
1519, 683.00
1520, 684.00
1521, 685.00
1522, 685.00
1523, 686.00
1524, 686.00
1525, 686.00
1526, 686.00
1527, 687.00
1528, 687.00
1529, 688.00
1530, 689.00
1531, 690.00
1532, 690.00
1533, 690.00
1534, 690.00
1535, 691.00
1536, 692.00
1537, 692.00
1538, 693.00
1539, 693.00
1540, 694.00
1541, 694.00
1542, 694.00
1543, 695.00
1544, 695.00
1545, 696.00
1546, 696.00
1547, 697.00
1548, 697.00
1549, 698.00
1550, 698.00
1551, 699.00
1552, 699.00
1553, 700.00
1554, 700.00
1555, 701.00
1556, 701.00
1557, 702.00
1558, 702.00
1559, 702.00
1560, 703.00
1561, 704.00
1562, 704.00
1563, 705.00
1564, 705.00
1565, 706.00
1566, 707.00
1567, 707.00
1568, 708.00
1569, 708.00
1570, 708.00
1571, 709.00
1572, 709.00
1573, 710.00
1574, 710.00
1575, 711.00
1576, 712.00
1577, 712.00
1578, 713.00
1579, 713.00
1580, 714.00
1581, 714.00
1582, 715.00
1583, 715.00
1584, 715.00
1585, 716.00
1586, 716.00
1587, 717.00
1588, 717.00
1589, 718.00
1590, 718.00
1591, 718.00
1592, 719.00
1593, 720.00
1594, 720.00
1595, 720.00
1596, 721.00
1597, 721.00
1598, 722.00
1599, 722.00
1600, 723.00
1601, 723.00
1602, 724.00
1603, 724.00
1604, 725.00
1605, 725.00
1606, 725.00
1607, 727.00
1608, 727.00
1609, 728.00
1610, 728.00
1611, 728.00
1612, 729.00
1613, 729.00
1614, 730.00
1615, 731.00
1616, 731.00
1617, 732.00
1618, 733.00
1619, 733.00
1620, 734.00
1621, 735.00
1622, 735.00
1623, 736.00
1624, 736.00
1625, 737.00
1626, 737.00
1627, 738.00
1628, 739.00
1629, 739.00
1630, 740.00
1631, 740.00
1632, 740.00
1633, 741.00
1634, 741.00
1635, 742.00
1636, 742.00
1637, 744.00
1638, 744.00
1639, 744.00
1640, 745.00
1641, 745.00
1642, 746.00
1643, 746.00
1644, 746.00
1645, 747.00
1646, 747.00
1647, 748.00
1648, 748.00
1649, 749.00
1650, 749.00

1750, 911.00
1751, 910.00
1752, 910.00
1753, 910.00
1754, 910.00
1755, 911.00
1756, 911.00
1757, 910.00
1758, 910.00
1759, 910.00
1760, 910.00
1761, 910.00
1762, 910.00
1763, 910.00
1764, 909.00
1765, 910.00
1766, 909.00
1767, 909.00
1768, 909.00
1769, 909.00
1770, 910.00
1771, 909.00
1772, 910.00
1773, 908.00
1774, 908.00
1775, 909.00
1776, 908.00
1777, 909.00
1778, 909.00
1779, 908.00
1780, 908.00
1781, 908.00
1782, 908.00
1783, 908.00
1784, 907.00
1785, 907.00
1786, 906.00
1787, 907.00
1788, 906.00
1789, 906.00
1790, 906.00
1791, 905.00
1792, 906.00
1793, 905.00
1794, 905.00
1795, 905.00
1796, 905.00
1797, 904.00
1798, 905.00
1799, 904.00
1800, 904.00
1801, 904.00
1802, 903.00
1803, 904.00
1804, 903.00
1805, 903.00
1806, 903.00
1807, 904.00
1808, 902.00
1809, 902.00
1810, 902.00
1811, 902.00
1812, 902.00
1813, 901.00
1814, 901.00
1815, 902.00
1816, 901.00
1817, 901.00
1818, 900.00
1819, 900.00
1820, 900.00
1821, 899.00
1822, 899.00
1823, 899.00
1824, 898.00
1825, 897.00
1826, 898.00
1827, 897.00
1828, 897.00
1829, 896.00
1830, 896.00
1831, 895.00
1832, 895.00
1833, 894.00
1834, 894.00
1835, 893.00
1836, 892.00
1837, 892.00
1838, 891.00
1839, 890.00
1840, 890.00
1841, 888.00
1842, 888.00
1843, 887.00
1844, 887.00
1845, 886.00
1846, 884.00
1847, 883.00
1848, 883.00
1849, 882.00
1850, 880.00
1851, 880.00
1852, 880.00
1853, 878.00
1854, 878.00
1855, 877.00
1856, 876.00
1857, 875.00
1858, 874.00
1859, 873.00
1860, 873.00
1861, 872.00
1862, 871.00
1863, 870.00
1864, 869.00
1865, 869.00
1866, 868.00
1867, 868.00
1868, 867.00
1869, 867.00
1870, 866.00
1871, 865.00
1872, 865.00
1873, 864.00
1874, 864.00
1875, 863.00
1876, 862.00
1877, 862.00
1878, 862.00
1879, 862.00
1880, 861.00
1881, 861.00
1882, 861.00
1883, 861.00
1884, 860.00
1885, 860.00
1886, 860.00
1887, 860.00
1888, 859.00
1889, 859.00
1890, 859.00
1891, 858.00
1892, 858.00
1893, 859.00
1894, 858.00
1895, 858.00
1896, 858.00
1897, 858.00
1898, 857.00
1899, 857.00
1900, 857.00
1901, 857.00
1902, 856.00
1903, 857.00
1904, 857.00
1905, 856.00
1906, 856.00
1907, 856.00
1908, 856.00
1909, 856.00
1910, 856.00
1911, 856.00
1912, 856.00
1913, 856.00
1914, 855.00
1915, 855.00
1916, 855.00
1917, 856.00
1918, 856.00
1919, 855.00
1920, 855.00
1921, 855.00
1922, 856.00
1923, 855.00
1924, 855.00
1925, 854.00
1926, 856.00
1927, 855.00
1928, 855.00
1929, 855.00
1930, 855.00
1931, 855.00
1932, 855.00
1933, 855.00
1934, 855.00
1935, 856.00
1936, 856.00
1937, 855.00
1938, 855.00
1939, 855.00
1940, 856.00
1941, 855.00
1942, 856.00
1943, 856.00
1944, 856.00
1945, 856.00
1946, 856.00
1947, 856.00
1948, 856.00
1949, 857.00
1950, 856.00
1951, 857.00
1952, 856.00
1953, 857.00
1954, 857.00
1955, 857.00
1956, 858.00
1957, 857.00
1958, 857.00
1959, 858.00
1960, 858.00
1961, 858.00
1962, 858.00
1963, 858.00
1964, 859.00
1965, 859.00
1966, 858.00
1967, 858.00
1968, 860.00
1969, 859.00
1970, 859.00
1971, 859.00
1972, 860.00
1973, 860.00
1974, 860.00
1975, 860.00
1976, 860.00
1977, 861.00
1978, 861.00
1979, 861.00
1980, 861.00
1981, 861.00
1982, 862.00
1983, 862.00
1984, 862.00
1985, 863.00
1986, 863.00
1987, 863.00
1988, 863.00
1989, 863.00
1990, 863.00
1991, 863.00
1992, 863.00
1993, 864.00
1994, 864.00
1995, 864.00
1996, 864.00
1997, 865.00
1998, 865.00
1999, 865.00
2000, 866.00
2001, 865.00
2002, 866.00
2003, 866.00
2004, 866.00
2005, 866.00
2006, 866.00
2007, 867.00
2008, 867.00
2009, 867.00
2010, 868.00
2011, 868.00
2012, 868.00
2013, 868.00
2014, 869.00
2015, 869.00
2016, 867.00
2017, 868.00
2018, 869.00
2019, 869.00
2020, 870.00
2021, 870.00
2022, 869.00
2023, 870.00
2024, 870.00
2025, 871.00
2026, 871.00
2027, 871.00
2028, 871.00
2029, 871.00
2030, 871.00
2031, 871.00
2032, 872.00
2033, 872.00
2034, 873.00
2035, 873.00
2036, 873.00
2037, 873.00
2038, 873.00
2039, 873.00
2040, 874.00
2041, 874.00
2042, 874.00
2043, 874.00
2044, 874.00
2045, 875.00
2046, 875.00
2047, 875.00
2048, 876.00
2049, 877.00
2050, 877.00
2051, 877.00
2052, 877.00
2053, 877.00
2054, 878.00
2055, 878.00
2056, 879.00
2057, 879.00
2058, 880.00
2059, 879.00
2060, 880.00
2061, 880.00
2062, 881.00
2063, 881.00
2064, 881.00
2065, 882.00
2066, 882.00
2067, 882.00
2068, 882.00
2069, 882.00
2070, 883.00
2071, 883.00
2072, 884.00
2073, 884.00
2074, 885.00
2075, 884.00
2076, 886.00
2077, 886.00
2078, 886.00
2079, 886.00
2080, 886.00
2081, 887.00
2082, 887.00
2083, 887.00
2084, 887.00
2085, 888.00
2086, 887.00
2087, 888.00
2088, 888.00
2089, 889.00
2090, 889.00
2091, 888.00
2092, 889.00
2093, 889.00
2094, 889.00
2095, 890.00
2096, 890.00
2097, 890.00
2098, 891.00
2099, 891.00
2100, 890.00
2101, 890.00
2102, 891.00
2103, 891.00
2104, 891.00
2105, 892.00
2106, 892.00
2107, 892.00
2108, 892.00
2109, 892.00
2110, 892.00
2111, 892.00
2112, 893.00
2113, 892.00
2114, 892.00
2115, 893.00
2116, 893.00
2117, 893.00
2118, 893.00
2119, 893.00
2120, 894.00
2121, 894.00
2122, 894.00
2123, 894.00
2124, 894.00
2125, 894.00
2126, 895.00
2127, 895.00
2128, 895.00
2129, 895.00
2130, 895.00
2131, 895.00
2132, 895.00
2133, 896.00
2134, 895.00
2135, 895.00
2136, 895.00
2137, 895.00
2138, 895.00
2139, 895.00
2140, 896.00
2141, 896.00
2142, 896.00
2143, 896.00
2144, 897.00
2145, 896.00
2146, 897.00
2147, 897.00
2148, 897.00
2149, 897.00
2150, 896.00
