FW version: 24
Log Version: 3.0.3

General Info:
       Command/Macro Performed,            Timestamp,             Device ID, COM Port, UART/I2C, Test Name, Host Major, Host Minor, Host Revision, Host Git Commit
            Single_measurement,  2023_07_11_10_41_37,       Insight2_F4_xxx,    USB-C,      USB,          ,          0,          1,             1,      4031237645

Show Spectrometer Status:
l0_version, f4_version, battery_perc, battery_mVolt, accelerometer_temp, accelerometer_x, accelerometer_y, accelerometer_z, compass_temp, compass_x, compass_y, compass_z, lamp_0, lamp_1, gain_0, gain_1
        17,         24,           49,          1901,               5856,           65304,              56,           18728,            0,     65374,     65342,     18812,   3276,   3276,      1,      1

Temperature Statistic Info:
NTC AVG [°C], NTC2 AVG [°C]
      37.583,        37.208

Statistic Info:
M1:  num,      min,      max,   median,      AVG,      STD,M2:  num,      min,      max,   median,      AVG,      STD
     301,  1892.00,  2157.00,  1945.00,  1979.28,  82.3392,     401,  2459.00,  2621.00,  2527.00,  2531.24,  52.6665,

Measurements:
Wavelength, Data Amplitude
1350, 1941.00
1351, 1941.00
1352, 1939.00
1353, 1938.00
1354, 1937.00
1355, 1937.00
1356, 1935.00
1357, 1935.00
1358, 1933.00
1359, 1931.00
1360, 1931.00
1361, 1930.00
1362, 1929.00
1363, 1928.00
1364, 1927.00
1365, 1925.00
1366, 1923.00
1367, 1924.00
1368, 1923.00
1369, 1920.00
1370, 1919.00
1371, 1918.00
1372, 1916.00
1373, 1915.00
1374, 1915.00
1375, 1912.00
1376, 1913.00
1377, 1909.00
1378, 1909.00
1379, 1909.00
1380, 1908.00
1381, 1908.00
1382, 1905.00
1383, 1905.00
1384, 1904.00
1385, 1904.00
1386, 1901.00
1387, 1901.00
1388, 1901.00
1389, 1899.00
1390, 1901.00
1391, 1900.00
1392, 1900.00
1393, 1899.00
1394, 1899.00
1395, 1897.00
1396, 1897.00
1397, 1897.00
1398, 1896.00
1399, 1897.00
1400, 1896.00
1401, 1895.00
1402, 1896.00
1403, 1895.00
1404, 1894.00
1405, 1895.00
1406, 1895.00
1407, 1893.00
1408, 1893.00
1409, 1894.00
1410, 1894.00
1411, 1894.00
1412, 1893.00
1413, 1893.00
1414, 1894.00
1415, 1893.00
1416, 1893.00
1417, 1893.00
1418, 1893.00
1419, 1893.00
1420, 1893.00
1421, 1893.00
1422, 1893.00
1423, 1893.00
1424, 1892.00
1425, 1893.00
1426, 1893.00
1427, 1894.00
1428, 1893.00
1429, 1893.00
1430, 1895.00
1431, 1895.00
1432, 1894.00
1433, 1895.00
1434, 1896.00
1435, 1895.00
1436, 1895.00
1437, 1896.00
1438, 1897.00
1439, 1897.00
1440, 1897.00
1441, 1898.00
1442, 1898.00
1443, 1898.00
1444, 1898.00
1445, 1900.00
1446, 1900.00
1447, 1901.00
1448, 1902.00
1449, 1902.00
1450, 1901.00
1451, 1901.00
1452, 1902.00
1453, 1903.00
1454, 1905.00
1455, 1905.00
1456, 1905.00
1457, 1906.00
1458, 1907.00
1459, 1907.00
1460, 1908.00
1461, 1908.00
1462, 1909.00
1463, 1909.00
1464, 1911.00
1465, 1912.00
1466, 1912.00
1467, 1914.00
1468, 1914.00
1469, 1915.00
1470, 1915.00
1471, 1917.00
1472, 1917.00
1473, 1919.00
1474, 1919.00
1475, 1919.00
1476, 1921.00
1477, 1923.00
1478, 1923.00
1479, 1924.00
1480, 1925.00
1481, 1925.00
1482, 1927.00
1483, 1927.00
1484, 1930.00
1485, 1930.00
1486, 1930.00
1487, 1931.00
1488, 1934.00
1489, 1934.00
1490, 1936.00
1491, 1937.00
1492, 1939.00
1493, 1939.00
1494, 1939.00
1495, 1941.00
1496, 1941.00
1497, 1943.00
1498, 1945.00
1499, 1945.00
1500, 1945.00
1501, 1947.00
1502, 1948.00
1503, 1950.00
1504, 1951.00
1505, 1952.00
1506, 1953.00
1507, 1954.00
1508, 1955.00
1509, 1957.00
1510, 1958.00
1511, 1958.00
1512, 1959.00
1513, 1962.00
1514, 1961.00
1515, 1963.00
1516, 1965.00
1517, 1966.00
1518, 1967.00
1519, 1970.00
1520, 1971.00
1521, 1971.00
1522, 1972.00
1523, 1973.00
1524, 1974.00
1525, 1976.00
1526, 1978.00
1527, 1979.00
1528, 1980.00
1529, 1981.00
1530, 1983.00
1531, 1983.00
1532, 1986.00
1533, 1987.00
1534, 1988.00
1535, 1989.00
1536, 1992.00
1537, 1992.00
1538, 1994.00
1539, 1994.00
1540, 1997.00
1541, 1998.00
1542, 1998.00
1543, 1999.00
1544, 2001.00
1545, 2003.00
1546, 2005.00
1547, 2005.00
1548, 2007.00
1549, 2008.00
1550, 2011.00
1551, 2011.00
1552, 2013.00
1553, 2014.00
1554, 2016.00
1555, 2017.00
1556, 2018.00
1557, 2020.00
1558, 2021.00
1559, 2023.00
1560, 2025.00
1561, 2026.00
1562, 2028.00
1563, 2029.00
1564, 2030.00
1565, 2032.00
1566, 2034.00
1567, 2035.00
1568, 2038.00
1569, 2038.00
1570, 2039.00
1571, 2041.00
1572, 2043.00
1573, 2042.00
1574, 2045.00
1575, 2047.00
1576, 2049.00
1577, 2050.00
1578, 2052.00
1579, 2053.00
1580, 2053.00
1581, 2055.00
1582, 2057.00
1583, 2058.00
1584, 2060.00
1585, 2061.00
1586, 2063.00
1587, 2062.00
1588, 2064.00
1589, 2066.00
1590, 2067.00
1591, 2069.00
1592, 2072.00
1593, 2071.00
1594, 2073.00
1595, 2074.00
1596, 2075.00
1597, 2076.00
1598, 2077.00
1599, 2079.00
1600, 2080.00
1601, 2081.00
1602, 2083.00
1603, 2085.00
1604, 2086.00
1605, 2088.00
1606, 2089.00
1607, 2089.00
1608, 2092.00
1609, 2095.00
1610, 2095.00
1611, 2097.00
1612, 2099.00
1613, 2101.00
1614, 2102.00
1615, 2104.00
1616, 2105.00
1617, 2106.00
1618, 2109.00
1619, 2110.00
1620, 2112.00
1621, 2114.00
1622, 2115.00
1623, 2119.00
1624, 2120.00
1625, 2121.00
1626, 2122.00
1627, 2124.00
1628, 2126.00
1629, 2127.00
1630, 2129.00
1631, 2129.00
1632, 2132.00
1633, 2132.00
1634, 2135.00
1635, 2136.00
1636, 2137.00
1637, 2139.00
1638, 2140.00
1639, 2142.00
1640, 2143.00
1641, 2145.00
1642, 2146.00
1643, 2147.00
1644, 2148.00
1645, 2151.00
1646, 2151.00
1647, 2153.00
1648, 2154.00
1649, 2155.00
1650, 2157.00

1750, 2621.00
1751, 2619.00
1752, 2621.00
1753, 2620.00
1754, 2619.00
1755, 2620.00
1756, 2619.00
1757, 2619.00
1758, 2619.00
1759, 2621.00
1760, 2619.00
1761, 2620.00
1762, 2619.00
1763, 2618.00
1764, 2620.00
1765, 2619.00
1766, 2618.00
1767, 2619.00
1768, 2618.00
1769, 2616.00
1770, 2616.00
1771, 2617.00
1772, 2616.00
1773, 2615.00
1774, 2617.00
1775, 2616.00
1776, 2614.00
1777, 2615.00
1778, 2612.00
1779, 2614.00
1780, 2611.00
1781, 2612.00
1782, 2610.00
1783, 2610.00
1784, 2612.00
1785, 2611.00
1786, 2607.00
1787, 2609.00
1788, 2608.00
1789, 2608.00
1790, 2609.00
1791, 2605.00
1792, 2607.00
1793, 2606.00
1794, 2607.00
1795, 2605.00
1796, 2605.00
1797, 2605.00
1798, 2601.00
1799, 2602.00
1800, 2603.00
1801, 2602.00
1802, 2599.00
1803, 2600.00
1804, 2601.00
1805, 2599.00
1806, 2597.00
1807, 2598.00
1808, 2598.00
1809, 2596.00
1810, 2597.00
1811, 2595.00
1812, 2596.00
1813, 2595.00
1814, 2594.00
1815, 2592.00
1816, 2592.00
1817, 2592.00
1818, 2590.00
1819, 2592.00
1820, 2589.00
1821, 2589.00
1822, 2588.00
1823, 2585.00
1824, 2586.00
1825, 2584.00
1826, 2583.00
1827, 2581.00
1828, 2580.00
1829, 2578.00
1830, 2577.00
1831, 2576.00
1832, 2574.00
1833, 2572.00
1834, 2571.00
1835, 2569.00
1836, 2565.00
1837, 2564.00
1838, 2565.00
1839, 2562.00
1840, 2560.00
1841, 2557.00
1842, 2555.00
1843, 2553.00
1844, 2549.00
1845, 2546.00
1846, 2546.00
1847, 2543.00
1848, 2540.00
1849, 2538.00
1850, 2534.00
1851, 2532.00
1852, 2530.00
1853, 2527.00
1854, 2525.00
1855, 2522.00
1856, 2519.00
1857, 2518.00
1858, 2515.00
1859, 2513.00
1860, 2510.00
1861, 2508.00
1862, 2505.00
1863, 2504.00
1864, 2501.00
1865, 2501.00
1866, 2499.00
1867, 2495.00
1868, 2494.00
1869, 2493.00
1870, 2492.00
1871, 2490.00
1872, 2488.00
1873, 2486.00
1874, 2484.00
1875, 2485.00
1876, 2482.00
1877, 2481.00
1878, 2481.00
1879, 2481.00
1880, 2480.00
1881, 2480.00
1882, 2477.00
1883, 2475.00
1884, 2475.00
1885, 2473.00
1886, 2474.00
1887, 2473.00
1888, 2471.00
1889, 2472.00
1890, 2473.00
1891, 2469.00
1892, 2471.00
1893, 2469.00
1894, 2470.00
1895, 2469.00
1896, 2468.00
1897, 2469.00
1898, 2468.00
1899, 2467.00
1900, 2467.00
1901, 2468.00
1902, 2465.00
1903, 2465.00
1904, 2465.00
1905, 2465.00
1906, 2465.00
1907, 2464.00
1908, 2464.00
1909, 2464.00
1910, 2463.00
1911, 2464.00
1912, 2463.00
1913, 2464.00
1914, 2464.00
1915, 2464.00
1916, 2464.00
1917, 2461.00
1918, 2461.00
1919, 2463.00
1920, 2462.00
1921, 2461.00
1922, 2461.00
1923, 2463.00
1924, 2462.00
1925, 2461.00
1926, 2460.00
1927, 2462.00
1928, 2461.00
1929, 2462.00
1930, 2463.00
1931, 2459.00
1932, 2461.00
1933, 2461.00
1934, 2460.00
1935, 2464.00
1936, 2463.00
1937, 2461.00
1938, 2463.00
1939, 2463.00
1940, 2461.00
1941, 2463.00
1942, 2462.00
1943, 2463.00
1944, 2463.00
1945, 2463.00
1946, 2464.00
1947, 2465.00
1948, 2465.00
1949, 2463.00
1950, 2465.00
1951, 2466.00
1952, 2467.00
1953, 2467.00
1954, 2466.00
1955, 2468.00
1956, 2467.00
1957, 2467.00
1958, 2467.00
1959, 2470.00
1960, 2470.00
1961, 2470.00
1962, 2470.00
1963, 2468.00
1964, 2471.00
1965, 2471.00
1966, 2472.00
1967, 2472.00
1968, 2473.00
1969, 2475.00
1970, 2474.00
1971, 2475.00
1972, 2475.00
1973, 2476.00
1974, 2476.00
1975, 2477.00
1976, 2478.00
1977, 2479.00
1978, 2479.00
1979, 2478.00
1980, 2478.00
1981, 2479.00
1982, 2481.00
1983, 2482.00
1984, 2481.00
1985, 2485.00
1986, 2480.00
1987, 2484.00
1988, 2485.00
1989, 2485.00
1990, 2485.00
1991, 2485.00
1992, 2488.00
1993, 2487.00
1994, 2488.00
1995, 2487.00
1996, 2487.00
1997, 2487.00
1998, 2491.00
1999, 2490.00
2000, 2491.00
2001, 2490.00
2002, 2491.00
2003, 2495.00
2004, 2495.00
2005, 2495.00
2006, 2494.00
2007, 2494.00
2008, 2495.00
2009, 2498.00
2010, 2497.00
2011, 2498.00
2012, 2499.00
2013, 2498.00
2014, 2500.00
2015, 2500.00
2016, 2501.00
2017, 2501.00
2018, 2500.00
2019, 2503.00
2020, 2504.00
2021, 2502.00
2022, 2503.00
2023, 2504.00
2024, 2505.00
2025, 2506.00
2026, 2505.00
2027, 2507.00
2028, 2508.00
2029, 2509.00
2030, 2510.00
2031, 2509.00
2032, 2511.00
2033, 2508.00
2034, 2510.00
2035, 2512.00
2036, 2511.00
2037, 2514.00
2038, 2514.00
2039, 2517.00
2040, 2516.00
2041, 2516.00
2042, 2518.00
2043, 2517.00
2044, 2518.00
2045, 2521.00
2046, 2520.00
2047, 2522.00
2048, 2521.00
2049, 2523.00
2050, 2523.00
2051, 2525.00
2052, 2526.00
2053, 2527.00
2054, 2529.00
2055, 2529.00
2056, 2529.00
2057, 2531.00
2058, 2532.00
2059, 2533.00
2060, 2533.00
2061, 2532.00
2062, 2537.00
2063, 2534.00
2064, 2537.00
2065, 2537.00
2066, 2539.00
2067, 2540.00
2068, 2539.00
2069, 2542.00
2070, 2543.00
2071, 2545.00
2072, 2544.00
2073, 2544.00
2074, 2546.00
2075, 2547.00
2076, 2547.00
2077, 2548.00
2078, 2550.00
2079, 2548.00
2080, 2550.00
2081, 2553.00
2082, 2553.00
2083, 2553.00
2084, 2554.00
2085, 2555.00
2086, 2555.00
2087, 2556.00
2088, 2558.00
2089, 2560.00
2090, 2558.00
2091, 2560.00
2092, 2560.00
2093, 2559.00
2094, 2561.00
2095, 2561.00
2096, 2563.00
2097, 2563.00
2098, 2561.00
2099, 2564.00
2100, 2564.00
2101, 2564.00
2102, 2567.00
2103, 2566.00
2104, 2567.00
2105, 2567.00
2106, 2567.00
2107, 2567.00
2108, 2566.00
2109, 2568.00
2110, 2568.00
2111, 2569.00
2112, 2570.00
2113, 2569.00
2114, 2569.00
2115, 2572.00
2116, 2570.00
2117, 2570.00
2118, 2571.00
2119, 2574.00
2120, 2574.00
2121, 2574.00
2122, 2573.00
2123, 2574.00
2124, 2574.00
2125, 2575.00
2126, 2574.00
2127, 2576.00
2128, 2576.00
2129, 2577.00
2130, 2577.00
2131, 2578.00
2132, 2578.00
2133, 2579.00
2134, 2579.00
2135, 2577.00
2136, 2579.00
2137, 2580.00
2138, 2580.00
2139, 2578.00
2140, 2579.00
2141, 2581.00
2142, 2582.00
2143, 2581.00
2144, 2580.00
2145, 2581.00
2146, 2582.00
2147, 2582.00
2148, 2583.00
2149, 2581.00
2150, 2581.00
