FW version: 24
Log Version: 3.0.3

General Info:
       Command/Macro Performed,            Timestamp,             Device ID, COM Port, UART/I2C, Test Name, Host Major, Host Minor, Host Revision, Host Git Commit
            Single_measurement,  2023_07_11_10_40_39,       Insight2_F4_xxx,    USB-C,      USB,          ,          0,          1,             1,      4031237645

Show Spectrometer Status:
l0_version, f4_version, battery_perc, battery_mVolt, accelerometer_temp, accelerometer_x, accelerometer_y, accelerometer_z, compass_temp, compass_x, compass_y, compass_z, lamp_0, lamp_1, gain_0, gain_1
        17,         24,           49,          1908,               5792,           65296,              48,           18644,            0,     65363,     65339,     18654,   2047,   2047,      1,      1

Temperature Statistic Info:
NTC AVG [°C], NTC2 AVG [°C]
      36.976,        36.608

Statistic Info:
M1:  num,      min,      max,   median,      AVG,      STD,M2:  num,      min,      max,   median,      AVG,      STD
     301,   756.00,   874.00,   784.00,   796.50,  36.9450,     401,  1117.00,  1192.00,  1151.00,  1151.97,  24.5482,

Measurements:
Wavelength, Data Amplitude
1350, 774.00
1351, 774.00
1352, 773.00
1353, 773.00
1354, 773.00
1355, 773.00
1356, 772.00
1357, 772.00
1358, 771.00
1359, 771.00
1360, 771.00
1361, 772.00
1362, 770.00
1363, 769.00
1364, 769.00
1365, 769.00
1366, 768.00
1367, 768.00
1368, 767.00
1369, 767.00
1370, 767.00
1371, 766.00
1372, 764.00
1373, 764.00
1374, 764.00
1375, 764.00
1376, 764.00
1377, 763.00
1378, 762.00
1379, 762.00
1380, 762.00
1381, 762.00
1382, 762.00
1383, 762.00
1384, 761.00
1385, 761.00
1386, 761.00
1387, 760.00
1388, 760.00
1389, 760.00
1390, 759.00
1391, 760.00
1392, 758.00
1393, 759.00
1394, 759.00
1395, 759.00
1396, 759.00
1397, 758.00
1398, 759.00
1399, 757.00
1400, 758.00
1401, 758.00
1402, 759.00
1403, 757.00
1404, 758.00
1405, 757.00
1406, 756.00
1407, 758.00
1408, 757.00
1409, 757.00
1410, 758.00
1411, 758.00
1412, 757.00
1413, 758.00
1414, 758.00
1415, 758.00
1416, 758.00
1417, 757.00
1418, 757.00
1419, 758.00
1420, 758.00
1421, 758.00
1422, 758.00
1423, 758.00
1424, 758.00
1425, 758.00
1426, 758.00
1427, 758.00
1428, 757.00
1429, 759.00
1430, 758.00
1431, 759.00
1432, 759.00
1433, 759.00
1434, 759.00
1435, 758.00
1436, 759.00
1437, 759.00
1438, 760.00
1439, 761.00
1440, 761.00
1441, 761.00
1442, 761.00
1443, 760.00
1444, 761.00
1445, 761.00
1446, 762.00
1447, 761.00
1448, 761.00
1449, 762.00
1450, 763.00
1451, 762.00
1452, 763.00
1453, 763.00
1454, 763.00
1455, 763.00
1456, 763.00
1457, 765.00
1458, 765.00
1459, 765.00
1460, 766.00
1461, 766.00
1462, 766.00
1463, 766.00
1464, 766.00
1465, 767.00
1466, 767.00
1467, 768.00
1468, 768.00
1469, 768.00
1470, 769.00
1471, 770.00
1472, 770.00
1473, 771.00
1474, 770.00
1475, 771.00
1476, 772.00
1477, 773.00
1478, 772.00
1479, 772.00
1480, 773.00
1481, 773.00
1482, 774.00
1483, 775.00
1484, 776.00
1485, 776.00
1486, 775.00
1487, 777.00
1488, 777.00
1489, 778.00
1490, 778.00
1491, 778.00
1492, 779.00
1493, 780.00
1494, 780.00
1495, 781.00
1496, 781.00
1497, 781.00
1498, 782.00
1499, 782.00
1500, 784.00
1501, 784.00
1502, 784.00
1503, 785.00
1504, 785.00
1505, 787.00
1506, 786.00
1507, 787.00
1508, 788.00
1509, 787.00
1510, 789.00
1511, 788.00
1512, 790.00
1513, 790.00
1514, 791.00
1515, 792.00
1516, 791.00
1517, 793.00
1518, 793.00
1519, 795.00
1520, 794.00
1521, 795.00
1522, 795.00
1523, 796.00
1524, 797.00
1525, 797.00
1526, 799.00
1527, 798.00
1528, 800.00
1529, 801.00
1530, 800.00
1531, 801.00
1532, 802.00
1533, 802.00
1534, 803.00
1535, 804.00
1536, 805.00
1537, 804.00
1538, 806.00
1539, 806.00
1540, 808.00
1541, 807.00
1542, 808.00
1543, 808.00
1544, 809.00
1545, 810.00
1546, 810.00
1547, 810.00
1548, 811.00
1549, 812.00
1550, 812.00
1551, 813.00
1552, 814.00
1553, 814.00
1554, 814.00
1555, 816.00
1556, 817.00
1557, 817.00
1558, 817.00
1559, 818.00
1560, 818.00
1561, 818.00
1562, 820.00
1563, 819.00
1564, 820.00
1565, 821.00
1566, 822.00
1567, 823.00
1568, 824.00
1569, 824.00
1570, 823.00
1571, 825.00
1572, 826.00
1573, 826.00
1574, 826.00
1575, 828.00
1576, 828.00
1577, 828.00
1578, 829.00
1579, 829.00
1580, 831.00
1581, 831.00
1582, 831.00
1583, 832.00
1584, 833.00
1585, 833.00
1586, 833.00
1587, 834.00
1588, 834.00
1589, 835.00
1590, 837.00
1591, 837.00
1592, 838.00
1593, 838.00
1594, 839.00
1595, 839.00
1596, 839.00
1597, 841.00
1598, 841.00
1599, 840.00
1600, 841.00
1601, 842.00
1602, 843.00
1603, 843.00
1604, 844.00
1605, 845.00
1606, 845.00
1607, 846.00
1608, 847.00
1609, 848.00
1610, 848.00
1611, 850.00
1612, 850.00
1613, 850.00
1614, 851.00
1615, 852.00
1616, 852.00
1617, 853.00
1618, 854.00
1619, 855.00
1620, 856.00
1621, 857.00
1622, 857.00
1623, 857.00
1624, 858.00
1625, 859.00
1626, 860.00
1627, 861.00
1628, 862.00
1629, 861.00
1630, 863.00
1631, 863.00
1632, 864.00
1633, 864.00
1634, 865.00
1635, 866.00
1636, 866.00
1637, 866.00
1638, 867.00
1639, 868.00
1640, 868.00
1641, 869.00
1642, 870.00
1643, 870.00
1644, 870.00
1645, 871.00
1646, 872.00
1647, 871.00
1648, 872.00
1649, 872.00
1650, 874.00

1750, 1190.00
1751, 1192.00
1752, 1190.00
1753, 1191.00
1754, 1190.00
1755, 1190.00
1756, 1190.00
1757, 1189.00
1758, 1190.00
1759, 1190.00
1760, 1191.00
1761, 1189.00
1762, 1191.00
1763, 1191.00
1764, 1189.00
1765, 1189.00
1766, 1190.00
1767, 1191.00
1768, 1188.00
1769, 1190.00
1770, 1191.00
1771, 1187.00
1772, 1189.00
1773, 1190.00
1774, 1189.00
1775, 1189.00
1776, 1189.00
1777, 1188.00
1778, 1188.00
1779, 1186.00
1780, 1187.00
1781, 1187.00
1782, 1188.00
1783, 1187.00
1784, 1185.00
1785, 1185.00
1786, 1187.00
1787, 1187.00
1788, 1187.00
1789, 1186.00
1790, 1184.00
1791, 1184.00
1792, 1182.00
1793, 1185.00
1794, 1183.00
1795, 1183.00
1796, 1184.00
1797, 1181.00
1798, 1185.00
1799, 1184.00
1800, 1182.00
1801, 1182.00
1802, 1181.00
1803, 1184.00
1804, 1181.00
1805, 1181.00
1806, 1183.00
1807, 1181.00
1808, 1181.00
1809, 1182.00
1810, 1180.00
1811, 1182.00
1812, 1179.00
1813, 1181.00
1814, 1180.00
1815, 1178.00
1816, 1178.00
1817, 1178.00
1818, 1178.00
1819, 1178.00
1820, 1177.00
1821, 1177.00
1822, 1176.00
1823, 1177.00
1824, 1175.00
1825, 1176.00
1826, 1173.00
1827, 1173.00
1828, 1173.00
1829, 1174.00
1830, 1173.00
1831, 1171.00
1832, 1171.00
1833, 1169.00
1834, 1170.00
1835, 1169.00
1836, 1167.00
1837, 1167.00
1838, 1164.00
1839, 1166.00
1840, 1162.00
1841, 1163.00
1842, 1160.00
1843, 1161.00
1844, 1160.00
1845, 1158.00
1846, 1158.00
1847, 1156.00
1848, 1156.00
1849, 1152.00
1850, 1153.00
1851, 1151.00
1852, 1152.00
1853, 1147.00
1854, 1148.00
1855, 1146.00
1856, 1146.00
1857, 1144.00
1858, 1143.00
1859, 1142.00
1860, 1141.00
1861, 1141.00
1862, 1137.00
1863, 1137.00
1864, 1135.00
1865, 1136.00
1866, 1136.00
1867, 1135.00
1868, 1133.00
1869, 1133.00
1870, 1133.00
1871, 1131.00
1872, 1132.00
1873, 1130.00
1874, 1128.00
1875, 1129.00
1876, 1129.00
1877, 1129.00
1878, 1128.00
1879, 1127.00
1880, 1125.00
1881, 1126.00
1882, 1126.00
1883, 1125.00
1884, 1125.00
1885, 1126.00
1886, 1126.00
1887, 1124.00
1888, 1123.00
1889, 1123.00
1890, 1123.00
1891, 1122.00
1892, 1124.00
1893, 1122.00
1894, 1122.00
1895, 1123.00
1896, 1121.00
1897, 1122.00
1898, 1121.00
1899, 1122.00
1900, 1121.00
1901, 1121.00
1902, 1120.00
1903, 1121.00
1904, 1120.00
1905, 1120.00
1906, 1119.00
1907, 1119.00
1908, 1120.00
1909, 1121.00
1910, 1120.00
1911, 1119.00
1912, 1117.00
1913, 1120.00
1914, 1120.00
1915, 1118.00
1916, 1120.00
1917, 1119.00
1918, 1120.00
1919, 1118.00
1920, 1118.00
1921, 1119.00
1922, 1120.00
1923, 1119.00
1924, 1119.00
1925, 1119.00
1926, 1120.00
1927, 1120.00
1928, 1119.00
1929, 1118.00
1930, 1119.00
1931, 1118.00
1932, 1119.00
1933, 1119.00
1934, 1118.00
1935, 1120.00
1936, 1118.00
1937, 1121.00
1938, 1119.00
1939, 1119.00
1940, 1120.00
1941, 1120.00
1942, 1120.00
1943, 1119.00
1944, 1121.00
1945, 1120.00
1946, 1120.00
1947, 1120.00
1948, 1122.00
1949, 1122.00
1950, 1119.00
1951, 1120.00
1952, 1121.00
1953, 1120.00
1954, 1121.00
1955, 1123.00
1956, 1122.00
1957, 1121.00
1958, 1122.00
1959, 1121.00
1960, 1124.00
1961, 1123.00
1962, 1123.00
1963, 1123.00
1964, 1123.00
1965, 1125.00
1966, 1124.00
1967, 1124.00
1968, 1123.00
1969, 1124.00
1970, 1125.00
1971, 1125.00
1972, 1127.00
1973, 1127.00
1974, 1127.00
1975, 1126.00
1976, 1127.00
1977, 1127.00
1978, 1126.00
1979, 1128.00
1980, 1128.00
1981, 1127.00
1982, 1129.00
1983, 1127.00
1984, 1129.00
1985, 1129.00
1986, 1130.00
1987, 1130.00
1988, 1130.00
1989, 1131.00
1990, 1128.00
1991, 1131.00
1992, 1132.00
1993, 1132.00
1994, 1133.00
1995, 1132.00
1996, 1133.00
1997, 1132.00
1998, 1133.00
1999, 1133.00
2000, 1134.00
2001, 1133.00
2002, 1135.00
2003, 1136.00
2004, 1133.00
2005, 1135.00
2006, 1136.00
2007, 1135.00
2008, 1135.00
2009, 1134.00
2010, 1137.00
2011, 1136.00
2012, 1137.00
2013, 1136.00
2014, 1137.00
2015, 1137.00
2016, 1139.00
2017, 1139.00
2018, 1139.00
2019, 1138.00
2020, 1140.00
2021, 1139.00
2022, 1140.00
2023, 1142.00
2024, 1141.00
2025, 1142.00
2026, 1142.00
2027, 1141.00
2028, 1142.00
2029, 1142.00
2030, 1141.00
2031, 1142.00
2032, 1142.00
2033, 1143.00
2034, 1143.00
2035, 1144.00
2036, 1143.00
2037, 1145.00
2038, 1145.00
2039, 1144.00
2040, 1147.00
2041, 1146.00
2042, 1147.00
2043, 1147.00
2044, 1148.00
2045, 1148.00
2046, 1149.00
2047, 1148.00
2048, 1148.00
2049, 1148.00
2050, 1149.00
2051, 1150.00
2052, 1151.00
2053, 1152.00
2054, 1152.00
2055, 1152.00
2056, 1152.00
2057, 1154.00
2058, 1153.00
2059, 1155.00
2060, 1154.00
2061, 1155.00
2062, 1155.00
2063, 1156.00
2064, 1156.00
2065, 1157.00
2066, 1156.00
2067, 1158.00
2068, 1158.00
2069, 1158.00
2070, 1161.00
2071, 1159.00
2072, 1159.00
2073, 1160.00
2074, 1162.00
2075, 1161.00
2076, 1162.00
2077, 1163.00
2078, 1162.00
2079, 1161.00
2080, 1164.00
2081, 1164.00
2082, 1163.00
2083, 1165.00
2084, 1164.00
2085, 1166.00
2086, 1165.00
2087, 1166.00
2088, 1166.00
2089, 1169.00
2090, 1168.00
2091, 1167.00
2092, 1168.00
2093, 1169.00
2094, 1168.00
2095, 1171.00
2096, 1169.00
2097, 1168.00
2098, 1169.00
2099, 1169.00
2100, 1172.00
2101, 1172.00
2102, 1172.00
2103, 1170.00
2104, 1172.00
2105, 1171.00
2106, 1171.00
2107, 1172.00
2108, 1171.00
2109, 1173.00
2110, 1173.00
2111, 1173.00
2112, 1173.00
2113, 1173.00
2114, 1172.00
2115, 1174.00
2116, 1173.00
2117, 1174.00
2118, 1175.00
2119, 1174.00
2120, 1173.00
2121, 1175.00
2122, 1175.00
2123, 1175.00
2124, 1176.00
2125, 1177.00
2126, 1177.00
2127, 1175.00
2128, 1176.00
2129, 1177.00
2130, 1177.00
2131, 1177.00
2132, 1176.00
2133, 1177.00
2134, 1178.00
2135, 1178.00
2136, 1177.00
2137, 1178.00
2138, 1177.00
2139, 1177.00
2140, 1179.00
2141, 1178.00
2142, 1177.00
2143, 1179.00
2144, 1180.00
2145, 1180.00
2146, 1179.00
2147, 1179.00
2148, 1179.00
2149, 1180.00
2150, 1178.00
