FW version: 24
Log Version: 3.0.3

General Info:
       Command/Macro Performed,            Timestamp,             Device ID, COM Port, UART/I2C, Test Name, Host Major, Host Minor, Host Revision, Host Git Commit
            Single_measurement,  2023_06_28_11_15_42,       Insight2_F4_xxx,    USB-C,      USB,          ,          0,          1,             1,      4031237645

Show Spectrometer Status:
l0_version, f4_version, battery_perc, battery_mVolt, accelerometer_temp, accelerometer_x, accelerometer_y, accelerometer_z, compass_temp, compass_x, compass_y, compass_z, lamp_0, lamp_1, gain_0, gain_1
        17,         24,           38,          1883,               6304,           65332,             592,           18704,            0,     65461,     65488,     18750,   3276,   3276,      1,      1

Temperature Statistic Info:
NTC AVG [°C], NTC2 AVG [°C]
      39.205,        38.854

Statistic Info:
M1:  num,      min,      max,   median,      AVG,      STD,M2:  num,      min,      max,   median,      AVG,      STD
     301,  1775.00,  2037.00,  1828.00,  1860.93,  81.2378,     401,  2336.00,  2494.00,  2402.00,  2406.29,  51.1907,

Measurements:
Wavelength, Data Amplitude
1350, 1820.00
1351, 1820.00
1352, 1819.00
1353, 1819.00
1354, 1817.00
1355, 1816.00
1356, 1815.00
1357, 1816.00
1358, 1814.00
1359, 1812.00
1360, 1813.00
1361, 1811.00
1362, 1810.00
1363, 1809.00
1364, 1807.00
1365, 1806.00
1366, 1805.00
1367, 1804.00
1368, 1802.00
1369, 1802.00
1370, 1801.00
1371, 1799.00
1372, 1796.00
1373, 1796.00
1374, 1796.00
1375, 1794.00
1376, 1794.00
1377, 1792.00
1378, 1791.00
1379, 1790.00
1380, 1789.00
1381, 1788.00
1382, 1787.00
1383, 1786.00
1384, 1785.00
1385, 1784.00
1386, 1784.00
1387, 1783.00
1388, 1784.00
1389, 1783.00
1390, 1782.00
1391, 1781.00
1392, 1781.00
1393, 1781.00
1394, 1780.00
1395, 1780.00
1396, 1778.00
1397, 1781.00
1398, 1779.00
1399, 1778.00
1400, 1778.00
1401, 1779.00
1402, 1778.00
1403, 1778.00
1404, 1777.00
1405, 1777.00
1406, 1777.00
1407, 1777.00
1408, 1777.00
1409, 1776.00
1410, 1777.00
1411, 1777.00
1412, 1775.00
1413, 1775.00
1414, 1776.00
1415, 1775.00
1416, 1775.00
1417, 1775.00
1418, 1776.00
1419, 1776.00
1420, 1775.00
1421, 1775.00
1422, 1775.00
1423, 1775.00
1424, 1776.00
1425, 1775.00
1426, 1775.00
1427, 1776.00
1428, 1775.00
1429, 1777.00
1430, 1777.00
1431, 1777.00
1432, 1778.00
1433, 1779.00
1434, 1778.00
1435, 1778.00
1436, 1779.00
1437, 1779.00
1438, 1781.00
1439, 1780.00
1440, 1781.00
1441, 1781.00
1442, 1781.00
1443, 1782.00
1444, 1782.00
1445, 1783.00
1446, 1782.00
1447, 1784.00
1448, 1785.00
1449, 1785.00
1450, 1784.00
1451, 1786.00
1452, 1786.00
1453, 1786.00
1454, 1788.00
1455, 1788.00
1456, 1788.00
1457, 1789.00
1458, 1790.00
1459, 1790.00
1460, 1790.00
1461, 1791.00
1462, 1793.00
1463, 1794.00
1464, 1793.00
1465, 1794.00
1466, 1796.00
1467, 1796.00
1468, 1796.00
1469, 1799.00
1470, 1799.00
1471, 1801.00
1472, 1801.00
1473, 1802.00
1474, 1803.00
1475, 1804.00
1476, 1805.00
1477, 1805.00
1478, 1806.00
1479, 1807.00
1480, 1809.00
1481, 1809.00
1482, 1810.00
1483, 1812.00
1484, 1813.00
1485, 1813.00
1486, 1814.00
1487, 1816.00
1488, 1816.00
1489, 1818.00
1490, 1818.00
1491, 1819.00
1492, 1820.00
1493, 1823.00
1494, 1822.00
1495, 1824.00
1496, 1824.00
1497, 1827.00
1498, 1826.00
1499, 1828.00
1500, 1828.00
1501, 1831.00
1502, 1832.00
1503, 1832.00
1504, 1833.00
1505, 1834.00
1506, 1836.00
1507, 1837.00
1508, 1838.00
1509, 1840.00
1510, 1840.00
1511, 1842.00
1512, 1842.00
1513, 1844.00
1514, 1844.00
1515, 1846.00
1516, 1849.00
1517, 1848.00
1518, 1849.00
1519, 1851.00
1520, 1853.00
1521, 1854.00
1522, 1854.00
1523, 1857.00
1524, 1857.00
1525, 1858.00
1526, 1860.00
1527, 1861.00
1528, 1862.00
1529, 1864.00
1530, 1864.00
1531, 1866.00
1532, 1868.00
1533, 1869.00
1534, 1871.00
1535, 1871.00
1536, 1872.00
1537, 1874.00
1538, 1876.00
1539, 1877.00
1540, 1879.00
1541, 1879.00
1542, 1881.00
1543, 1882.00
1544, 1883.00
1545, 1885.00
1546, 1886.00
1547, 1887.00
1548, 1889.00
1549, 1890.00
1550, 1892.00
1551, 1893.00
1552, 1895.00
1553, 1895.00
1554, 1897.00
1555, 1898.00
1556, 1900.00
1557, 1901.00
1558, 1903.00
1559, 1904.00
1560, 1906.00
1561, 1907.00
1562, 1908.00
1563, 1910.00
1564, 1912.00
1565, 1912.00
1566, 1915.00
1567, 1916.00
1568, 1917.00
1569, 1919.00
1570, 1920.00
1571, 1922.00
1572, 1923.00
1573, 1925.00
1574, 1926.00
1575, 1928.00
1576, 1929.00
1577, 1931.00
1578, 1932.00
1579, 1933.00
1580, 1935.00
1581, 1936.00
1582, 1938.00
1583, 1939.00
1584, 1940.00
1585, 1943.00
1586, 1943.00
1587, 1943.00
1588, 1945.00
1589, 1946.00
1590, 1948.00
1591, 1949.00
1592, 1950.00
1593, 1951.00
1594, 1953.00
1595, 1955.00
1596, 1955.00
1597, 1957.00
1598, 1958.00
1599, 1959.00
1600, 1961.00
1601, 1962.00
1602, 1963.00
1603, 1965.00
1604, 1967.00
1605, 1968.00
1606, 1968.00
1607, 1971.00
1608, 1972.00
1609, 1974.00
1610, 1975.00
1611, 1977.00
1612, 1979.00
1613, 1980.00
1614, 1982.00
1615, 1983.00
1616, 1986.00
1617, 1987.00
1618, 1989.00
1619, 1990.00
1620, 1992.00
1621, 1993.00
1622, 1995.00
1623, 1996.00
1624, 1999.00
1625, 2000.00
1626, 2002.00
1627, 2003.00
1628, 2005.00
1629, 2007.00
1630, 2007.00
1631, 2009.00
1632, 2011.00
1633, 2013.00
1634, 2015.00
1635, 2015.00
1636, 2018.00
1637, 2018.00
1638, 2019.00
1639, 2022.00
1640, 2022.00
1641, 2024.00
1642, 2024.00
1643, 2026.00
1644, 2027.00
1645, 2029.00
1646, 2031.00
1647, 2031.00
1648, 2033.00
1649, 2034.00
1650, 2037.00

1750, 2493.00
1751, 2493.00
1752, 2492.00
1753, 2491.00
1754, 2491.00
1755, 2492.00
1756, 2491.00
1757, 2494.00
1758, 2494.00
1759, 2491.00
1760, 2494.00
1761, 2493.00
1762, 2492.00
1763, 2492.00
1764, 2491.00
1765, 2490.00
1766, 2491.00
1767, 2491.00
1768, 2490.00
1769, 2490.00
1770, 2490.00
1771, 2490.00
1772, 2489.00
1773, 2487.00
1774, 2488.00
1775, 2489.00
1776, 2487.00
1777, 2485.00
1778, 2486.00
1779, 2486.00
1780, 2485.00
1781, 2483.00
1782, 2484.00
1783, 2482.00
1784, 2484.00
1785, 2483.00
1786, 2480.00
1787, 2483.00
1788, 2482.00
1789, 2483.00
1790, 2481.00
1791, 2479.00
1792, 2479.00
1793, 2478.00
1794, 2479.00
1795, 2479.00
1796, 2477.00
1797, 2478.00
1798, 2474.00
1799, 2475.00
1800, 2475.00
1801, 2476.00
1802, 2475.00
1803, 2474.00
1804, 2473.00
1805, 2473.00
1806, 2472.00
1807, 2471.00
1808, 2471.00
1809, 2470.00
1810, 2471.00
1811, 2469.00
1812, 2469.00
1813, 2468.00
1814, 2468.00
1815, 2466.00
1816, 2466.00
1817, 2465.00
1818, 2465.00
1819, 2463.00
1820, 2462.00
1821, 2462.00
1822, 2461.00
1823, 2460.00
1824, 2459.00
1825, 2458.00
1826, 2457.00
1827, 2454.00
1828, 2454.00
1829, 2454.00
1830, 2451.00
1831, 2450.00
1832, 2447.00
1833, 2445.00
1834, 2443.00
1835, 2440.00
1836, 2440.00
1837, 2439.00
1838, 2437.00
1839, 2436.00
1840, 2433.00
1841, 2432.00
1842, 2429.00
1843, 2427.00
1844, 2422.00
1845, 2421.00
1846, 2417.00
1847, 2418.00
1848, 2414.00
1849, 2410.00
1850, 2408.00
1851, 2406.00
1852, 2403.00
1853, 2403.00
1854, 2400.00
1855, 2397.00
1856, 2393.00
1857, 2392.00
1858, 2389.00
1859, 2387.00
1860, 2384.00
1861, 2383.00
1862, 2381.00
1863, 2379.00
1864, 2377.00
1865, 2375.00
1866, 2373.00
1867, 2371.00
1868, 2370.00
1869, 2368.00
1870, 2365.00
1871, 2364.00
1872, 2364.00
1873, 2362.00
1874, 2361.00
1875, 2360.00
1876, 2358.00
1877, 2358.00
1878, 2355.00
1879, 2357.00
1880, 2355.00
1881, 2353.00
1882, 2354.00
1883, 2353.00
1884, 2351.00
1885, 2351.00
1886, 2350.00
1887, 2349.00
1888, 2350.00
1889, 2349.00
1890, 2346.00
1891, 2346.00
1892, 2346.00
1893, 2347.00
1894, 2345.00
1895, 2344.00
1896, 2345.00
1897, 2344.00
1898, 2342.00
1899, 2344.00
1900, 2344.00
1901, 2344.00
1902, 2341.00
1903, 2342.00
1904, 2341.00
1905, 2342.00
1906, 2342.00
1907, 2341.00
1908, 2340.00
1909, 2340.00
1910, 2339.00
1911, 2341.00
1912, 2339.00
1913, 2341.00
1914, 2339.00
1915, 2340.00
1916, 2339.00
1917, 2340.00
1918, 2338.00
1919, 2338.00
1920, 2337.00
1921, 2338.00
1922, 2339.00
1923, 2338.00
1924, 2341.00
1925, 2337.00
1926, 2337.00
1927, 2336.00
1928, 2337.00
1929, 2338.00
1930, 2338.00
1931, 2339.00
1932, 2337.00
1933, 2337.00
1934, 2338.00
1935, 2340.00
1936, 2339.00
1937, 2339.00
1938, 2339.00
1939, 2341.00
1940, 2340.00
1941, 2341.00
1942, 2341.00
1943, 2341.00
1944, 2342.00
1945, 2341.00
1946, 2342.00
1947, 2343.00
1948, 2343.00
1949, 2341.00
1950, 2344.00
1951, 2344.00
1952, 2343.00
1953, 2343.00
1954, 2343.00
1955, 2343.00
1956, 2344.00
1957, 2344.00
1958, 2344.00
1959, 2344.00
1960, 2345.00
1961, 2347.00
1962, 2345.00
1963, 2349.00
1964, 2348.00
1965, 2348.00
1966, 2348.00
1967, 2349.00
1968, 2351.00
1969, 2349.00
1970, 2349.00
1971, 2353.00
1972, 2353.00
1973, 2355.00
1974, 2352.00
1975, 2355.00
1976, 2354.00
1977, 2354.00
1978, 2356.00
1979, 2357.00
1980, 2357.00
1981, 2356.00
1982, 2359.00
1983, 2358.00
1984, 2358.00
1985, 2360.00
1986, 2361.00
1987, 2360.00
1988, 2361.00
1989, 2360.00
1990, 2363.00
1991, 2362.00
1992, 2363.00
1993, 2362.00
1994, 2365.00
1995, 2366.00
1996, 2364.00
1997, 2365.00
1998, 2366.00
1999, 2368.00
2000, 2367.00
2001, 2369.00
2002, 2369.00
2003, 2369.00
2004, 2370.00
2005, 2371.00
2006, 2371.00
2007, 2371.00
2008, 2372.00
2009, 2374.00
2010, 2373.00
2011, 2374.00
2012, 2375.00
2013, 2376.00
2014, 2376.00
2015, 2377.00
2016, 2378.00
2017, 2377.00
2018, 2379.00
2019, 2379.00
2020, 2380.00
2021, 2380.00
2022, 2379.00
2023, 2381.00
2024, 2380.00
2025, 2381.00
2026, 2384.00
2027, 2384.00
2028, 2382.00
2029, 2385.00
2030, 2385.00
2031, 2386.00
2032, 2386.00
2033, 2388.00
2034, 2388.00
2035, 2389.00
2036, 2390.00
2037, 2390.00
2038, 2391.00
2039, 2393.00
2040, 2391.00
2041, 2394.00
2042, 2394.00
2043, 2393.00
2044, 2396.00
2045, 2394.00
2046, 2397.00
2047, 2398.00
2048, 2397.00
2049, 2401.00
2050, 2401.00
2051, 2400.00
2052, 2402.00
2053, 2403.00
2054, 2402.00
2055, 2402.00
2056, 2404.00
2057, 2405.00
2058, 2407.00
2059, 2406.00
2060, 2409.00
2061, 2410.00
2062, 2409.00
2063, 2413.00
2064, 2412.00
2065, 2413.00
2066, 2414.00
2067, 2415.00
2068, 2419.00
2069, 2416.00
2070, 2416.00
2071, 2419.00
2072, 2420.00
2073, 2420.00
2074, 2422.00
2075, 2422.00
2076, 2422.00
2077, 2422.00
2078, 2424.00
2079, 2425.00
2080, 2425.00
2081, 2427.00
2082, 2427.00
2083, 2429.00
2084, 2429.00
2085, 2430.00
2086, 2430.00
2087, 2431.00
2088, 2431.00
2089, 2431.00
2090, 2430.00
2091, 2433.00
2092, 2432.00
2093, 2434.00
2094, 2434.00
2095, 2435.00
2096, 2436.00
2097, 2437.00
2098, 2436.00
2099, 2439.00
2100, 2438.00
2101, 2439.00
2102, 2440.00
2103, 2439.00
2104, 2440.00
2105, 2442.00
2106, 2441.00
2107, 2442.00
2108, 2444.00
2109, 2442.00
2110, 2443.00
2111, 2444.00
2112, 2443.00
2113, 2443.00
2114, 2445.00
2115, 2445.00
2116, 2445.00
2117, 2446.00
2118, 2447.00
2119, 2445.00
2120, 2447.00
2121, 2446.00
2122, 2448.00
2123, 2448.00
2124, 2447.00
2125, 2449.00
2126, 2448.00
2127, 2448.00
2128, 2450.00
2129, 2451.00
2130, 2449.00
2131, 2450.00
2132, 2449.00
2133, 2451.00
2134, 2451.00
2135, 2451.00
2136, 2453.00
2137, 2454.00
2138, 2454.00
2139, 2454.00
2140, 2454.00
2141, 2453.00
2142, 2454.00
2143, 2455.00
2144, 2455.00
2145, 2454.00
2146, 2456.00
2147, 2454.00
2148, 2454.00
2149, 2454.00
2150, 2455.00
