FW version: 24
Log Version: 3.0.3

General Info:
       Command/Macro Performed,            Timestamp,             Device ID, COM Port, UART/I2C, Test Name, Host Major, Host Minor, Host Revision, Host Git Commit
            Single_measurement,  2023_06_28_11_15_23,       Insight2_F4_xxx,    USB-C,      USB,          ,          0,          1,             1,      4031237645

Show Spectrometer Status:
l0_version, f4_version, battery_perc, battery_mVolt, accelerometer_temp, accelerometer_x, accelerometer_y, accelerometer_z, compass_temp, compass_x, compass_y, compass_z, lamp_0, lamp_1, gain_0, gain_1
        17,         24,           38,          1883,               6288,           65484,             540,           18612,            0,     65501,     65436,     18621,   2866,   2866,      1,      1

Temperature Statistic Info:
NTC AVG [°C], NTC2 AVG [°C]
      39.026,        38.681

Statistic Info:
M1:  num,      min,      max,   median,      AVG,      STD,M2:  num,      min,      max,   median,      AVG,      STD
     301,  1380.00,  1591.00,  1425.00,  1450.15,  65.2968,     401,  1881.00,  2011.00,  1936.00,  1938.92,  41.6249,

Measurements:
Wavelength, Data Amplitude
1350, 1415.00
1351, 1415.00
1352, 1414.00
1353, 1414.00
1354, 1413.00
1355, 1412.00
1356, 1413.00
1357, 1411.00
1358, 1411.00
1359, 1409.00
1360, 1410.00
1361, 1409.00
1362, 1407.00
1363, 1406.00
1364, 1406.00
1365, 1405.00
1366, 1404.00
1367, 1403.00
1368, 1402.00
1369, 1402.00
1370, 1400.00
1371, 1399.00
1372, 1398.00
1373, 1397.00
1374, 1397.00
1375, 1396.00
1376, 1395.00
1377, 1393.00
1378, 1393.00
1379, 1393.00
1380, 1393.00
1381, 1392.00
1382, 1390.00
1383, 1390.00
1384, 1389.00
1385, 1389.00
1386, 1389.00
1387, 1388.00
1388, 1388.00
1389, 1387.00
1390, 1387.00
1391, 1387.00
1392, 1385.00
1393, 1385.00
1394, 1385.00
1395, 1384.00
1396, 1384.00
1397, 1385.00
1398, 1384.00
1399, 1384.00
1400, 1383.00
1401, 1384.00
1402, 1384.00
1403, 1382.00
1404, 1383.00
1405, 1383.00
1406, 1383.00
1407, 1383.00
1408, 1383.00
1409, 1382.00
1410, 1382.00
1411, 1382.00
1412, 1383.00
1413, 1383.00
1414, 1381.00
1415, 1381.00
1416, 1381.00
1417, 1380.00
1418, 1382.00
1419, 1382.00
1420, 1382.00
1421, 1381.00
1422, 1381.00
1423, 1381.00
1424, 1381.00
1425, 1381.00
1426, 1382.00
1427, 1382.00
1428, 1383.00
1429, 1384.00
1430, 1383.00
1431, 1383.00
1432, 1383.00
1433, 1384.00
1434, 1384.00
1435, 1384.00
1436, 1383.00
1437, 1386.00
1438, 1385.00
1439, 1386.00
1440, 1386.00
1441, 1386.00
1442, 1387.00
1443, 1385.00
1444, 1387.00
1445, 1387.00
1446, 1388.00
1447, 1389.00
1448, 1389.00
1449, 1389.00
1450, 1390.00
1451, 1390.00
1452, 1391.00
1453, 1391.00
1454, 1391.00
1455, 1391.00
1456, 1393.00
1457, 1393.00
1458, 1393.00
1459, 1394.00
1460, 1395.00
1461, 1395.00
1462, 1396.00
1463, 1396.00
1464, 1397.00
1465, 1397.00
1466, 1398.00
1467, 1399.00
1468, 1399.00
1469, 1400.00
1470, 1400.00
1471, 1402.00
1472, 1401.00
1473, 1402.00
1474, 1404.00
1475, 1405.00
1476, 1405.00
1477, 1405.00
1478, 1406.00
1479, 1407.00
1480, 1409.00
1481, 1409.00
1482, 1411.00
1483, 1411.00
1484, 1411.00
1485, 1411.00
1486, 1413.00
1487, 1413.00
1488, 1415.00
1489, 1415.00
1490, 1416.00
1491, 1418.00
1492, 1419.00
1493, 1419.00
1494, 1420.00
1495, 1420.00
1496, 1422.00
1497, 1423.00
1498, 1423.00
1499, 1425.00
1500, 1425.00
1501, 1425.00
1502, 1427.00
1503, 1427.00
1504, 1428.00
1505, 1430.00
1506, 1431.00
1507, 1430.00
1508, 1432.00
1509, 1433.00
1510, 1434.00
1511, 1435.00
1512, 1437.00
1513, 1438.00
1514, 1437.00
1515, 1438.00
1516, 1440.00
1517, 1441.00
1518, 1442.00
1519, 1443.00
1520, 1443.00
1521, 1444.00
1522, 1446.00
1523, 1446.00
1524, 1448.00
1525, 1449.00
1526, 1450.00
1527, 1450.00
1528, 1451.00
1529, 1453.00
1530, 1454.00
1531, 1455.00
1532, 1456.00
1533, 1456.00
1534, 1458.00
1535, 1459.00
1536, 1461.00
1537, 1461.00
1538, 1462.00
1539, 1463.00
1540, 1465.00
1541, 1466.00
1542, 1467.00
1543, 1467.00
1544, 1469.00
1545, 1470.00
1546, 1470.00
1547, 1472.00
1548, 1473.00
1549, 1474.00
1550, 1475.00
1551, 1476.00
1552, 1478.00
1553, 1479.00
1554, 1479.00
1555, 1480.00
1556, 1482.00
1557, 1482.00
1558, 1484.00
1559, 1485.00
1560, 1486.00
1561, 1487.00
1562, 1488.00
1563, 1489.00
1564, 1491.00
1565, 1492.00
1566, 1494.00
1567, 1495.00
1568, 1496.00
1569, 1497.00
1570, 1497.00
1571, 1499.00
1572, 1499.00
1573, 1502.00
1574, 1503.00
1575, 1504.00
1576, 1505.00
1577, 1507.00
1578, 1506.00
1579, 1508.00
1580, 1509.00
1581, 1511.00
1582, 1512.00
1583, 1513.00
1584, 1513.00
1585, 1515.00
1586, 1515.00
1587, 1517.00
1588, 1517.00
1589, 1518.00
1590, 1519.00
1591, 1521.00
1592, 1521.00
1593, 1523.00
1594, 1524.00
1595, 1524.00
1596, 1525.00
1597, 1527.00
1598, 1527.00
1599, 1529.00
1600, 1530.00
1601, 1531.00
1602, 1532.00
1603, 1533.00
1604, 1534.00
1605, 1535.00
1606, 1537.00
1607, 1538.00
1608, 1540.00
1609, 1541.00
1610, 1543.00
1611, 1544.00
1612, 1546.00
1613, 1547.00
1614, 1548.00
1615, 1549.00
1616, 1550.00
1617, 1551.00
1618, 1553.00
1619, 1554.00
1620, 1555.00
1621, 1557.00
1622, 1558.00
1623, 1559.00
1624, 1561.00
1625, 1562.00
1626, 1563.00
1627, 1565.00
1628, 1565.00
1629, 1568.00
1630, 1568.00
1631, 1570.00
1632, 1570.00
1633, 1572.00
1634, 1573.00
1635, 1574.00
1636, 1576.00
1637, 1576.00
1638, 1579.00
1639, 1578.00
1640, 1581.00
1641, 1582.00
1642, 1581.00
1643, 1584.00
1644, 1584.00
1645, 1585.00
1646, 1587.00
1647, 1587.00
1648, 1588.00
1649, 1589.00
1650, 1591.00

1750, 2006.00
1751, 2009.00
1752, 2006.00
1753, 2008.00
1754, 2008.00
1755, 2011.00
1756, 2007.00
1757, 2007.00
1758, 2007.00
1759, 2006.00
1760, 2008.00
1761, 2009.00
1762, 2008.00
1763, 2007.00
1764, 2007.00
1765, 2007.00
1766, 2006.00
1767, 2004.00
1768, 2006.00
1769, 2006.00
1770, 2006.00
1771, 2004.00
1772, 2004.00
1773, 2005.00
1774, 2006.00
1775, 2004.00
1776, 2003.00
1777, 2003.00
1778, 2003.00
1779, 2003.00
1780, 2002.00
1781, 2002.00
1782, 2000.00
1783, 2001.00
1784, 2000.00
1785, 2002.00
1786, 1999.00
1787, 1999.00
1788, 1998.00
1789, 2001.00
1790, 1998.00
1791, 1997.00
1792, 1998.00
1793, 1998.00
1794, 1997.00
1795, 1994.00
1796, 1996.00
1797, 1995.00
1798, 1995.00
1799, 1993.00
1800, 1994.00
1801, 1994.00
1802, 1994.00
1803, 1993.00
1804, 1994.00
1805, 1994.00
1806, 1989.00
1807, 1993.00
1808, 1991.00
1809, 1990.00
1810, 1991.00
1811, 1989.00
1812, 1988.00
1813, 1989.00
1814, 1987.00
1815, 1985.00
1816, 1987.00
1817, 1985.00
1818, 1986.00
1819, 1985.00
1820, 1983.00
1821, 1983.00
1822, 1983.00
1823, 1982.00
1824, 1982.00
1825, 1980.00
1826, 1980.00
1827, 1978.00
1828, 1977.00
1829, 1978.00
1830, 1975.00
1831, 1973.00
1832, 1973.00
1833, 1969.00
1834, 1969.00
1835, 1967.00
1836, 1966.00
1837, 1965.00
1838, 1962.00
1839, 1961.00
1840, 1961.00
1841, 1958.00
1842, 1956.00
1843, 1956.00
1844, 1951.00
1845, 1949.00
1846, 1949.00
1847, 1947.00
1848, 1945.00
1849, 1944.00
1850, 1940.00
1851, 1939.00
1852, 1937.00
1853, 1935.00
1854, 1935.00
1855, 1932.00
1856, 1929.00
1857, 1928.00
1858, 1925.00
1859, 1920.00
1860, 1920.00
1861, 1917.00
1862, 1918.00
1863, 1916.00
1864, 1914.00
1865, 1913.00
1866, 1912.00
1867, 1911.00
1868, 1906.00
1869, 1908.00
1870, 1907.00
1871, 1905.00
1872, 1903.00
1873, 1903.00
1874, 1901.00
1875, 1901.00
1876, 1902.00
1877, 1899.00
1878, 1899.00
1879, 1896.00
1880, 1896.00
1881, 1897.00
1882, 1896.00
1883, 1893.00
1884, 1895.00
1885, 1894.00
1886, 1893.00
1887, 1892.00
1888, 1892.00
1889, 1890.00
1890, 1890.00
1891, 1891.00
1892, 1889.00
1893, 1889.00
1894, 1890.00
1895, 1889.00
1896, 1888.00
1897, 1888.00
1898, 1888.00
1899, 1886.00
1900, 1887.00
1901, 1887.00
1902, 1887.00
1903, 1885.00
1904, 1885.00
1905, 1884.00
1906, 1887.00
1907, 1885.00
1908, 1887.00
1909, 1885.00
1910, 1887.00
1911, 1884.00
1912, 1883.00
1913, 1886.00
1914, 1885.00
1915, 1883.00
1916, 1884.00
1917, 1883.00
1918, 1884.00
1919, 1885.00
1920, 1885.00
1921, 1883.00
1922, 1883.00
1923, 1884.00
1924, 1883.00
1925, 1883.00
1926, 1884.00
1927, 1881.00
1928, 1882.00
1929, 1885.00
1930, 1885.00
1931, 1883.00
1932, 1884.00
1933, 1882.00
1934, 1883.00
1935, 1884.00
1936, 1885.00
1937, 1885.00
1938, 1884.00
1939, 1883.00
1940, 1885.00
1941, 1883.00
1942, 1885.00
1943, 1885.00
1944, 1885.00
1945, 1886.00
1946, 1887.00
1947, 1887.00
1948, 1887.00
1949, 1887.00
1950, 1888.00
1951, 1887.00
1952, 1887.00
1953, 1887.00
1954, 1888.00
1955, 1889.00
1956, 1888.00
1957, 1889.00
1958, 1889.00
1959, 1888.00
1960, 1890.00
1961, 1891.00
1962, 1889.00
1963, 1891.00
1964, 1893.00
1965, 1891.00
1966, 1892.00
1967, 1893.00
1968, 1893.00
1969, 1893.00
1970, 1892.00
1971, 1895.00
1972, 1895.00
1973, 1895.00
1974, 1895.00
1975, 1897.00
1976, 1899.00
1977, 1898.00
1978, 1897.00
1979, 1899.00
1980, 1898.00
1981, 1899.00
1982, 1899.00
1983, 1899.00
1984, 1901.00
1985, 1901.00
1986, 1901.00
1987, 1899.00
1988, 1903.00
1989, 1901.00
1990, 1903.00
1991, 1904.00
1992, 1903.00
1993, 1903.00
1994, 1904.00
1995, 1906.00
1996, 1906.00
1997, 1907.00
1998, 1906.00
1999, 1909.00
2000, 1908.00
2001, 1908.00
2002, 1907.00
2003, 1909.00
2004, 1909.00
2005, 1911.00
2006, 1911.00
2007, 1908.00
2008, 1911.00
2009, 1913.00
2010, 1910.00
2011, 1914.00
2012, 1915.00
2013, 1914.00
2014, 1916.00
2015, 1914.00
2016, 1916.00
2017, 1916.00
2018, 1917.00
2019, 1918.00
2020, 1916.00
2021, 1916.00
2022, 1918.00
2023, 1918.00
2024, 1919.00
2025, 1918.00
2026, 1919.00
2027, 1919.00
2028, 1919.00
2029, 1922.00
2030, 1923.00
2031, 1922.00
2032, 1922.00
2033, 1922.00
2034, 1924.00
2035, 1925.00
2036, 1925.00
2037, 1927.00
2038, 1926.00
2039, 1927.00
2040, 1928.00
2041, 1928.00
2042, 1929.00
2043, 1929.00
2044, 1931.00
2045, 1931.00
2046, 1932.00
2047, 1931.00
2048, 1931.00
2049, 1933.00
2050, 1935.00
2051, 1934.00
2052, 1936.00
2053, 1936.00
2054, 1936.00
2055, 1938.00
2056, 1938.00
2057, 1939.00
2058, 1940.00
2059, 1941.00
2060, 1941.00
2061, 1941.00
2062, 1942.00
2063, 1944.00
2064, 1944.00
2065, 1945.00
2066, 1944.00
2067, 1946.00
2068, 1947.00
2069, 1947.00
2070, 1949.00
2071, 1949.00
2072, 1950.00
2073, 1952.00
2074, 1951.00
2075, 1951.00
2076, 1951.00
2077, 1955.00
2078, 1955.00
2079, 1954.00
2080, 1957.00
2081, 1956.00
2082, 1957.00
2083, 1957.00
2084, 1959.00
2085, 1958.00
2086, 1960.00
2087, 1959.00
2088, 1959.00
2089, 1960.00
2090, 1961.00
2091, 1960.00
2092, 1963.00
2093, 1962.00
2094, 1962.00
2095, 1965.00
2096, 1963.00
2097, 1963.00
2098, 1966.00
2099, 1967.00
2100, 1965.00
2101, 1967.00
2102, 1967.00
2103, 1967.00
2104, 1968.00
2105, 1969.00
2106, 1970.00
2107, 1970.00
2108, 1968.00
2109, 1968.00
2110, 1970.00
2111, 1972.00
2112, 1972.00
2113, 1973.00
2114, 1971.00
2115, 1971.00
2116, 1971.00
2117, 1973.00
2118, 1973.00
2119, 1973.00
2120, 1974.00
2121, 1975.00
2122, 1972.00
2123, 1975.00
2124, 1972.00
2125, 1974.00
2126, 1975.00
2127, 1978.00
2128, 1977.00
2129, 1976.00
2130, 1975.00
2131, 1977.00
2132, 1977.00
2133, 1979.00
2134, 1978.00
2135, 1977.00
2136, 1978.00
2137, 1979.00
2138, 1979.00
2139, 1979.00
2140, 1978.00
2141, 1979.00
2142, 1979.00
2143, 1980.00
2144, 1979.00
2145, 1979.00
2146, 1981.00
2147, 1979.00
2148, 1979.00
2149, 1981.00
2150, 1981.00
