FW version: 24
Log Version: 3.0.3

General Info:
       Command/Macro Performed,            Timestamp,             Device ID, COM Port, UART/I2C, Test Name, Host Major, Host Minor, Host Revision, Host Git Commit
            Single_measurement,  2023_06_28_11_14_49,       Insight2_F4_xxx,    USB-C,      USB,          ,          0,          1,             1,      4031237645

Show Spectrometer Status:
l0_version, f4_version, battery_perc, battery_mVolt, accelerometer_temp, accelerometer_x, accelerometer_y, accelerometer_z, compass_temp, compass_x, compass_y, compass_z, lamp_0, lamp_1, gain_0, gain_1
        17,         24,           38,          1887,               6272,           65236,             872,           18764,            0,     65500,     65530,     18798,   2047,   2047,      1,      1

Temperature Statistic Info:
NTC AVG [°C], NTC2 AVG [°C]
      38.739,        38.450

Statistic Info:
M1:  num,      min,      max,   median,      AVG,      STD,M2:  num,      min,      max,   median,      AVG,      STD
     301,   707.00,   823.00,   733.00,   746.40,  36.3495,     401,  1058.00,  1129.00,  1090.00,  1091.35,  23.9666,

Measurements:
Wavelength, Data Amplitude
1350, 723.00
1351, 724.00
1352, 723.00
1353, 722.00
1354, 722.00
1355, 722.00
1356, 722.00
1357, 721.00
1358, 721.00
1359, 720.00
1360, 721.00
1361, 720.00
1362, 720.00
1363, 719.00
1364, 719.00
1365, 718.00
1366, 718.00
1367, 717.00
1368, 716.00
1369, 716.00
1370, 716.00
1371, 716.00
1372, 716.00
1373, 714.00
1374, 715.00
1375, 714.00
1376, 714.00
1377, 713.00
1378, 712.00
1379, 713.00
1380, 712.00
1381, 711.00
1382, 711.00
1383, 711.00
1384, 710.00
1385, 710.00
1386, 710.00
1387, 710.00
1388, 711.00
1389, 711.00
1390, 709.00
1391, 711.00
1392, 709.00
1393, 710.00
1394, 709.00
1395, 709.00
1396, 709.00
1397, 710.00
1398, 708.00
1399, 709.00
1400, 709.00
1401, 709.00
1402, 709.00
1403, 708.00
1404, 709.00
1405, 709.00
1406, 708.00
1407, 709.00
1408, 708.00
1409, 707.00
1410, 708.00
1411, 708.00
1412, 708.00
1413, 707.00
1414, 707.00
1415, 709.00
1416, 707.00
1417, 709.00
1418, 708.00
1419, 708.00
1420, 708.00
1421, 709.00
1422, 709.00
1423, 708.00
1424, 709.00
1425, 708.00
1426, 709.00
1427, 708.00
1428, 709.00
1429, 708.00
1430, 709.00
1431, 709.00
1432, 709.00
1433, 710.00
1434, 709.00
1435, 709.00
1436, 710.00
1437, 710.00
1438, 710.00
1439, 710.00
1440, 711.00
1441, 711.00
1442, 711.00
1443, 712.00
1444, 713.00
1445, 711.00
1446, 712.00
1447, 712.00
1448, 714.00
1449, 714.00
1450, 713.00
1451, 714.00
1452, 714.00
1453, 714.00
1454, 715.00
1455, 715.00
1456, 715.00
1457, 715.00
1458, 716.00
1459, 716.00
1460, 716.00
1461, 715.00
1462, 717.00
1463, 717.00
1464, 717.00
1465, 718.00
1466, 717.00
1467, 719.00
1468, 720.00
1469, 720.00
1470, 719.00
1471, 720.00
1472, 721.00
1473, 721.00
1474, 721.00
1475, 721.00
1476, 723.00
1477, 722.00
1478, 723.00
1479, 724.00
1480, 724.00
1481, 725.00
1482, 725.00
1483, 725.00
1484, 726.00
1485, 726.00
1486, 727.00
1487, 727.00
1488, 727.00
1489, 728.00
1490, 728.00
1491, 730.00
1492, 730.00
1493, 730.00
1494, 731.00
1495, 732.00
1496, 732.00
1497, 732.00
1498, 732.00
1499, 733.00
1500, 734.00
1501, 733.00
1502, 735.00
1503, 735.00
1504, 736.00
1505, 736.00
1506, 737.00
1507, 738.00
1508, 738.00
1509, 738.00
1510, 739.00
1511, 740.00
1512, 740.00
1513, 740.00
1514, 741.00
1515, 742.00
1516, 742.00
1517, 742.00
1518, 743.00
1519, 744.00
1520, 746.00
1521, 745.00
1522, 746.00
1523, 747.00
1524, 746.00
1525, 747.00
1526, 748.00
1527, 748.00
1528, 749.00
1529, 751.00
1530, 751.00
1531, 751.00
1532, 751.00
1533, 752.00
1534, 753.00
1535, 753.00
1536, 754.00
1537, 755.00
1538, 756.00
1539, 756.00
1540, 755.00
1541, 757.00
1542, 757.00
1543, 758.00
1544, 759.00
1545, 759.00
1546, 760.00
1547, 761.00
1548, 761.00
1549, 760.00
1550, 761.00
1551, 763.00
1552, 762.00
1553, 762.00
1554, 765.00
1555, 764.00
1556, 765.00
1557, 765.00
1558, 767.00
1559, 768.00
1560, 768.00
1561, 769.00
1562, 768.00
1563, 770.00
1564, 771.00
1565, 770.00
1566, 772.00
1567, 771.00
1568, 772.00
1569, 773.00
1570, 774.00
1571, 774.00
1572, 775.00
1573, 775.00
1574, 776.00
1575, 776.00
1576, 777.00
1577, 776.00
1578, 778.00
1579, 778.00
1580, 780.00
1581, 780.00
1582, 780.00
1583, 781.00
1584, 782.00
1585, 782.00
1586, 782.00
1587, 784.00
1588, 784.00
1589, 784.00
1590, 785.00
1591, 785.00
1592, 787.00
1593, 787.00
1594, 787.00
1595, 788.00
1596, 789.00
1597, 789.00
1598, 791.00
1599, 791.00
1600, 791.00
1601, 791.00
1602, 792.00
1603, 792.00
1604, 793.00
1605, 794.00
1606, 795.00
1607, 795.00
1608, 797.00
1609, 797.00
1610, 797.00
1611, 798.00
1612, 799.00
1613, 800.00
1614, 799.00
1615, 802.00
1616, 801.00
1617, 802.00
1618, 804.00
1619, 803.00
1620, 805.00
1621, 806.00
1622, 806.00
1623, 806.00
1624, 808.00
1625, 808.00
1626, 809.00
1627, 810.00
1628, 810.00
1629, 810.00
1630, 812.00
1631, 812.00
1632, 812.00
1633, 813.00
1634, 814.00
1635, 815.00
1636, 816.00
1637, 816.00
1638, 816.00
1639, 816.00
1640, 817.00
1641, 817.00
1642, 818.00
1643, 818.00
1644, 819.00
1645, 820.00
1646, 820.00
1647, 821.00
1648, 821.00
1649, 822.00
1650, 823.00

1750, 1129.00
1751, 1128.00
1752, 1128.00
1753, 1127.00
1754, 1127.00
1755, 1126.00
1756, 1129.00
1757, 1129.00
1758, 1129.00
1759, 1128.00
1760, 1129.00
1761, 1129.00
1762, 1128.00
1763, 1129.00
1764, 1129.00
1765, 1129.00
1766, 1127.00
1767, 1127.00
1768, 1128.00
1769, 1128.00
1770, 1128.00
1771, 1128.00
1772, 1128.00
1773, 1127.00
1774, 1126.00
1775, 1126.00
1776, 1127.00
1777, 1125.00
1778, 1129.00
1779, 1126.00
1780, 1126.00
1781, 1125.00
1782, 1125.00
1783, 1125.00
1784, 1126.00
1785, 1125.00
1786, 1124.00
1787, 1124.00
1788, 1125.00
1789, 1124.00
1790, 1123.00
1791, 1122.00
1792, 1124.00
1793, 1123.00
1794, 1122.00
1795, 1123.00
1796, 1121.00
1797, 1123.00
1798, 1122.00
1799, 1123.00
1800, 1122.00
1801, 1122.00
1802, 1120.00
1803, 1120.00
1804, 1120.00
1805, 1120.00
1806, 1121.00
1807, 1121.00
1808, 1120.00
1809, 1118.00
1810, 1119.00
1811, 1119.00
1812, 1120.00
1813, 1118.00
1814, 1118.00
1815, 1119.00
1816, 1119.00
1817, 1117.00
1818, 1115.00
1819, 1115.00
1820, 1116.00
1821, 1116.00
1822, 1115.00
1823, 1115.00
1824, 1116.00
1825, 1114.00
1826, 1114.00
1827, 1112.00
1828, 1113.00
1829, 1112.00
1830, 1110.00
1831, 1111.00
1832, 1109.00
1833, 1109.00
1834, 1110.00
1835, 1109.00
1836, 1108.00
1837, 1106.00
1838, 1104.00
1839, 1104.00
1840, 1101.00
1841, 1101.00
1842, 1100.00
1843, 1098.00
1844, 1098.00
1845, 1097.00
1846, 1096.00
1847, 1096.00
1848, 1094.00
1849, 1094.00
1850, 1093.00
1851, 1092.00
1852, 1087.00
1853, 1090.00
1854, 1088.00
1855, 1087.00
1856, 1085.00
1857, 1084.00
1858, 1083.00
1859, 1082.00
1860, 1083.00
1861, 1079.00
1862, 1080.00
1863, 1078.00
1864, 1077.00
1865, 1077.00
1866, 1076.00
1867, 1074.00
1868, 1073.00
1869, 1073.00
1870, 1071.00
1871, 1071.00
1872, 1069.00
1873, 1070.00
1874, 1070.00
1875, 1068.00
1876, 1067.00
1877, 1069.00
1878, 1066.00
1879, 1065.00
1880, 1066.00
1881, 1064.00
1882, 1063.00
1883, 1064.00
1884, 1066.00
1885, 1064.00
1886, 1064.00
1887, 1065.00
1888, 1064.00
1889, 1062.00
1890, 1063.00
1891, 1063.00
1892, 1063.00
1893, 1063.00
1894, 1061.00
1895, 1063.00
1896, 1062.00
1897, 1062.00
1898, 1062.00
1899, 1060.00
1900, 1060.00
1901, 1061.00
1902, 1062.00
1903, 1061.00
1904, 1062.00
1905, 1063.00
1906, 1060.00
1907, 1060.00
1908, 1060.00
1909, 1059.00
1910, 1058.00
1911, 1059.00
1912, 1059.00
1913, 1059.00
1914, 1059.00
1915, 1060.00
1916, 1058.00
1917, 1058.00
1918, 1059.00
1919, 1058.00
1920, 1061.00
1921, 1059.00
1922, 1059.00
1923, 1059.00
1924, 1058.00
1925, 1060.00
1926, 1058.00
1927, 1061.00
1928, 1060.00
1929, 1058.00
1930, 1059.00
1931, 1060.00
1932, 1059.00
1933, 1059.00
1934, 1059.00
1935, 1061.00
1936, 1059.00
1937, 1060.00
1938, 1059.00
1939, 1058.00
1940, 1060.00
1941, 1060.00
1942, 1060.00
1943, 1061.00
1944, 1058.00
1945, 1060.00
1946, 1060.00
1947, 1061.00
1948, 1060.00
1949, 1061.00
1950, 1061.00
1951, 1060.00
1952, 1062.00
1953, 1062.00
1954, 1062.00
1955, 1061.00
1956, 1062.00
1957, 1063.00
1958, 1063.00
1959, 1062.00
1960, 1064.00
1961, 1062.00
1962, 1063.00
1963, 1063.00
1964, 1064.00
1965, 1064.00
1966, 1065.00
1967, 1065.00
1968, 1065.00
1969, 1064.00
1970, 1066.00
1971, 1066.00
1972, 1065.00
1973, 1067.00
1974, 1066.00
1975, 1066.00
1976, 1068.00
1977, 1067.00
1978, 1068.00
1979, 1068.00
1980, 1069.00
1981, 1067.00
1982, 1069.00
1983, 1068.00
1984, 1069.00
1985, 1067.00
1986, 1069.00
1987, 1069.00
1988, 1070.00
1989, 1069.00
1990, 1071.00
1991, 1071.00
1992, 1071.00
1993, 1073.00
1994, 1072.00
1995, 1071.00
1996, 1073.00
1997, 1073.00
1998, 1072.00
1999, 1074.00
2000, 1073.00
2001, 1074.00
2002, 1075.00
2003, 1072.00
2004, 1077.00
2005, 1075.00
2006, 1076.00
2007, 1076.00
2008, 1075.00
2009, 1075.00
2010, 1075.00
2011, 1074.00
2012, 1079.00
2013, 1077.00
2014, 1075.00
2015, 1079.00
2016, 1078.00
2017, 1079.00
2018, 1078.00
2019, 1078.00
2020, 1078.00
2021, 1078.00
2022, 1079.00
2023, 1080.00
2024, 1079.00
2025, 1080.00
2026, 1079.00
2027, 1080.00
2028, 1081.00
2029, 1081.00
2030, 1081.00
2031, 1081.00
2032, 1083.00
2033, 1082.00
2034, 1083.00
2035, 1084.00
2036, 1083.00
2037, 1084.00
2038, 1085.00
2039, 1084.00
2040, 1086.00
2041, 1085.00
2042, 1088.00
2043, 1087.00
2044, 1088.00
2045, 1088.00
2046, 1089.00
2047, 1089.00
2048, 1088.00
2049, 1089.00
2050, 1090.00
2051, 1091.00
2052, 1090.00
2053, 1090.00
2054, 1091.00
2055, 1090.00
2056, 1092.00
2057, 1092.00
2058, 1092.00
2059, 1092.00
2060, 1094.00
2061, 1093.00
2062, 1095.00
2063, 1096.00
2064, 1096.00
2065, 1095.00
2066, 1096.00
2067, 1098.00
2068, 1097.00
2069, 1099.00
2070, 1100.00
2071, 1098.00
2072, 1099.00
2073, 1099.00
2074, 1102.00
2075, 1099.00
2076, 1101.00
2077, 1102.00
2078, 1101.00
2079, 1100.00
2080, 1103.00
2081, 1105.00
2082, 1103.00
2083, 1104.00
2084, 1106.00
2085, 1103.00
2086, 1104.00
2087, 1106.00
2088, 1105.00
2089, 1107.00
2090, 1105.00
2091, 1106.00
2092, 1106.00
2093, 1108.00
2094, 1108.00
2095, 1107.00
2096, 1107.00
2097, 1109.00
2098, 1107.00
2099, 1108.00
2100, 1108.00
2101, 1109.00
2102, 1110.00
2103, 1111.00
2104, 1110.00
2105, 1111.00
2106, 1111.00
2107, 1112.00
2108, 1110.00
2109, 1111.00
2110, 1111.00
2111, 1112.00
2112, 1111.00
2113, 1113.00
2114, 1112.00
2115, 1112.00
2116, 1112.00
2117, 1112.00
2118, 1114.00
2119, 1113.00
2120, 1113.00
2121, 1115.00
2122, 1114.00
2123, 1115.00
2124, 1115.00
2125, 1116.00
2126, 1116.00
2127, 1114.00
2128, 1114.00
2129, 1116.00
2130, 1114.00
2131, 1117.00
2132, 1116.00
2133, 1114.00
2134, 1116.00
2135, 1117.00
2136, 1117.00
2137, 1116.00
2138, 1116.00
2139, 1116.00
2140, 1116.00
2141, 1118.00
2142, 1118.00
2143, 1117.00
2144, 1119.00
2145, 1117.00
2146, 1118.00
2147, 1118.00
2148, 1118.00
2149, 1120.00
2150, 1118.00
