FW version: 24
Log Version: 3.0.3

General Info:
       Command/Macro Performed,            Timestamp,             Device ID, COM Port, UART/I2C, Test Name, Host Major, Host Minor, Host Revision, Host Git Commit
            Single_measurement,  2023_06_28_12_22_49,       Insight2_F4_xxx,    USB-C,      USB,          ,          0,          1,             1,      4031237645

Show Spectrometer Status:
l0_version, f4_version, battery_perc, battery_mVolt, accelerometer_temp, accelerometer_x, accelerometer_y, accelerometer_z, compass_temp, compass_x, compass_y, compass_z, lamp_0, lamp_1, gain_0, gain_1
        17,         24,           49,          1904,               6624,           65184,            1108,           18808,            0,     65518,     65524,     18810,   3276,   3276,      1,      1

Temperature Statistic Info:
NTC AVG [°C], NTC2 AVG [°C]
      40.822,        40.470

Statistic Info:
M1:  num,      min,      max,   median,      AVG,      STD,M2:  num,      min,      max,   median,      AVG,      STD
     301,  1866.00,  2137.00,  1924.00,  1956.09,  84.5617,     401,  2447.00,  2613.00,  2519.00,  2521.63,  53.8738,

Measurements:
Wavelength, Data Amplitude
1350, 1913.00
1351, 1912.00
1352, 1910.00
1353, 1910.00
1354, 1909.00
1355, 1908.00
1356, 1908.00
1357, 1907.00
1358, 1906.00
1359, 1904.00
1360, 1905.00
1361, 1902.00
1362, 1903.00
1363, 1899.00
1364, 1899.00
1365, 1899.00
1366, 1897.00
1367, 1894.00
1368, 1894.00
1369, 1892.00
1370, 1890.00
1371, 1891.00
1372, 1889.00
1373, 1887.00
1374, 1886.00
1375, 1885.00
1376, 1883.00
1377, 1882.00
1378, 1881.00
1379, 1882.00
1380, 1881.00
1381, 1879.00
1382, 1878.00
1383, 1877.00
1384, 1877.00
1385, 1875.00
1386, 1876.00
1387, 1875.00
1388, 1874.00
1389, 1873.00
1390, 1875.00
1391, 1873.00
1392, 1873.00
1393, 1872.00
1394, 1872.00
1395, 1871.00
1396, 1871.00
1397, 1871.00
1398, 1870.00
1399, 1870.00
1400, 1869.00
1401, 1869.00
1402, 1869.00
1403, 1869.00
1404, 1869.00
1405, 1869.00
1406, 1869.00
1407, 1867.00
1408, 1868.00
1409, 1869.00
1410, 1867.00
1411, 1866.00
1412, 1867.00
1413, 1867.00
1414, 1866.00
1415, 1867.00
1416, 1867.00
1417, 1867.00
1418, 1867.00
1419, 1868.00
1420, 1868.00
1421, 1867.00
1422, 1867.00
1423, 1867.00
1424, 1869.00
1425, 1869.00
1426, 1868.00
1427, 1868.00
1428, 1869.00
1429, 1869.00
1430, 1869.00
1431, 1868.00
1432, 1869.00
1433, 1870.00
1434, 1871.00
1435, 1870.00
1436, 1871.00
1437, 1871.00
1438, 1872.00
1439, 1872.00
1440, 1873.00
1441, 1873.00
1442, 1873.00
1443, 1875.00
1444, 1874.00
1445, 1875.00
1446, 1876.00
1447, 1877.00
1448, 1876.00
1449, 1877.00
1450, 1877.00
1451, 1879.00
1452, 1878.00
1453, 1878.00
1454, 1880.00
1455, 1880.00
1456, 1881.00
1457, 1882.00
1458, 1883.00
1459, 1883.00
1460, 1884.00
1461, 1885.00
1462, 1885.00
1463, 1886.00
1464, 1886.00
1465, 1888.00
1466, 1889.00
1467, 1890.00
1468, 1890.00
1469, 1892.00
1470, 1892.00
1471, 1893.00
1472, 1894.00
1473, 1894.00
1474, 1896.00
1475, 1897.00
1476, 1898.00
1477, 1899.00
1478, 1901.00
1479, 1900.00
1480, 1902.00
1481, 1903.00
1482, 1903.00
1483, 1906.00
1484, 1906.00
1485, 1908.00
1486, 1909.00
1487, 1909.00
1488, 1910.00
1489, 1911.00
1490, 1913.00
1491, 1914.00
1492, 1915.00
1493, 1915.00
1494, 1918.00
1495, 1919.00
1496, 1919.00
1497, 1921.00
1498, 1922.00
1499, 1921.00
1500, 1924.00
1501, 1925.00
1502, 1926.00
1503, 1927.00
1504, 1929.00
1505, 1929.00
1506, 1931.00
1507, 1932.00
1508, 1933.00
1509, 1934.00
1510, 1935.00
1511, 1937.00
1512, 1937.00
1513, 1938.00
1514, 1940.00
1515, 1940.00
1516, 1942.00
1517, 1943.00
1518, 1947.00
1519, 1946.00
1520, 1947.00
1521, 1949.00
1522, 1950.00
1523, 1951.00
1524, 1952.00
1525, 1955.00
1526, 1956.00
1527, 1958.00
1528, 1957.00
1529, 1959.00
1530, 1961.00
1531, 1963.00
1532, 1963.00
1533, 1964.00
1534, 1967.00
1535, 1967.00
1536, 1970.00
1537, 1969.00
1538, 1971.00
1539, 1973.00
1540, 1975.00
1541, 1976.00
1542, 1976.00
1543, 1979.00
1544, 1980.00
1545, 1981.00
1546, 1983.00
1547, 1983.00
1548, 1986.00
1549, 1987.00
1550, 1988.00
1551, 1989.00
1552, 1990.00
1553, 1991.00
1554, 1994.00
1555, 1995.00
1556, 1996.00
1557, 1999.00
1558, 2000.00
1559, 2001.00
1560, 2003.00
1561, 2004.00
1562, 2006.00
1563, 2007.00
1564, 2010.00
1565, 2011.00
1566, 2012.00
1567, 2014.00
1568, 2016.00
1569, 2017.00
1570, 2019.00
1571, 2021.00
1572, 2022.00
1573, 2023.00
1574, 2025.00
1575, 2025.00
1576, 2025.00
1577, 2029.00
1578, 2030.00
1579, 2031.00
1580, 2032.00
1581, 2034.00
1582, 2036.00
1583, 2037.00
1584, 2037.00
1585, 2039.00
1586, 2041.00
1587, 2043.00
1588, 2043.00
1589, 2045.00
1590, 2046.00
1591, 2048.00
1592, 2049.00
1593, 2051.00
1594, 2052.00
1595, 2054.00
1596, 2055.00
1597, 2056.00
1598, 2058.00
1599, 2060.00
1600, 2060.00
1601, 2061.00
1602, 2063.00
1603, 2064.00
1604, 2067.00
1605, 2068.00
1606, 2069.00
1607, 2071.00
1608, 2071.00
1609, 2074.00
1610, 2075.00
1611, 2076.00
1612, 2078.00
1613, 2081.00
1614, 2082.00
1615, 2084.00
1616, 2086.00
1617, 2088.00
1618, 2089.00
1619, 2091.00
1620, 2092.00
1621, 2094.00
1622, 2096.00
1623, 2098.00
1624, 2099.00
1625, 2101.00
1626, 2101.00
1627, 2104.00
1628, 2105.00
1629, 2108.00
1630, 2108.00
1631, 2112.00
1632, 2112.00
1633, 2114.00
1634, 2115.00
1635, 2116.00
1636, 2118.00
1637, 2120.00
1638, 2121.00
1639, 2122.00
1640, 2124.00
1641, 2124.00
1642, 2126.00
1643, 2128.00
1644, 2129.00
1645, 2131.00
1646, 2131.00
1647, 2133.00
1648, 2135.00
1649, 2136.00
1650, 2137.00

1750, 2613.00
1751, 2611.00
1752, 2610.00
1753, 2610.00
1754, 2609.00
1755, 2610.00
1756, 2610.00
1757, 2611.00
1758, 2611.00
1759, 2610.00
1760, 2609.00
1761, 2611.00
1762, 2609.00
1763, 2610.00
1764, 2611.00
1765, 2609.00
1766, 2610.00
1767, 2610.00
1768, 2609.00
1769, 2609.00
1770, 2607.00
1771, 2608.00
1772, 2606.00
1773, 2608.00
1774, 2606.00
1775, 2606.00
1776, 2605.00
1777, 2604.00
1778, 2607.00
1779, 2603.00
1780, 2602.00
1781, 2601.00
1782, 2601.00
1783, 2601.00
1784, 2602.00
1785, 2601.00
1786, 2601.00
1787, 2599.00
1788, 2599.00
1789, 2598.00
1790, 2598.00
1791, 2599.00
1792, 2597.00
1793, 2595.00
1794, 2595.00
1795, 2595.00
1796, 2593.00
1797, 2596.00
1798, 2592.00
1799, 2591.00
1800, 2591.00
1801, 2591.00
1802, 2590.00
1803, 2592.00
1804, 2591.00
1805, 2589.00
1806, 2589.00
1807, 2590.00
1808, 2588.00
1809, 2588.00
1810, 2586.00
1811, 2585.00
1812, 2584.00
1813, 2585.00
1814, 2584.00
1815, 2583.00
1816, 2583.00
1817, 2583.00
1818, 2582.00
1819, 2581.00
1820, 2581.00
1821, 2579.00
1822, 2579.00
1823, 2577.00
1824, 2573.00
1825, 2574.00
1826, 2573.00
1827, 2572.00
1828, 2568.00
1829, 2569.00
1830, 2567.00
1831, 2564.00
1832, 2564.00
1833, 2560.00
1834, 2559.00
1835, 2556.00
1836, 2555.00
1837, 2554.00
1838, 2552.00
1839, 2548.00
1840, 2548.00
1841, 2545.00
1842, 2542.00
1843, 2541.00
1844, 2539.00
1845, 2536.00
1846, 2532.00
1847, 2530.00
1848, 2527.00
1849, 2525.00
1850, 2521.00
1851, 2521.00
1852, 2516.00
1853, 2513.00
1854, 2513.00
1855, 2509.00
1856, 2507.00
1857, 2505.00
1858, 2501.00
1859, 2500.00
1860, 2496.00
1861, 2495.00
1862, 2493.00
1863, 2491.00
1864, 2489.00
1865, 2486.00
1866, 2486.00
1867, 2482.00
1868, 2482.00
1869, 2481.00
1870, 2479.00
1871, 2477.00
1872, 2476.00
1873, 2475.00
1874, 2471.00
1875, 2470.00
1876, 2470.00
1877, 2470.00
1878, 2469.00
1879, 2466.00
1880, 2466.00
1881, 2467.00
1882, 2466.00
1883, 2464.00
1884, 2461.00
1885, 2463.00
1886, 2459.00
1887, 2459.00
1888, 2461.00
1889, 2458.00
1890, 2459.00
1891, 2457.00
1892, 2457.00
1893, 2457.00
1894, 2455.00
1895, 2456.00
1896, 2454.00
1897, 2454.00
1898, 2457.00
1899, 2455.00
1900, 2453.00
1901, 2452.00
1902, 2453.00
1903, 2455.00
1904, 2453.00
1905, 2454.00
1906, 2453.00
1907, 2453.00
1908, 2453.00
1909, 2451.00
1910, 2450.00
1911, 2452.00
1912, 2453.00
1913, 2450.00
1914, 2450.00
1915, 2450.00
1916, 2448.00
1917, 2449.00
1918, 2450.00
1919, 2449.00
1920, 2447.00
1921, 2448.00
1922, 2452.00
1923, 2450.00
1924, 2450.00
1925, 2449.00
1926, 2449.00
1927, 2449.00
1928, 2448.00
1929, 2449.00
1930, 2449.00
1931, 2451.00
1932, 2449.00
1933, 2450.00
1934, 2449.00
1935, 2451.00
1936, 2452.00
1937, 2449.00
1938, 2452.00
1939, 2450.00
1940, 2453.00
1941, 2452.00
1942, 2451.00
1943, 2453.00
1944, 2453.00
1945, 2454.00
1946, 2451.00
1947, 2453.00
1948, 2453.00
1949, 2455.00
1950, 2454.00
1951, 2453.00
1952, 2454.00
1953, 2456.00
1954, 2456.00
1955, 2457.00
1956, 2456.00
1957, 2456.00
1958, 2456.00
1959, 2458.00
1960, 2458.00
1961, 2459.00
1962, 2459.00
1963, 2460.00
1964, 2461.00
1965, 2461.00
1966, 2462.00
1967, 2461.00
1968, 2462.00
1969, 2464.00
1970, 2464.00
1971, 2462.00
1972, 2466.00
1973, 2464.00
1974, 2466.00
1975, 2466.00
1976, 2468.00
1977, 2469.00
1978, 2467.00
1979, 2470.00
1980, 2470.00
1981, 2468.00
1982, 2471.00
1983, 2472.00
1984, 2472.00
1985, 2472.00
1986, 2474.00
1987, 2475.00
1988, 2475.00
1989, 2475.00
1990, 2475.00
1991, 2478.00
1992, 2477.00
1993, 2478.00
1994, 2478.00
1995, 2479.00
1996, 2480.00
1997, 2482.00
1998, 2480.00
1999, 2481.00
2000, 2482.00
2001, 2481.00
2002, 2480.00
2003, 2484.00
2004, 2484.00
2005, 2485.00
2006, 2483.00
2007, 2485.00
2008, 2485.00
2009, 2486.00
2010, 2488.00
2011, 2489.00
2012, 2489.00
2013, 2490.00
2014, 2490.00
2015, 2491.00
2016, 2490.00
2017, 2492.00
2018, 2493.00
2019, 2492.00
2020, 2493.00
2021, 2493.00
2022, 2494.00
2023, 2496.00
2024, 2498.00
2025, 2498.00
2026, 2497.00
2027, 2500.00
2028, 2500.00
2029, 2499.00
2030, 2500.00
2031, 2501.00
2032, 2502.00
2033, 2502.00
2034, 2503.00
2035, 2503.00
2036, 2505.00
2037, 2505.00
2038, 2506.00
2039, 2507.00
2040, 2507.00
2041, 2507.00
2042, 2511.00
2043, 2509.00
2044, 2512.00
2045, 2513.00
2046, 2513.00
2047, 2515.00
2048, 2516.00
2049, 2516.00
2050, 2516.00
2051, 2518.00
2052, 2519.00
2053, 2519.00
2054, 2521.00
2055, 2522.00
2056, 2523.00
2057, 2523.00
2058, 2524.00
2059, 2524.00
2060, 2526.00
2061, 2527.00
2062, 2528.00
2063, 2529.00
2064, 2530.00
2065, 2529.00
2066, 2531.00
2067, 2533.00
2068, 2533.00
2069, 2533.00
2070, 2536.00
2071, 2535.00
2072, 2537.00
2073, 2539.00
2074, 2538.00
2075, 2540.00
2076, 2540.00
2077, 2541.00
2078, 2541.00
2079, 2543.00
2080, 2545.00
2081, 2545.00
2082, 2545.00
2083, 2547.00
2084, 2546.00
2085, 2545.00
2086, 2549.00
2087, 2548.00
2088, 2549.00
2089, 2551.00
2090, 2551.00
2091, 2553.00
2092, 2554.00
2093, 2553.00
2094, 2554.00
2095, 2555.00
2096, 2555.00
2097, 2556.00
2098, 2555.00
2099, 2557.00
2100, 2557.00
2101, 2558.00
2102, 2558.00
2103, 2559.00
2104, 2559.00
2105, 2561.00
2106, 2561.00
2107, 2561.00
2108, 2561.00
2109, 2562.00
2110, 2561.00
2111, 2563.00
2112, 2565.00
2113, 2563.00
2114, 2564.00
2115, 2564.00
2116, 2565.00
2117, 2566.00
2118, 2567.00
2119, 2567.00
2120, 2567.00
2121, 2567.00
2122, 2568.00
2123, 2566.00
2124, 2568.00
2125, 2567.00
2126, 2569.00
2127, 2570.00
2128, 2571.00
2129, 2569.00
2130, 2572.00
2131, 2571.00
2132, 2571.00
2133, 2572.00
2134, 2571.00
2135, 2572.00
2136, 2573.00
2137, 2572.00
2138, 2574.00
2139, 2575.00
2140, 2573.00
2141, 2572.00
2142, 2575.00
2143, 2576.00
2144, 2574.00
2145, 2577.00
2146, 2575.00
2147, 2576.00
2148, 2578.00
2149, 2576.00
2150, 2576.00
