FW version: 24
Log Version: 3.0.3

General Info:
       Command/Macro Performed,            Timestamp,             Device ID, COM Port, UART/I2C, Test Name, Host Major, Host Minor, Host Revision, Host Git Commit
            Single_measurement,  2023_06_28_12_21_52,       Insight2_F4_xxx,    USB-C,      USB,          ,          0,          1,             1,      4031237645

Show Spectrometer Status:
l0_version, f4_version, battery_perc, battery_mVolt, accelerometer_temp, accelerometer_x, accelerometer_y, accelerometer_z, compass_temp, compass_x, compass_y, compass_z, lamp_0, lamp_1, gain_0, gain_1
        17,         24,           49,          1908,               6624,           65212,            1100,           18692,            0,     65533,     65517,     18716,   2047,   2047,      1,      1

Temperature Statistic Info:
NTC AVG [°C], NTC2 AVG [°C]
      40.352,        40.084

Statistic Info:
M1:  num,      min,      max,   median,      AVG,      STD,M2:  num,      min,      max,   median,      AVG,      STD
     301,   745.00,   865.00,   773.00,   785.98,  37.9287,     401,  1110.00,  1186.00,  1145.00,  1146.30,  25.2581,

Measurements:
Wavelength, Data Amplitude
1350, 762.00
1351, 762.00
1352, 760.00
1353, 761.00
1354, 759.00
1355, 760.00
1356, 760.00
1357, 759.00
1358, 759.00
1359, 759.00
1360, 758.00
1361, 759.00
1362, 758.00
1363, 757.00
1364, 757.00
1365, 757.00
1366, 756.00
1367, 756.00
1368, 755.00
1369, 755.00
1370, 755.00
1371, 754.00
1372, 754.00
1373, 752.00
1374, 752.00
1375, 752.00
1376, 751.00
1377, 751.00
1378, 751.00
1379, 750.00
1380, 750.00
1381, 750.00
1382, 749.00
1383, 749.00
1384, 748.00
1385, 749.00
1386, 749.00
1387, 748.00
1388, 748.00
1389, 748.00
1390, 748.00
1391, 748.00
1392, 747.00
1393, 748.00
1394, 747.00
1395, 748.00
1396, 747.00
1397, 748.00
1398, 747.00
1399, 746.00
1400, 745.00
1401, 746.00
1402, 747.00
1403, 745.00
1404, 746.00
1405, 746.00
1406, 746.00
1407, 746.00
1408, 746.00
1409, 746.00
1410, 745.00
1411, 746.00
1412, 745.00
1413, 747.00
1414, 746.00
1415, 745.00
1416, 746.00
1417, 746.00
1418, 746.00
1419, 746.00
1420, 745.00
1421, 747.00
1422, 746.00
1423, 746.00
1424, 747.00
1425, 747.00
1426, 746.00
1427, 747.00
1428, 747.00
1429, 747.00
1430, 747.00
1431, 747.00
1432, 748.00
1433, 747.00
1434, 748.00
1435, 748.00
1436, 748.00
1437, 748.00
1438, 748.00
1439, 749.00
1440, 749.00
1441, 749.00
1442, 749.00
1443, 750.00
1444, 751.00
1445, 750.00
1446, 751.00
1447, 751.00
1448, 751.00
1449, 751.00
1450, 751.00
1451, 752.00
1452, 751.00
1453, 752.00
1454, 752.00
1455, 752.00
1456, 753.00
1457, 754.00
1458, 753.00
1459, 753.00
1460, 754.00
1461, 754.00
1462, 756.00
1463, 755.00
1464, 756.00
1465, 757.00
1466, 757.00
1467, 758.00
1468, 758.00
1469, 758.00
1470, 758.00
1471, 758.00
1472, 759.00
1473, 759.00
1474, 760.00
1475, 760.00
1476, 760.00
1477, 761.00
1478, 761.00
1479, 762.00
1480, 762.00
1481, 763.00
1482, 764.00
1483, 765.00
1484, 764.00
1485, 765.00
1486, 766.00
1487, 766.00
1488, 766.00
1489, 768.00
1490, 769.00
1491, 768.00
1492, 769.00
1493, 768.00
1494, 770.00
1495, 770.00
1496, 771.00
1497, 772.00
1498, 772.00
1499, 772.00
1500, 773.00
1501, 774.00
1502, 774.00
1503, 774.00
1504, 776.00
1505, 775.00
1506, 775.00
1507, 777.00
1508, 777.00
1509, 777.00
1510, 778.00
1511, 779.00
1512, 779.00
1513, 780.00
1514, 781.00
1515, 781.00
1516, 782.00
1517, 782.00
1518, 784.00
1519, 783.00
1520, 784.00
1521, 785.00
1522, 786.00
1523, 786.00
1524, 787.00
1525, 787.00
1526, 788.00
1527, 788.00
1528, 790.00
1529, 790.00
1530, 791.00
1531, 791.00
1532, 791.00
1533, 792.00
1534, 793.00
1535, 793.00
1536, 794.00
1537, 794.00
1538, 795.00
1539, 795.00
1540, 796.00
1541, 797.00
1542, 797.00
1543, 798.00
1544, 798.00
1545, 800.00
1546, 800.00
1547, 801.00
1548, 801.00
1549, 801.00
1550, 803.00
1551, 803.00
1552, 803.00
1553, 804.00
1554, 805.00
1555, 805.00
1556, 806.00
1557, 807.00
1558, 807.00
1559, 807.00
1560, 808.00
1561, 808.00
1562, 809.00
1563, 810.00
1564, 810.00
1565, 811.00
1566, 812.00
1567, 813.00
1568, 814.00
1569, 813.00
1570, 814.00
1571, 816.00
1572, 815.00
1573, 816.00
1574, 817.00
1575, 817.00
1576, 819.00
1577, 818.00
1578, 819.00
1579, 820.00
1580, 820.00
1581, 821.00
1582, 822.00
1583, 823.00
1584, 823.00
1585, 823.00
1586, 824.00
1587, 825.00
1588, 826.00
1589, 826.00
1590, 826.00
1591, 827.00
1592, 827.00
1593, 828.00
1594, 829.00
1595, 829.00
1596, 830.00
1597, 831.00
1598, 832.00
1599, 832.00
1600, 832.00
1601, 832.00
1602, 834.00
1603, 834.00
1604, 835.00
1605, 837.00
1606, 837.00
1607, 837.00
1608, 838.00
1609, 839.00
1610, 839.00
1611, 840.00
1612, 840.00
1613, 841.00
1614, 842.00
1615, 843.00
1616, 844.00
1617, 844.00
1618, 845.00
1619, 846.00
1620, 846.00
1621, 848.00
1622, 848.00
1623, 848.00
1624, 850.00
1625, 850.00
1626, 851.00
1627, 852.00
1628, 853.00
1629, 853.00
1630, 854.00
1631, 855.00
1632, 854.00
1633, 856.00
1634, 857.00
1635, 857.00
1636, 857.00
1637, 858.00
1638, 859.00
1639, 859.00
1640, 859.00
1641, 859.00
1642, 860.00
1643, 862.00
1644, 862.00
1645, 862.00
1646, 863.00
1647, 863.00
1648, 864.00
1649, 864.00
1650, 865.00

1750, 1183.00
1751, 1186.00
1752, 1185.00
1753, 1184.00
1754, 1184.00
1755, 1185.00
1756, 1186.00
1757, 1184.00
1758, 1183.00
1759, 1186.00
1760, 1185.00
1761, 1184.00
1762, 1184.00
1763, 1186.00
1764, 1184.00
1765, 1183.00
1766, 1183.00
1767, 1185.00
1768, 1184.00
1769, 1183.00
1770, 1183.00
1771, 1183.00
1772, 1184.00
1773, 1182.00
1774, 1182.00
1775, 1181.00
1776, 1182.00
1777, 1182.00
1778, 1182.00
1779, 1182.00
1780, 1180.00
1781, 1182.00
1782, 1181.00
1783, 1181.00
1784, 1181.00
1785, 1181.00
1786, 1181.00
1787, 1182.00
1788, 1180.00
1789, 1179.00
1790, 1179.00
1791, 1178.00
1792, 1180.00
1793, 1178.00
1794, 1178.00
1795, 1178.00
1796, 1178.00
1797, 1180.00
1798, 1177.00
1799, 1176.00
1800, 1177.00
1801, 1178.00
1802, 1177.00
1803, 1178.00
1804, 1177.00
1805, 1178.00
1806, 1176.00
1807, 1176.00
1808, 1174.00
1809, 1176.00
1810, 1175.00
1811, 1175.00
1812, 1174.00
1813, 1175.00
1814, 1174.00
1815, 1174.00
1816, 1174.00
1817, 1173.00
1818, 1173.00
1819, 1174.00
1820, 1169.00
1821, 1170.00
1822, 1170.00
1823, 1170.00
1824, 1169.00
1825, 1171.00
1826, 1168.00
1827, 1168.00
1828, 1168.00
1829, 1165.00
1830, 1166.00
1831, 1167.00
1832, 1166.00
1833, 1162.00
1834, 1162.00
1835, 1162.00
1836, 1161.00
1837, 1160.00
1838, 1161.00
1839, 1159.00
1840, 1158.00
1841, 1158.00
1842, 1154.00
1843, 1152.00
1844, 1152.00
1845, 1153.00
1846, 1152.00
1847, 1150.00
1848, 1149.00
1849, 1146.00
1850, 1145.00
1851, 1144.00
1852, 1143.00
1853, 1142.00
1854, 1141.00
1855, 1140.00
1856, 1138.00
1857, 1138.00
1858, 1135.00
1859, 1135.00
1860, 1134.00
1861, 1135.00
1862, 1133.00
1863, 1132.00
1864, 1131.00
1865, 1129.00
1866, 1128.00
1867, 1127.00
1868, 1127.00
1869, 1126.00
1870, 1125.00
1871, 1125.00
1872, 1125.00
1873, 1123.00
1874, 1123.00
1875, 1119.00
1876, 1120.00
1877, 1121.00
1878, 1118.00
1879, 1118.00
1880, 1121.00
1881, 1119.00
1882, 1119.00
1883, 1117.00
1884, 1118.00
1885, 1118.00
1886, 1118.00
1887, 1118.00
1888, 1116.00
1889, 1114.00
1890, 1117.00
1891, 1116.00
1892, 1116.00
1893, 1115.00
1894, 1115.00
1895, 1115.00
1896, 1115.00
1897, 1114.00
1898, 1115.00
1899, 1113.00
1900, 1114.00
1901, 1113.00
1902, 1113.00
1903, 1113.00
1904, 1113.00
1905, 1112.00
1906, 1112.00
1907, 1112.00
1908, 1112.00
1909, 1113.00
1910, 1112.00
1911, 1113.00
1912, 1111.00
1913, 1112.00
1914, 1111.00
1915, 1115.00
1916, 1113.00
1917, 1112.00
1918, 1111.00
1919, 1113.00
1920, 1113.00
1921, 1111.00
1922, 1110.00
1923, 1113.00
1924, 1111.00
1925, 1112.00
1926, 1110.00
1927, 1113.00
1928, 1114.00
1929, 1111.00
1930, 1112.00
1931, 1113.00
1932, 1114.00
1933, 1112.00
1934, 1114.00
1935, 1112.00
1936, 1112.00
1937, 1113.00
1938, 1112.00
1939, 1112.00
1940, 1113.00
1941, 1114.00
1942, 1115.00
1943, 1113.00
1944, 1114.00
1945, 1112.00
1946, 1114.00
1947, 1114.00
1948, 1115.00
1949, 1114.00
1950, 1114.00
1951, 1114.00
1952, 1115.00
1953, 1114.00
1954, 1115.00
1955, 1117.00
1956, 1116.00
1957, 1114.00
1958, 1116.00
1959, 1115.00
1960, 1117.00
1961, 1116.00
1962, 1116.00
1963, 1116.00
1964, 1118.00
1965, 1117.00
1966, 1118.00
1967, 1118.00
1968, 1117.00
1969, 1119.00
1970, 1118.00
1971, 1120.00
1972, 1119.00
1973, 1121.00
1974, 1118.00
1975, 1120.00
1976, 1121.00
1977, 1120.00
1978, 1121.00
1979, 1120.00
1980, 1120.00
1981, 1122.00
1982, 1123.00
1983, 1123.00
1984, 1124.00
1985, 1125.00
1986, 1122.00
1987, 1124.00
1988, 1124.00
1989, 1125.00
1990, 1127.00
1991, 1124.00
1992, 1125.00
1993, 1124.00
1994, 1125.00
1995, 1125.00
1996, 1126.00
1997, 1128.00
1998, 1129.00
1999, 1128.00
2000, 1128.00
2001, 1127.00
2002, 1129.00
2003, 1128.00
2004, 1129.00
2005, 1130.00
2006, 1129.00
2007, 1129.00
2008, 1129.00
2009, 1128.00
2010, 1132.00
2011, 1130.00
2012, 1130.00
2013, 1133.00
2014, 1132.00
2015, 1131.00
2016, 1132.00
2017, 1131.00
2018, 1133.00
2019, 1135.00
2020, 1134.00
2021, 1134.00
2022, 1134.00
2023, 1136.00
2024, 1134.00
2025, 1136.00
2026, 1137.00
2027, 1136.00
2028, 1136.00
2029, 1136.00
2030, 1137.00
2031, 1137.00
2032, 1139.00
2033, 1136.00
2034, 1137.00
2035, 1139.00
2036, 1141.00
2037, 1141.00
2038, 1141.00
2039, 1141.00
2040, 1140.00
2041, 1139.00
2042, 1141.00
2043, 1141.00
2044, 1142.00
2045, 1141.00
2046, 1144.00
2047, 1143.00
2048, 1145.00
2049, 1145.00
2050, 1146.00
2051, 1147.00
2052, 1145.00
2053, 1146.00
2054, 1148.00
2055, 1146.00
2056, 1148.00
2057, 1149.00
2058, 1147.00
2059, 1149.00
2060, 1151.00
2061, 1150.00
2062, 1152.00
2063, 1152.00
2064, 1151.00
2065, 1154.00
2066, 1153.00
2067, 1153.00
2068, 1154.00
2069, 1154.00
2070, 1154.00
2071, 1155.00
2072, 1157.00
2073, 1155.00
2074, 1155.00
2075, 1157.00
2076, 1158.00
2077, 1158.00
2078, 1158.00
2079, 1157.00
2080, 1158.00
2081, 1159.00
2082, 1159.00
2083, 1161.00
2084, 1160.00
2085, 1161.00
2086, 1160.00
2087, 1161.00
2088, 1162.00
2089, 1163.00
2090, 1164.00
2091, 1163.00
2092, 1163.00
2093, 1165.00
2094, 1165.00
2095, 1167.00
2096, 1165.00
2097, 1165.00
2098, 1163.00
2099, 1166.00
2100, 1166.00
2101, 1165.00
2102, 1165.00
2103, 1167.00
2104, 1167.00
2105, 1167.00
2106, 1168.00
2107, 1169.00
2108, 1168.00
2109, 1168.00
2110, 1169.00
2111, 1169.00
2112, 1168.00
2113, 1170.00
2114, 1170.00
2115, 1169.00
2116, 1169.00
2117, 1171.00
2118, 1170.00
2119, 1169.00
2120, 1169.00
2121, 1170.00
2122, 1172.00
2123, 1171.00
2124, 1172.00
2125, 1173.00
2126, 1173.00
2127, 1172.00
2128, 1172.00
2129, 1174.00
2130, 1174.00
2131, 1172.00
2132, 1173.00
2133, 1173.00
2134, 1175.00
2135, 1175.00
2136, 1173.00
2137, 1175.00
2138, 1176.00
2139, 1173.00
2140, 1174.00
2141, 1174.00
2142, 1175.00
2143, 1175.00
2144, 1176.00
2145, 1176.00
2146, 1176.00
2147, 1175.00
2148, 1174.00
2149, 1175.00
2150, 1178.00
