FW version: 24
Log Version: 3.0.3

General Info:
       Command/Macro Performed,            Timestamp,             Device ID, COM Port, UART/I2C, Test Name, Host Major, Host Minor, Host Revision, Host Git Commit
            Single_measurement,  2023_06_30_11_09_21,       Insight2_F4_xxx,    USB-C,      USB,          ,          0,          1,             1,      4031237645

Show Spectrometer Status:
l0_version, f4_version, battery_perc, battery_mVolt, accelerometer_temp, accelerometer_x, accelerometer_y, accelerometer_z, compass_temp, compass_x, compass_y, compass_z, lamp_0, lamp_1, gain_0, gain_1
        17,         24,           94,          2068,               6112,           65348,             400,           18528,            0,     65407,     65489,     65535,   2457,   2457,      1,      1

Temperature Statistic Info:
NTC AVG [°C], NTC2 AVG [°C]
      38.623,        38.362

Statistic Info:
M1:  num,      min,      max,   median,      AVG,      STD,M2:  num,      min,      max,   median,      AVG,      STD
     301,  1075.00,  1250.00,  1112.00,  1132.65,  54.3527,     401,  1527.00,  1633.00,  1570.00,  1573.51,  34.5479,

Measurements:
Wavelength, Data Amplitude
1350, 1104.00
1351, 1104.00
1352, 1104.00
1353, 1103.00
1354, 1103.00
1355, 1102.00
1356, 1102.00
1357, 1101.00
1358, 1101.00
1359, 1099.00
1360, 1099.00
1361, 1098.00
1362, 1097.00
1363, 1096.00
1364, 1095.00
1365, 1096.00
1366, 1094.00
1367, 1094.00
1368, 1093.00
1369, 1090.00
1370, 1091.00
1371, 1091.00
1372, 1090.00
1373, 1088.00
1374, 1088.00
1375, 1088.00
1376, 1086.00
1377, 1086.00
1378, 1085.00
1379, 1085.00
1380, 1084.00
1381, 1084.00
1382, 1083.00
1383, 1082.00
1384, 1081.00
1385, 1082.00
1386, 1082.00
1387, 1080.00
1388, 1080.00
1389, 1080.00
1390, 1079.00
1391, 1079.00
1392, 1079.00
1393, 1079.00
1394, 1078.00
1395, 1079.00
1396, 1078.00
1397, 1078.00
1398, 1078.00
1399, 1077.00
1400, 1077.00
1401, 1077.00
1402, 1076.00
1403, 1077.00
1404, 1076.00
1405, 1076.00
1406, 1076.00
1407, 1076.00
1408, 1076.00
1409, 1077.00
1410, 1075.00
1411, 1076.00
1412, 1076.00
1413, 1076.00
1414, 1075.00
1415, 1077.00
1416, 1076.00
1417, 1076.00
1418, 1076.00
1419, 1076.00
1420, 1075.00
1421, 1075.00
1422, 1075.00
1423, 1077.00
1424, 1076.00
1425, 1075.00
1426, 1076.00
1427, 1076.00
1428, 1076.00
1429, 1077.00
1430, 1077.00
1431, 1076.00
1432, 1077.00
1433, 1077.00
1434, 1077.00
1435, 1077.00
1436, 1078.00
1437, 1078.00
1438, 1079.00
1439, 1078.00
1440, 1079.00
1441, 1079.00
1442, 1080.00
1443, 1080.00
1444, 1080.00
1445, 1081.00
1446, 1080.00
1447, 1081.00
1448, 1081.00
1449, 1082.00
1450, 1083.00
1451, 1082.00
1452, 1083.00
1453, 1082.00
1454, 1084.00
1455, 1083.00
1456, 1084.00
1457, 1085.00
1458, 1085.00
1459, 1086.00
1460, 1086.00
1461, 1087.00
1462, 1087.00
1463, 1087.00
1464, 1088.00
1465, 1089.00
1466, 1089.00
1467, 1090.00
1468, 1091.00
1469, 1091.00
1470, 1092.00
1471, 1092.00
1472, 1092.00
1473, 1093.00
1474, 1094.00
1475, 1094.00
1476, 1095.00
1477, 1095.00
1478, 1096.00
1479, 1096.00
1480, 1098.00
1481, 1098.00
1482, 1099.00
1483, 1100.00
1484, 1101.00
1485, 1101.00
1486, 1101.00
1487, 1101.00
1488, 1103.00
1489, 1103.00
1490, 1105.00
1491, 1105.00
1492, 1107.00
1493, 1107.00
1494, 1107.00
1495, 1108.00
1496, 1108.00
1497, 1110.00
1498, 1110.00
1499, 1111.00
1500, 1112.00
1501, 1113.00
1502, 1113.00
1503, 1114.00
1504, 1116.00
1505, 1115.00
1506, 1115.00
1507, 1117.00
1508, 1118.00
1509, 1120.00
1510, 1119.00
1511, 1120.00
1512, 1121.00
1513, 1122.00
1514, 1123.00
1515, 1124.00
1516, 1124.00
1517, 1125.00
1518, 1126.00
1519, 1126.00
1520, 1127.00
1521, 1128.00
1522, 1129.00
1523, 1131.00
1524, 1131.00
1525, 1131.00
1526, 1132.00
1527, 1133.00
1528, 1135.00
1529, 1135.00
1530, 1136.00
1531, 1137.00
1532, 1138.00
1533, 1139.00
1534, 1139.00
1535, 1141.00
1536, 1141.00
1537, 1142.00
1538, 1144.00
1539, 1145.00
1540, 1144.00
1541, 1147.00
1542, 1146.00
1543, 1148.00
1544, 1148.00
1545, 1148.00
1546, 1151.00
1547, 1152.00
1548, 1152.00
1549, 1152.00
1550, 1153.00
1551, 1155.00
1552, 1155.00
1553, 1156.00
1554, 1157.00
1555, 1159.00
1556, 1159.00
1557, 1160.00
1558, 1161.00
1559, 1161.00
1560, 1162.00
1561, 1164.00
1562, 1165.00
1563, 1166.00
1564, 1166.00
1565, 1168.00
1566, 1168.00
1567, 1169.00
1568, 1172.00
1569, 1171.00
1570, 1172.00
1571, 1173.00
1572, 1174.00
1573, 1175.00
1574, 1177.00
1575, 1178.00
1576, 1178.00
1577, 1179.00
1578, 1180.00
1579, 1180.00
1580, 1182.00
1581, 1182.00
1582, 1183.00
1583, 1185.00
1584, 1185.00
1585, 1186.00
1586, 1186.00
1587, 1187.00
1588, 1188.00
1589, 1189.00
1590, 1191.00
1591, 1191.00
1592, 1192.00
1593, 1194.00
1594, 1193.00
1595, 1194.00
1596, 1197.00
1597, 1197.00
1598, 1198.00
1599, 1198.00
1600, 1199.00
1601, 1199.00
1602, 1201.00
1603, 1202.00
1604, 1204.00
1605, 1204.00
1606, 1205.00
1607, 1205.00
1608, 1206.00
1609, 1208.00
1610, 1210.00
1611, 1211.00
1612, 1211.00
1613, 1212.00
1614, 1214.00
1615, 1215.00
1616, 1215.00
1617, 1216.00
1618, 1218.00
1619, 1219.00
1620, 1219.00
1621, 1221.00
1622, 1222.00
1623, 1224.00
1624, 1225.00
1625, 1226.00
1626, 1227.00
1627, 1228.00
1628, 1229.00
1629, 1230.00
1630, 1231.00
1631, 1232.00
1632, 1233.00
1633, 1235.00
1634, 1235.00
1635, 1236.00
1636, 1237.00
1637, 1238.00
1638, 1239.00
1639, 1239.00
1640, 1240.00
1641, 1242.00
1642, 1243.00
1643, 1243.00
1644, 1244.00
1645, 1245.00
1646, 1246.00
1647, 1247.00
1648, 1247.00
1649, 1249.00
1650, 1250.00

1750, 1631.00
1751, 1631.00
1752, 1632.00
1753, 1633.00
1754, 1631.00
1755, 1633.00
1756, 1631.00
1757, 1630.00
1758, 1630.00
1759, 1631.00
1760, 1630.00
1761, 1633.00
1762, 1632.00
1763, 1629.00
1764, 1631.00
1765, 1630.00
1766, 1630.00
1767, 1630.00
1768, 1629.00
1769, 1631.00
1770, 1630.00
1771, 1629.00
1772, 1629.00
1773, 1631.00
1774, 1630.00
1775, 1629.00
1776, 1627.00
1777, 1627.00
1778, 1628.00
1779, 1627.00
1780, 1629.00
1781, 1628.00
1782, 1626.00
1783, 1628.00
1784, 1626.00
1785, 1624.00
1786, 1626.00
1787, 1623.00
1788, 1624.00
1789, 1624.00
1790, 1623.00
1791, 1623.00
1792, 1624.00
1793, 1622.00
1794, 1621.00
1795, 1621.00
1796, 1622.00
1797, 1622.00
1798, 1622.00
1799, 1620.00
1800, 1619.00
1801, 1620.00
1802, 1621.00
1803, 1619.00
1804, 1616.00
1805, 1619.00
1806, 1618.00
1807, 1618.00
1808, 1616.00
1809, 1616.00
1810, 1617.00
1811, 1617.00
1812, 1616.00
1813, 1615.00
1814, 1614.00
1815, 1615.00
1816, 1614.00
1817, 1613.00
1818, 1612.00
1819, 1610.00
1820, 1612.00
1821, 1611.00
1822, 1609.00
1823, 1609.00
1824, 1608.00
1825, 1607.00
1826, 1607.00
1827, 1609.00
1828, 1604.00
1829, 1605.00
1830, 1603.00
1831, 1601.00
1832, 1601.00
1833, 1599.00
1834, 1596.00
1835, 1597.00
1836, 1595.00
1837, 1594.00
1838, 1595.00
1839, 1592.00
1840, 1590.00
1841, 1590.00
1842, 1588.00
1843, 1585.00
1844, 1585.00
1845, 1582.00
1846, 1580.00
1847, 1579.00
1848, 1577.00
1849, 1575.00
1850, 1573.00
1851, 1572.00
1852, 1572.00
1853, 1570.00
1854, 1569.00
1855, 1566.00
1856, 1565.00
1857, 1562.00
1858, 1563.00
1859, 1560.00
1860, 1559.00
1861, 1560.00
1862, 1557.00
1863, 1553.00
1864, 1553.00
1865, 1552.00
1866, 1550.00
1867, 1551.00
1868, 1549.00
1869, 1549.00
1870, 1547.00
1871, 1546.00
1872, 1546.00
1873, 1545.00
1874, 1544.00
1875, 1542.00
1876, 1545.00
1877, 1542.00
1878, 1541.00
1879, 1539.00
1880, 1539.00
1881, 1539.00
1882, 1538.00
1883, 1538.00
1884, 1537.00
1885, 1537.00
1886, 1536.00
1887, 1535.00
1888, 1534.00
1889, 1534.00
1890, 1535.00
1891, 1534.00
1892, 1535.00
1893, 1534.00
1894, 1534.00
1895, 1532.00
1896, 1533.00
1897, 1532.00
1898, 1530.00
1899, 1533.00
1900, 1534.00
1901, 1530.00
1902, 1531.00
1903, 1531.00
1904, 1531.00
1905, 1531.00
1906, 1531.00
1907, 1530.00
1908, 1530.00
1909, 1531.00
1910, 1531.00
1911, 1530.00
1912, 1530.00
1913, 1529.00
1914, 1528.00
1915, 1530.00
1916, 1530.00
1917, 1527.00
1918, 1530.00
1919, 1528.00
1920, 1529.00
1921, 1527.00
1922, 1529.00
1923, 1531.00
1924, 1529.00
1925, 1530.00
1926, 1527.00
1927, 1527.00
1928, 1528.00
1929, 1527.00
1930, 1529.00
1931, 1530.00
1932, 1528.00
1933, 1531.00
1934, 1530.00
1935, 1527.00
1936, 1529.00
1937, 1529.00
1938, 1529.00
1939, 1528.00
1940, 1531.00
1941, 1529.00
1942, 1530.00
1943, 1531.00
1944, 1530.00
1945, 1530.00
1946, 1529.00
1947, 1530.00
1948, 1531.00
1949, 1530.00
1950, 1531.00
1951, 1529.00
1952, 1531.00
1953, 1531.00
1954, 1530.00
1955, 1533.00
1956, 1532.00
1957, 1533.00
1958, 1533.00
1959, 1533.00
1960, 1534.00
1961, 1532.00
1962, 1532.00
1963, 1534.00
1964, 1533.00
1965, 1535.00
1966, 1534.00
1967, 1535.00
1968, 1537.00
1969, 1535.00
1970, 1536.00
1971, 1536.00
1972, 1535.00
1973, 1538.00
1974, 1537.00
1975, 1537.00
1976, 1537.00
1977, 1537.00
1978, 1539.00
1979, 1541.00
1980, 1540.00
1981, 1539.00
1982, 1540.00
1983, 1541.00
1984, 1541.00
1985, 1540.00
1986, 1541.00
1987, 1542.00
1988, 1543.00
1989, 1542.00
1990, 1544.00
1991, 1545.00
1992, 1543.00
1993, 1543.00
1994, 1544.00
1995, 1545.00
1996, 1543.00
1997, 1544.00
1998, 1545.00
1999, 1546.00
2000, 1545.00
2001, 1546.00
2002, 1547.00
2003, 1548.00
2004, 1550.00
2005, 1548.00
2006, 1548.00
2007, 1549.00
2008, 1550.00
2009, 1550.00
2010, 1551.00
2011, 1552.00
2012, 1549.00
2013, 1551.00
2014, 1553.00
2015, 1550.00
2016, 1554.00
2017, 1553.00
2018, 1554.00
2019, 1553.00
2020, 1555.00
2021, 1554.00
2022, 1554.00
2023, 1556.00
2024, 1557.00
2025, 1557.00
2026, 1556.00
2027, 1557.00
2028, 1558.00
2029, 1557.00
2030, 1560.00
2031, 1557.00
2032, 1559.00
2033, 1559.00
2034, 1560.00
2035, 1562.00
2036, 1561.00
2037, 1561.00
2038, 1562.00
2039, 1561.00
2040, 1564.00
2041, 1561.00
2042, 1564.00
2043, 1565.00
2044, 1565.00
2045, 1566.00
2046, 1567.00
2047, 1565.00
2048, 1566.00
2049, 1568.00
2050, 1568.00
2051, 1569.00
2052, 1570.00
2053, 1570.00
2054, 1571.00
2055, 1572.00
2056, 1573.00
2057, 1572.00
2058, 1574.00
2059, 1573.00
2060, 1575.00
2061, 1575.00
2062, 1576.00
2063, 1577.00
2064, 1576.00
2065, 1576.00
2066, 1579.00
2067, 1580.00
2068, 1579.00
2069, 1579.00
2070, 1582.00
2071, 1580.00
2072, 1582.00
2073, 1581.00
2074, 1585.00
2075, 1583.00
2076, 1584.00
2077, 1584.00
2078, 1585.00
2079, 1585.00
2080, 1588.00
2081, 1584.00
2082, 1587.00
2083, 1588.00
2084, 1587.00
2085, 1588.00
2086, 1589.00
2087, 1589.00
2088, 1590.00
2089, 1592.00
2090, 1591.00
2091, 1591.00
2092, 1591.00
2093, 1592.00
2094, 1593.00
2095, 1593.00
2096, 1593.00
2097, 1594.00
2098, 1593.00
2099, 1596.00
2100, 1595.00
2101, 1593.00
2102, 1595.00
2103, 1596.00
2104, 1596.00
2105, 1597.00
2106, 1596.00
2107, 1598.00
2108, 1597.00
2109, 1598.00
2110, 1601.00
2111, 1600.00
2112, 1600.00
2113, 1600.00
2114, 1600.00
2115, 1601.00
2116, 1602.00
2117, 1601.00
2118, 1603.00
2119, 1601.00
2120, 1601.00
2121, 1601.00
2122, 1601.00
2123, 1601.00
2124, 1604.00
2125, 1602.00
2126, 1604.00
2127, 1604.00
2128, 1603.00
2129, 1604.00
2130, 1605.00
2131, 1607.00
2132, 1605.00
2133, 1607.00
2134, 1607.00
2135, 1606.00
2136, 1607.00
2137, 1607.00
2138, 1607.00
2139, 1607.00
2140, 1607.00
2141, 1606.00
2142, 1607.00
2143, 1607.00
2144, 1606.00
2145, 1609.00
2146, 1608.00
2147, 1608.00
2148, 1610.00
2149, 1609.00
2150, 1608.00
