FW version: 24
Log Version: 3.0.3

General Info:
       Command/Macro Performed,            Timestamp,             Device ID, COM Port, UART/I2C, Test Name, Host Major, Host Minor, Host Revision, Host Git Commit
            Single_measurement,  2023_07_18_11_26_50,       Insight2_F4_xxx,    USB-C,      USB,          ,          0,          1,             1,      4031237645

Show Spectrometer Status:
l0_version, f4_version, battery_perc, battery_mVolt, accelerometer_temp, accelerometer_x, accelerometer_y, accelerometer_z, compass_temp, compass_x, compass_y, compass_z, lamp_0, lamp_1, gain_0, gain_1
        17,         24,           78,          2007,               6544,           65224,            1568,           18892,            0,     65499,     65251,     18941,   2866,   2866,      1,      1

Temperature Statistic Info:
NTC AVG [°C], NTC2 AVG [°C]
      40.411,        40.114

Statistic Info:
M1:  num,      min,      max,   median,      AVG,      STD,M2:  num,      min,      max,   median,      AVG,      STD
     301,  1241.00,  1401.00,  1278.00,  1294.26,  49.7738,     401,  1796.00,  1890.00,  1846.00,  1843.95,  31.2593,

Measurements:
Wavelength, Data Amplitude
1350, 1259.00
1351, 1258.00
1352, 1258.00
1353, 1258.00
1354, 1258.00
1355, 1257.00
1356, 1257.00
1357, 1257.00
1358, 1257.00
1359, 1256.00
1360, 1256.00
1361, 1255.00
1362, 1256.00
1363, 1254.00
1364, 1254.00
1365, 1253.00
1366, 1253.00
1367, 1253.00
1368, 1252.00
1369, 1251.00
1370, 1251.00
1371, 1251.00
1372, 1250.00
1373, 1250.00
1374, 1247.00
1375, 1250.00
1376, 1247.00
1377, 1247.00
1378, 1247.00
1379, 1248.00
1380, 1246.00
1381, 1245.00
1382, 1246.00
1383, 1245.00
1384, 1245.00
1385, 1245.00
1386, 1244.00
1387, 1244.00
1388, 1244.00
1389, 1243.00
1390, 1244.00
1391, 1244.00
1392, 1243.00
1393, 1243.00
1394, 1242.00
1395, 1243.00
1396, 1243.00
1397, 1243.00
1398, 1242.00
1399, 1242.00
1400, 1243.00
1401, 1242.00
1402, 1242.00
1403, 1242.00
1404, 1243.00
1405, 1243.00
1406, 1242.00
1407, 1243.00
1408, 1241.00
1409, 1242.00
1410, 1242.00
1411, 1242.00
1412, 1242.00
1413, 1243.00
1414, 1242.00
1415, 1243.00
1416, 1241.00
1417, 1241.00
1418, 1242.00
1419, 1242.00
1420, 1242.00
1421, 1242.00
1422, 1242.00
1423, 1243.00
1424, 1242.00
1425, 1242.00
1426, 1244.00
1427, 1242.00
1428, 1243.00
1429, 1243.00
1430, 1244.00
1431, 1243.00
1432, 1245.00
1433, 1245.00
1434, 1244.00
1435, 1244.00
1436, 1245.00
1437, 1245.00
1438, 1246.00
1439, 1246.00
1440, 1247.00
1441, 1247.00
1442, 1247.00
1443, 1247.00
1444, 1248.00
1445, 1248.00
1446, 1248.00
1447, 1249.00
1448, 1249.00
1449, 1250.00
1450, 1249.00
1451, 1250.00
1452, 1251.00
1453, 1251.00
1454, 1252.00
1455, 1252.00
1456, 1252.00
1457, 1253.00
1458, 1254.00
1459, 1254.00
1460, 1254.00
1461, 1254.00
1462, 1255.00
1463, 1254.00
1464, 1256.00
1465, 1256.00
1466, 1257.00
1467, 1257.00
1468, 1258.00
1469, 1258.00
1470, 1260.00
1471, 1260.00
1472, 1260.00
1473, 1261.00
1474, 1261.00
1475, 1262.00
1476, 1262.00
1477, 1263.00
1478, 1263.00
1479, 1265.00
1480, 1266.00
1481, 1266.00
1482, 1266.00
1483, 1268.00
1484, 1267.00
1485, 1270.00
1486, 1268.00
1487, 1270.00
1488, 1271.00
1489, 1270.00
1490, 1272.00
1491, 1272.00
1492, 1273.00
1493, 1273.00
1494, 1273.00
1495, 1275.00
1496, 1276.00
1497, 1276.00
1498, 1277.00
1499, 1278.00
1500, 1277.00
1501, 1279.00
1502, 1279.00
1503, 1280.00
1504, 1281.00
1505, 1281.00
1506, 1281.00
1507, 1282.00
1508, 1284.00
1509, 1285.00
1510, 1285.00
1511, 1285.00
1512, 1286.00
1513, 1287.00
1514, 1288.00
1515, 1288.00
1516, 1288.00
1517, 1288.00
1518, 1291.00
1519, 1291.00
1520, 1291.00
1521, 1292.00
1522, 1294.00
1523, 1293.00
1524, 1295.00
1525, 1296.00
1526, 1296.00
1527, 1297.00
1528, 1299.00
1529, 1298.00
1530, 1299.00
1531, 1300.00
1532, 1301.00
1533, 1302.00
1534, 1302.00
1535, 1304.00
1536, 1304.00
1537, 1306.00
1538, 1305.00
1539, 1307.00
1540, 1308.00
1541, 1308.00
1542, 1309.00
1543, 1309.00
1544, 1311.00
1545, 1312.00
1546, 1312.00
1547, 1312.00
1548, 1313.00
1549, 1315.00
1550, 1315.00
1551, 1316.00
1552, 1316.00
1553, 1317.00
1554, 1318.00
1555, 1319.00
1556, 1319.00
1557, 1320.00
1558, 1322.00
1559, 1322.00
1560, 1323.00
1561, 1324.00
1562, 1325.00
1563, 1325.00
1564, 1326.00
1565, 1327.00
1566, 1329.00
1567, 1329.00
1568, 1330.00
1569, 1331.00
1570, 1331.00
1571, 1332.00
1572, 1333.00
1573, 1335.00
1574, 1335.00
1575, 1336.00
1576, 1337.00
1577, 1337.00
1578, 1338.00
1579, 1339.00
1580, 1339.00
1581, 1340.00
1582, 1342.00
1583, 1341.00
1584, 1342.00
1585, 1344.00
1586, 1344.00
1587, 1345.00
1588, 1345.00
1589, 1346.00
1590, 1347.00
1591, 1347.00
1592, 1349.00
1593, 1349.00
1594, 1350.00
1595, 1350.00
1596, 1351.00
1597, 1353.00
1598, 1351.00
1599, 1354.00
1600, 1354.00
1601, 1354.00
1602, 1357.00
1603, 1357.00
1604, 1358.00
1605, 1359.00
1606, 1360.00
1607, 1361.00
1608, 1361.00
1609, 1362.00
1610, 1363.00
1611, 1365.00
1612, 1365.00
1613, 1366.00
1614, 1366.00
1615, 1368.00
1616, 1369.00
1617, 1371.00
1618, 1372.00
1619, 1372.00
1620, 1373.00
1621, 1374.00
1622, 1376.00
1623, 1376.00
1624, 1377.00
1625, 1379.00
1626, 1380.00
1627, 1381.00
1628, 1381.00
1629, 1382.00
1630, 1383.00
1631, 1384.00
1632, 1385.00
1633, 1386.00
1634, 1387.00
1635, 1389.00
1636, 1390.00
1637, 1389.00
1638, 1390.00
1639, 1391.00
1640, 1392.00
1641, 1392.00
1642, 1393.00
1643, 1394.00
1644, 1394.00
1645, 1396.00
1646, 1397.00
1647, 1398.00
1648, 1399.00
1649, 1400.00
1650, 1401.00

1750, 1889.00
1751, 1888.00
1752, 1889.00
1753, 1888.00
1754, 1888.00
1755, 1889.00
1756, 1886.00
1757, 1887.00
1758, 1890.00
1759, 1887.00
1760, 1886.00
1761, 1887.00
1762, 1888.00
1763, 1889.00
1764, 1886.00
1765, 1888.00
1766, 1887.00
1767, 1885.00
1768, 1887.00
1769, 1888.00
1770, 1886.00
1771, 1889.00
1772, 1886.00
1773, 1885.00
1774, 1886.00
1775, 1885.00
1776, 1885.00
1777, 1884.00
1778, 1885.00
1779, 1885.00
1780, 1884.00
1781, 1883.00
1782, 1883.00
1783, 1882.00
1784, 1885.00
1785, 1882.00
1786, 1883.00
1787, 1883.00
1788, 1881.00
1789, 1881.00
1790, 1880.00
1791, 1881.00
1792, 1880.00
1793, 1881.00
1794, 1879.00
1795, 1879.00
1796, 1879.00
1797, 1879.00
1798, 1879.00
1799, 1878.00
1800, 1877.00
1801, 1877.00
1802, 1877.00
1803, 1878.00
1804, 1878.00
1805, 1876.00
1806, 1877.00
1807, 1876.00
1808, 1875.00
1809, 1877.00
1810, 1876.00
1811, 1874.00
1812, 1876.00
1813, 1876.00
1814, 1875.00
1815, 1873.00
1816, 1873.00
1817, 1874.00
1818, 1872.00
1819, 1873.00
1820, 1873.00
1821, 1873.00
1822, 1873.00
1823, 1870.00
1824, 1870.00
1825, 1871.00
1826, 1869.00
1827, 1871.00
1828, 1868.00
1829, 1868.00
1830, 1867.00
1831, 1866.00
1832, 1864.00
1833, 1864.00
1834, 1860.00
1835, 1860.00
1836, 1861.00
1837, 1860.00
1838, 1859.00
1839, 1858.00
1840, 1856.00
1841, 1856.00
1842, 1853.00
1843, 1853.00
1844, 1852.00
1845, 1850.00
1846, 1851.00
1847, 1847.00
1848, 1847.00
1849, 1845.00
1850, 1844.00
1851, 1842.00
1852, 1842.00
1853, 1841.00
1854, 1837.00
1855, 1837.00
1856, 1834.00
1857, 1834.00
1858, 1831.00
1859, 1829.00
1860, 1828.00
1861, 1825.00
1862, 1826.00
1863, 1826.00
1864, 1825.00
1865, 1822.00
1866, 1822.00
1867, 1822.00
1868, 1818.00
1869, 1817.00
1870, 1816.00
1871, 1816.00
1872, 1815.00
1873, 1813.00
1874, 1812.00
1875, 1812.00
1876, 1813.00
1877, 1811.00
1878, 1808.00
1879, 1809.00
1880, 1811.00
1881, 1807.00
1882, 1809.00
1883, 1808.00
1884, 1807.00
1885, 1806.00
1886, 1806.00
1887, 1806.00
1888, 1805.00
1889, 1804.00
1890, 1803.00
1891, 1805.00
1892, 1804.00
1893, 1804.00
1894, 1803.00
1895, 1803.00
1896, 1801.00
1897, 1803.00
1898, 1802.00
1899, 1804.00
1900, 1801.00
1901, 1802.00
1902, 1801.00
1903, 1802.00
1904, 1800.00
1905, 1799.00
1906, 1801.00
1907, 1801.00
1908, 1800.00
1909, 1798.00
1910, 1799.00
1911, 1801.00
1912, 1798.00
1913, 1800.00
1914, 1800.00
1915, 1800.00
1916, 1799.00
1917, 1799.00
1918, 1798.00
1919, 1798.00
1920, 1798.00
1921, 1799.00
1922, 1799.00
1923, 1799.00
1924, 1798.00
1925, 1798.00
1926, 1799.00
1927, 1799.00
1928, 1800.00
1929, 1800.00
1930, 1799.00
1931, 1800.00
1932, 1801.00
1933, 1796.00
1934, 1799.00
1935, 1799.00
1936, 1800.00
1937, 1799.00
1938, 1802.00
1939, 1802.00
1940, 1801.00
1941, 1802.00
1942, 1799.00
1943, 1801.00
1944, 1802.00
1945, 1802.00
1946, 1800.00
1947, 1802.00
1948, 1802.00
1949, 1802.00
1950, 1803.00
1951, 1803.00
1952, 1804.00
1953, 1802.00
1954, 1805.00
1955, 1804.00
1956, 1802.00
1957, 1804.00
1958, 1804.00
1959, 1804.00
1960, 1806.00
1961, 1805.00
1962, 1807.00
1963, 1809.00
1964, 1808.00
1965, 1809.00
1966, 1810.00
1967, 1809.00
1968, 1811.00
1969, 1808.00
1970, 1810.00
1971, 1809.00
1972, 1813.00
1973, 1811.00
1974, 1812.00
1975, 1813.00
1976, 1811.00
1977, 1814.00
1978, 1813.00
1979, 1815.00
1980, 1815.00
1981, 1815.00
1982, 1817.00
1983, 1817.00
1984, 1817.00
1985, 1816.00
1986, 1818.00
1987, 1817.00
1988, 1819.00
1989, 1819.00
1990, 1819.00
1991, 1818.00
1992, 1821.00
1993, 1821.00
1994, 1819.00
1995, 1822.00
1996, 1821.00
1997, 1824.00
1998, 1822.00
1999, 1824.00
2000, 1822.00
2001, 1825.00
2002, 1826.00
2003, 1823.00
2004, 1824.00
2005, 1825.00
2006, 1824.00
2007, 1825.00
2008, 1827.00
2009, 1827.00
2010, 1827.00
2011, 1828.00
2012, 1829.00
2013, 1829.00
2014, 1827.00
2015, 1829.00
2016, 1827.00
2017, 1829.00
2018, 1830.00
2019, 1831.00
2020, 1829.00
2021, 1830.00
2022, 1830.00
2023, 1832.00
2024, 1833.00
2025, 1831.00
2026, 1835.00
2027, 1833.00
2028, 1836.00
2029, 1836.00
2030, 1835.00
2031, 1836.00
2032, 1835.00
2033, 1838.00
2034, 1836.00
2035, 1839.00
2036, 1836.00
2037, 1837.00
2038, 1840.00
2039, 1839.00
2040, 1838.00
2041, 1840.00
2042, 1839.00
2043, 1841.00
2044, 1841.00
2045, 1843.00
2046, 1845.00
2047, 1843.00
2048, 1845.00
2049, 1846.00
2050, 1846.00
2051, 1847.00
2052, 1846.00
2053, 1847.00
2054, 1849.00
2055, 1849.00
2056, 1849.00
2057, 1851.00
2058, 1852.00
2059, 1853.00
2060, 1852.00
2061, 1853.00
2062, 1853.00
2063, 1854.00
2064, 1855.00
2065, 1855.00
2066, 1856.00
2067, 1855.00
2068, 1858.00
2069, 1859.00
2070, 1859.00
2071, 1860.00
2072, 1859.00
2073, 1858.00
2074, 1860.00
2075, 1861.00
2076, 1861.00
2077, 1860.00
2078, 1863.00
2079, 1865.00
2080, 1864.00
2081, 1863.00
2082, 1866.00
2083, 1863.00
2084, 1866.00
2085, 1866.00
2086, 1866.00
2087, 1867.00
2088, 1867.00
2089, 1867.00
2090, 1867.00
2091, 1869.00
2092, 1870.00
2093, 1869.00
2094, 1870.00
2095, 1870.00
2096, 1869.00
2097, 1870.00
2098, 1875.00
2099, 1871.00
2100, 1870.00
2101, 1873.00
2102, 1871.00
2103, 1873.00
2104, 1872.00
2105, 1872.00
2106, 1874.00
2107, 1874.00
2108, 1874.00
2109, 1873.00
2110, 1873.00
2111, 1874.00
2112, 1874.00
2113, 1876.00
2114, 1875.00
2115, 1876.00
2116, 1876.00
2117, 1877.00
2118, 1878.00
2119, 1877.00
2120, 1878.00
2121, 1876.00
2122, 1876.00
2123, 1877.00
2124, 1878.00
2125, 1878.00
2126, 1879.00
2127, 1877.00
2128, 1878.00
2129, 1879.00
2130, 1880.00
2131, 1880.00
2132, 1880.00
2133, 1880.00
2134, 1880.00
2135, 1879.00
2136, 1879.00
2137, 1881.00
2138, 1881.00
2139, 1880.00
2140, 1881.00
2141, 1880.00
2142, 1881.00
2143, 1881.00
2144, 1883.00
2145, 1883.00
2146, 1882.00
2147, 1881.00
2148, 1883.00
2149, 1882.00
2150, 1882.00
