FW version: 24
Log Version: 3.0.3

General Info:
       Command/Macro Performed,            Timestamp,             Device ID, COM Port, UART/I2C, Test Name, Host Major, Host Minor, Host Revision, Host Git Commit
            Single_measurement,  2023_07_18_11_27_09,       Insight2_F4_xxx,    USB-C,      USB,          ,          0,          1,             1,      4031237645

Show Spectrometer Status:
l0_version, f4_version, battery_perc, battery_mVolt, accelerometer_temp, accelerometer_x, accelerometer_y, accelerometer_z, compass_temp, compass_x, compass_y, compass_z, lamp_0, lamp_1, gain_0, gain_1
        17,         24,           78,          2007,               6528,           65216,            1560,           18908,            0,     65498,     65279,     18941,   3276,   3276,      1,      1

Temperature Statistic Info:
NTC AVG [°C], NTC2 AVG [°C]
      40.529,        40.233

Statistic Info:
M1:  num,      min,      max,   median,      AVG,      STD,M2:  num,      min,      max,   median,      AVG,      STD
     301,  1592.00,  1790.00,  1638.00,  1657.93,  61.4481,     401,  2228.00,  2341.00,  2285.00,  2284.37,  38.4524,

Measurements:
Wavelength, Data Amplitude
1350, 1617.00
1351, 1617.00
1352, 1616.00
1353, 1615.00
1354, 1615.00
1355, 1615.00
1356, 1614.00
1357, 1613.00
1358, 1613.00
1359, 1613.00
1360, 1612.00
1361, 1612.00
1362, 1611.00
1363, 1610.00
1364, 1609.00
1365, 1610.00
1366, 1609.00
1367, 1609.00
1368, 1608.00
1369, 1607.00
1370, 1605.00
1371, 1605.00
1372, 1605.00
1373, 1603.00
1374, 1604.00
1375, 1603.00
1376, 1603.00
1377, 1602.00
1378, 1601.00
1379, 1600.00
1380, 1599.00
1381, 1600.00
1382, 1597.00
1383, 1599.00
1384, 1597.00
1385, 1597.00
1386, 1598.00
1387, 1597.00
1388, 1596.00
1389, 1595.00
1390, 1595.00
1391, 1595.00
1392, 1595.00
1393, 1595.00
1394, 1595.00
1395, 1594.00
1396, 1594.00
1397, 1594.00
1398, 1594.00
1399, 1593.00
1400, 1594.00
1401, 1593.00
1402, 1594.00
1403, 1593.00
1404, 1593.00
1405, 1594.00
1406, 1593.00
1407, 1594.00
1408, 1592.00
1409, 1593.00
1410, 1593.00
1411, 1593.00
1412, 1593.00
1413, 1593.00
1414, 1593.00
1415, 1593.00
1416, 1593.00
1417, 1594.00
1418, 1593.00
1419, 1593.00
1420, 1593.00
1421, 1593.00
1422, 1593.00
1423, 1594.00
1424, 1593.00
1425, 1594.00
1426, 1593.00
1427, 1595.00
1428, 1594.00
1429, 1595.00
1430, 1595.00
1431, 1595.00
1432, 1596.00
1433, 1595.00
1434, 1597.00
1435, 1596.00
1436, 1597.00
1437, 1598.00
1438, 1598.00
1439, 1597.00
1440, 1597.00
1441, 1599.00
1442, 1600.00
1443, 1600.00
1444, 1600.00
1445, 1600.00
1446, 1601.00
1447, 1602.00
1448, 1601.00
1449, 1603.00
1450, 1603.00
1451, 1602.00
1452, 1604.00
1453, 1605.00
1454, 1605.00
1455, 1604.00
1456, 1605.00
1457, 1607.00
1458, 1607.00
1459, 1606.00
1460, 1608.00
1461, 1608.00
1462, 1609.00
1463, 1610.00
1464, 1610.00
1465, 1611.00
1466, 1612.00
1467, 1612.00
1468, 1612.00
1469, 1613.00
1470, 1615.00
1471, 1615.00
1472, 1616.00
1473, 1615.00
1474, 1617.00
1475, 1618.00
1476, 1619.00
1477, 1618.00
1478, 1620.00
1479, 1620.00
1480, 1621.00
1481, 1622.00
1482, 1624.00
1483, 1623.00
1484, 1624.00
1485, 1625.00
1486, 1626.00
1487, 1627.00
1488, 1628.00
1489, 1628.00
1490, 1630.00
1491, 1631.00
1492, 1632.00
1493, 1632.00
1494, 1632.00
1495, 1634.00
1496, 1634.00
1497, 1635.00
1498, 1637.00
1499, 1638.00
1500, 1637.00
1501, 1639.00
1502, 1639.00
1503, 1640.00
1504, 1641.00
1505, 1642.00
1506, 1642.00
1507, 1643.00
1508, 1643.00
1509, 1645.00
1510, 1646.00
1511, 1646.00
1512, 1647.00
1513, 1648.00
1514, 1648.00
1515, 1651.00
1516, 1651.00
1517, 1652.00
1518, 1652.00
1519, 1654.00
1520, 1654.00
1521, 1656.00
1522, 1657.00
1523, 1658.00
1524, 1658.00
1525, 1658.00
1526, 1660.00
1527, 1661.00
1528, 1662.00
1529, 1663.00
1530, 1663.00
1531, 1663.00
1532, 1666.00
1533, 1666.00
1534, 1668.00
1535, 1668.00
1536, 1669.00
1537, 1671.00
1538, 1672.00
1539, 1672.00
1540, 1673.00
1541, 1675.00
1542, 1675.00
1543, 1676.00
1544, 1677.00
1545, 1679.00
1546, 1679.00
1547, 1681.00
1548, 1681.00
1549, 1682.00
1550, 1683.00
1551, 1685.00
1552, 1685.00
1553, 1685.00
1554, 1687.00
1555, 1689.00
1556, 1689.00
1557, 1689.00
1558, 1691.00
1559, 1692.00
1560, 1692.00
1561, 1694.00
1562, 1694.00
1563, 1697.00
1564, 1698.00
1565, 1699.00
1566, 1699.00
1567, 1700.00
1568, 1702.00
1569, 1703.00
1570, 1704.00
1571, 1705.00
1572, 1706.00
1573, 1707.00
1574, 1708.00
1575, 1709.00
1576, 1710.00
1577, 1711.00
1578, 1711.00
1579, 1714.00
1580, 1714.00
1581, 1715.00
1582, 1716.00
1583, 1716.00
1584, 1717.00
1585, 1718.00
1586, 1719.00
1587, 1720.00
1588, 1721.00
1589, 1722.00
1590, 1724.00
1591, 1723.00
1592, 1726.00
1593, 1726.00
1594, 1727.00
1595, 1727.00
1596, 1727.00
1597, 1730.00
1598, 1732.00
1599, 1731.00
1600, 1733.00
1601, 1734.00
1602, 1735.00
1603, 1735.00
1604, 1737.00
1605, 1737.00
1606, 1739.00
1607, 1740.00
1608, 1741.00
1609, 1742.00
1610, 1743.00
1611, 1744.00
1612, 1747.00
1613, 1747.00
1614, 1747.00
1615, 1750.00
1616, 1751.00
1617, 1752.00
1618, 1753.00
1619, 1754.00
1620, 1757.00
1621, 1757.00
1622, 1759.00
1623, 1760.00
1624, 1761.00
1625, 1762.00
1626, 1763.00
1627, 1765.00
1628, 1765.00
1629, 1768.00
1630, 1768.00
1631, 1769.00
1632, 1769.00
1633, 1771.00
1634, 1773.00
1635, 1773.00
1636, 1775.00
1637, 1775.00
1638, 1776.00
1639, 1778.00
1640, 1779.00
1641, 1779.00
1642, 1781.00
1643, 1782.00
1644, 1782.00
1645, 1784.00
1646, 1785.00
1647, 1786.00
1648, 1787.00
1649, 1787.00
1650, 1790.00

1750, 2341.00
1751, 2340.00
1752, 2341.00
1753, 2341.00
1754, 2339.00
1755, 2340.00
1756, 2340.00
1757, 2339.00
1758, 2340.00
1759, 2341.00
1760, 2341.00
1761, 2341.00
1762, 2339.00
1763, 2340.00
1764, 2341.00
1765, 2340.00
1766, 2339.00
1767, 2339.00
1768, 2339.00
1769, 2338.00
1770, 2339.00
1771, 2338.00
1772, 2338.00
1773, 2337.00
1774, 2336.00
1775, 2336.00
1776, 2336.00
1777, 2338.00
1778, 2335.00
1779, 2336.00
1780, 2333.00
1781, 2335.00
1782, 2334.00
1783, 2334.00
1784, 2334.00
1785, 2334.00
1786, 2331.00
1787, 2331.00
1788, 2333.00
1789, 2332.00
1790, 2329.00
1791, 2329.00
1792, 2329.00
1793, 2332.00
1794, 2328.00
1795, 2330.00
1796, 2328.00
1797, 2328.00
1798, 2328.00
1799, 2328.00
1800, 2327.00
1801, 2327.00
1802, 2327.00
1803, 2326.00
1804, 2327.00
1805, 2323.00
1806, 2327.00
1807, 2324.00
1808, 2324.00
1809, 2325.00
1810, 2324.00
1811, 2325.00
1812, 2323.00
1813, 2324.00
1814, 2325.00
1815, 2322.00
1816, 2323.00
1817, 2321.00
1818, 2323.00
1819, 2323.00
1820, 2320.00
1821, 2320.00
1822, 2318.00
1823, 2320.00
1824, 2317.00
1825, 2316.00
1826, 2317.00
1827, 2315.00
1828, 2315.00
1829, 2313.00
1830, 2313.00
1831, 2311.00
1832, 2310.00
1833, 2309.00
1834, 2309.00
1835, 2309.00
1836, 2307.00
1837, 2305.00
1838, 2305.00
1839, 2303.00
1840, 2303.00
1841, 2299.00
1842, 2300.00
1843, 2297.00
1844, 2294.00
1845, 2292.00
1846, 2291.00
1847, 2289.00
1848, 2289.00
1849, 2286.00
1850, 2283.00
1851, 2285.00
1852, 2281.00
1853, 2278.00
1854, 2277.00
1855, 2274.00
1856, 2274.00
1857, 2273.00
1858, 2269.00
1859, 2270.00
1860, 2267.00
1861, 2265.00
1862, 2262.00
1863, 2262.00
1864, 2261.00
1865, 2258.00
1866, 2256.00
1867, 2256.00
1868, 2255.00
1869, 2255.00
1870, 2253.00
1871, 2250.00
1872, 2248.00
1873, 2249.00
1874, 2246.00
1875, 2246.00
1876, 2244.00
1877, 2245.00
1878, 2243.00
1879, 2243.00
1880, 2241.00
1881, 2241.00
1882, 2241.00
1883, 2241.00
1884, 2239.00
1885, 2239.00
1886, 2239.00
1887, 2237.00
1888, 2238.00
1889, 2235.00
1890, 2236.00
1891, 2235.00
1892, 2236.00
1893, 2234.00
1894, 2233.00
1895, 2233.00
1896, 2233.00
1897, 2230.00
1898, 2233.00
1899, 2233.00
1900, 2231.00
1901, 2234.00
1902, 2233.00
1903, 2233.00
1904, 2231.00
1905, 2231.00
1906, 2231.00
1907, 2230.00
1908, 2229.00
1909, 2230.00
1910, 2232.00
1911, 2228.00
1912, 2231.00
1913, 2228.00
1914, 2231.00
1915, 2229.00
1916, 2230.00
1917, 2229.00
1918, 2228.00
1919, 2229.00
1920, 2231.00
1921, 2229.00
1922, 2229.00
1923, 2230.00
1924, 2229.00
1925, 2229.00
1926, 2229.00
1927, 2228.00
1928, 2230.00
1929, 2229.00
1930, 2228.00
1931, 2229.00
1932, 2230.00
1933, 2232.00
1934, 2228.00
1935, 2229.00
1936, 2230.00
1937, 2232.00
1938, 2232.00
1939, 2229.00
1940, 2229.00
1941, 2232.00
1942, 2232.00
1943, 2231.00
1944, 2231.00
1945, 2234.00
1946, 2233.00
1947, 2233.00
1948, 2235.00
1949, 2234.00
1950, 2234.00
1951, 2235.00
1952, 2232.00
1953, 2236.00
1954, 2234.00
1955, 2235.00
1956, 2235.00
1957, 2237.00
1958, 2239.00
1959, 2238.00
1960, 2240.00
1961, 2239.00
1962, 2238.00
1963, 2239.00
1964, 2238.00
1965, 2241.00
1966, 2242.00
1967, 2241.00
1968, 2242.00
1969, 2243.00
1970, 2243.00
1971, 2243.00
1972, 2246.00
1973, 2244.00
1974, 2246.00
1975, 2244.00
1976, 2246.00
1977, 2247.00
1978, 2248.00
1979, 2247.00
1980, 2248.00
1981, 2249.00
1982, 2249.00
1983, 2249.00
1984, 2249.00
1985, 2249.00
1986, 2250.00
1987, 2252.00
1988, 2252.00
1989, 2253.00
1990, 2253.00
1991, 2253.00
1992, 2256.00
1993, 2254.00
1994, 2254.00
1995, 2255.00
1996, 2256.00
1997, 2257.00
1998, 2259.00
1999, 2257.00
2000, 2257.00
2001, 2258.00
2002, 2259.00
2003, 2258.00
2004, 2262.00
2005, 2261.00
2006, 2260.00
2007, 2260.00
2008, 2261.00
2009, 2263.00
2010, 2263.00
2011, 2263.00
2012, 2264.00
2013, 2266.00
2014, 2266.00
2015, 2267.00
2016, 2266.00
2017, 2266.00
2018, 2267.00
2019, 2266.00
2020, 2269.00
2021, 2268.00
2022, 2269.00
2023, 2269.00
2024, 2269.00
2025, 2269.00
2026, 2270.00
2027, 2271.00
2028, 2274.00
2029, 2272.00
2030, 2272.00
2031, 2275.00
2032, 2275.00
2033, 2275.00
2034, 2275.00
2035, 2276.00
2036, 2276.00
2037, 2278.00
2038, 2280.00
2039, 2278.00
2040, 2278.00
2041, 2281.00
2042, 2280.00
2043, 2281.00
2044, 2282.00
2045, 2281.00
2046, 2283.00
2047, 2284.00
2048, 2283.00
2049, 2286.00
2050, 2285.00
2051, 2287.00
2052, 2285.00
2053, 2287.00
2054, 2289.00
2055, 2289.00
2056, 2292.00
2057, 2291.00
2058, 2289.00
2059, 2293.00
2060, 2293.00
2061, 2296.00
2062, 2293.00
2063, 2295.00
2064, 2295.00
2065, 2297.00
2066, 2299.00
2067, 2297.00
2068, 2298.00
2069, 2300.00
2070, 2301.00
2071, 2301.00
2072, 2302.00
2073, 2303.00
2074, 2303.00
2075, 2306.00
2076, 2305.00
2077, 2306.00
2078, 2307.00
2079, 2307.00
2080, 2308.00
2081, 2309.00
2082, 2310.00
2083, 2311.00
2084, 2310.00
2085, 2311.00
2086, 2310.00
2087, 2311.00
2088, 2313.00
2089, 2313.00
2090, 2313.00
2091, 2313.00
2092, 2314.00
2093, 2313.00
2094, 2315.00
2095, 2314.00
2096, 2317.00
2097, 2317.00
2098, 2316.00
2099, 2320.00
2100, 2318.00
2101, 2319.00
2102, 2320.00
2103, 2319.00
2104, 2318.00
2105, 2319.00
2106, 2316.00
2107, 2320.00
2108, 2320.00
2109, 2321.00
2110, 2320.00
2111, 2321.00
2112, 2321.00
2113, 2320.00
2114, 2324.00
2115, 2323.00
2116, 2321.00
2117, 2322.00
2118, 2323.00
2119, 2323.00
2120, 2322.00
2121, 2324.00
2122, 2323.00
2123, 2325.00
2124, 2325.00
2125, 2325.00
2126, 2326.00
2127, 2325.00
2128, 2326.00
2129, 2325.00
2130, 2325.00
2131, 2327.00
2132, 2327.00
2133, 2326.00
2134, 2326.00
2135, 2326.00
2136, 2326.00
2137, 2328.00
2138, 2326.00
2139, 2328.00
2140, 2327.00
2141, 2331.00
2142, 2328.00
2143, 2326.00
2144, 2329.00
2145, 2329.00
2146, 2329.00
2147, 2329.00
2148, 2330.00
2149, 2330.00
2150, 2329.00
