FW version: 24
Log Version: 3.0.3

General Info:
       Command/Macro Performed,            Timestamp,             Device ID, COM Port, UART/I2C, Test Name, Host Major, Host Minor, Host Revision, Host Git Commit
            Single_measurement,  2023_07_18_11_27_01,       Insight2_F4_xxx,    USB-C,      USB,          ,          0,          1,             1,      4031237645

Show Spectrometer Status:
l0_version, f4_version, battery_perc, battery_mVolt, accelerometer_temp, accelerometer_x, accelerometer_y, accelerometer_z, compass_temp, compass_x, compass_y, compass_z, lamp_0, lamp_1, gain_0, gain_1
        17,         24,           78,          2007,               6544,           65244,            1528,           18868,            0,     65500,     65531,     18935,   3276,   3276,      1,      1

Temperature Statistic Info:
NTC AVG [°C], NTC2 AVG [°C]
      40.470,        40.173

Statistic Info:
M1:  num,      min,      max,   median,      AVG,      STD,M2:  num,      min,      max,   median,      AVG,      STD
     301,  1594.00,  1791.00,  1638.00,  1659.56,  61.5166,     401,  2229.00,  2343.00,  2286.00,  2285.83,  38.5131,

Measurements:
Wavelength, Data Amplitude
1350, 1618.00
1351, 1618.00
1352, 1617.00
1353, 1617.00
1354, 1617.00
1355, 1616.00
1356, 1617.00
1357, 1615.00
1358, 1615.00
1359, 1614.00
1360, 1613.00
1361, 1613.00
1362, 1612.00
1363, 1613.00
1364, 1611.00
1365, 1612.00
1366, 1610.00
1367, 1611.00
1368, 1608.00
1369, 1608.00
1370, 1607.00
1371, 1607.00
1372, 1605.00
1373, 1605.00
1374, 1605.00
1375, 1604.00
1376, 1603.00
1377, 1603.00
1378, 1603.00
1379, 1602.00
1380, 1601.00
1381, 1601.00
1382, 1600.00
1383, 1600.00
1384, 1600.00
1385, 1598.00
1386, 1599.00
1387, 1598.00
1388, 1597.00
1389, 1598.00
1390, 1597.00
1391, 1598.00
1392, 1597.00
1393, 1597.00
1394, 1596.00
1395, 1596.00
1396, 1597.00
1397, 1596.00
1398, 1596.00
1399, 1595.00
1400, 1596.00
1401, 1595.00
1402, 1596.00
1403, 1595.00
1404, 1595.00
1405, 1595.00
1406, 1595.00
1407, 1595.00
1408, 1594.00
1409, 1595.00
1410, 1595.00
1411, 1595.00
1412, 1595.00
1413, 1595.00
1414, 1595.00
1415, 1595.00
1416, 1594.00
1417, 1595.00
1418, 1595.00
1419, 1595.00
1420, 1595.00
1421, 1595.00
1422, 1595.00
1423, 1595.00
1424, 1596.00
1425, 1595.00
1426, 1596.00
1427, 1596.00
1428, 1596.00
1429, 1597.00
1430, 1597.00
1431, 1597.00
1432, 1598.00
1433, 1597.00
1434, 1597.00
1435, 1598.00
1436, 1599.00
1437, 1599.00
1438, 1599.00
1439, 1600.00
1440, 1600.00
1441, 1600.00
1442, 1601.00
1443, 1602.00
1444, 1602.00
1445, 1602.00
1446, 1603.00
1447, 1604.00
1448, 1604.00
1449, 1603.00
1450, 1605.00
1451, 1605.00
1452, 1605.00
1453, 1606.00
1454, 1605.00
1455, 1606.00
1456, 1607.00
1457, 1608.00
1458, 1608.00
1459, 1609.00
1460, 1609.00
1461, 1610.00
1462, 1611.00
1463, 1612.00
1464, 1612.00
1465, 1612.00
1466, 1613.00
1467, 1614.00
1468, 1615.00
1469, 1615.00
1470, 1616.00
1471, 1616.00
1472, 1617.00
1473, 1617.00
1474, 1618.00
1475, 1619.00
1476, 1620.00
1477, 1620.00
1478, 1622.00
1479, 1621.00
1480, 1623.00
1481, 1624.00
1482, 1624.00
1483, 1625.00
1484, 1626.00
1485, 1627.00
1486, 1628.00
1487, 1628.00
1488, 1629.00
1489, 1630.00
1490, 1631.00
1491, 1631.00
1492, 1632.00
1493, 1633.00
1494, 1634.00
1495, 1634.00
1496, 1636.00
1497, 1637.00
1498, 1637.00
1499, 1638.00
1500, 1638.00
1501, 1638.00
1502, 1640.00
1503, 1641.00
1504, 1643.00
1505, 1643.00
1506, 1643.00
1507, 1644.00
1508, 1646.00
1509, 1646.00
1510, 1647.00
1511, 1648.00
1512, 1649.00
1513, 1650.00
1514, 1651.00
1515, 1651.00
1516, 1652.00
1517, 1653.00
1518, 1653.00
1519, 1655.00
1520, 1657.00
1521, 1657.00
1522, 1658.00
1523, 1658.00
1524, 1659.00
1525, 1660.00
1526, 1661.00
1527, 1663.00
1528, 1663.00
1529, 1664.00
1530, 1665.00
1531, 1664.00
1532, 1667.00
1533, 1668.00
1534, 1669.00
1535, 1670.00
1536, 1670.00
1537, 1673.00
1538, 1673.00
1539, 1674.00
1540, 1676.00
1541, 1675.00
1542, 1677.00
1543, 1678.00
1544, 1679.00
1545, 1680.00
1546, 1681.00
1547, 1682.00
1548, 1683.00
1549, 1684.00
1550, 1684.00
1551, 1686.00
1552, 1686.00
1553, 1687.00
1554, 1687.00
1555, 1690.00
1556, 1691.00
1557, 1691.00
1558, 1693.00
1559, 1695.00
1560, 1695.00
1561, 1696.00
1562, 1696.00
1563, 1698.00
1564, 1699.00
1565, 1702.00
1566, 1701.00
1567, 1703.00
1568, 1704.00
1569, 1704.00
1570, 1705.00
1571, 1706.00
1572, 1708.00
1573, 1708.00
1574, 1710.00
1575, 1711.00
1576, 1712.00
1577, 1713.00
1578, 1713.00
1579, 1715.00
1580, 1715.00
1581, 1716.00
1582, 1718.00
1583, 1719.00
1584, 1719.00
1585, 1721.00
1586, 1721.00
1587, 1721.00
1588, 1722.00
1589, 1725.00
1590, 1725.00
1591, 1726.00
1592, 1726.00
1593, 1728.00
1594, 1728.00
1595, 1729.00
1596, 1731.00
1597, 1732.00
1598, 1732.00
1599, 1733.00
1600, 1734.00
1601, 1736.00
1602, 1737.00
1603, 1736.00
1604, 1739.00
1605, 1740.00
1606, 1741.00
1607, 1741.00
1608, 1743.00
1609, 1744.00
1610, 1744.00
1611, 1746.00
1612, 1748.00
1613, 1749.00
1614, 1751.00
1615, 1750.00
1616, 1753.00
1617, 1754.00
1618, 1756.00
1619, 1756.00
1620, 1758.00
1621, 1759.00
1622, 1761.00
1623, 1761.00
1624, 1761.00
1625, 1763.00
1626, 1765.00
1627, 1766.00
1628, 1768.00
1629, 1769.00
1630, 1770.00
1631, 1771.00
1632, 1771.00
1633, 1773.00
1634, 1774.00
1635, 1775.00
1636, 1777.00
1637, 1777.00
1638, 1778.00
1639, 1780.00
1640, 1781.00
1641, 1782.00
1642, 1783.00
1643, 1784.00
1644, 1785.00
1645, 1785.00
1646, 1787.00
1647, 1788.00
1648, 1789.00
1649, 1790.00
1650, 1791.00

1750, 2342.00
1751, 2343.00
1752, 2342.00
1753, 2339.00
1754, 2341.00
1755, 2342.00
1756, 2343.00
1757, 2342.00
1758, 2342.00
1759, 2343.00
1760, 2342.00
1761, 2343.00
1762, 2343.00
1763, 2341.00
1764, 2341.00
1765, 2342.00
1766, 2343.00
1767, 2341.00
1768, 2338.00
1769, 2342.00
1770, 2339.00
1771, 2340.00
1772, 2341.00
1773, 2338.00
1774, 2339.00
1775, 2337.00
1776, 2337.00
1777, 2337.00
1778, 2337.00
1779, 2338.00
1780, 2337.00
1781, 2336.00
1782, 2334.00
1783, 2334.00
1784, 2334.00
1785, 2333.00
1786, 2333.00
1787, 2334.00
1788, 2335.00
1789, 2331.00
1790, 2332.00
1791, 2333.00
1792, 2332.00
1793, 2334.00
1794, 2331.00
1795, 2329.00
1796, 2329.00
1797, 2329.00
1798, 2331.00
1799, 2330.00
1800, 2329.00
1801, 2330.00
1802, 2328.00
1803, 2328.00
1804, 2328.00
1805, 2328.00
1806, 2328.00
1807, 2329.00
1808, 2326.00
1809, 2327.00
1810, 2327.00
1811, 2325.00
1812, 2325.00
1813, 2325.00
1814, 2326.00
1815, 2324.00
1816, 2323.00
1817, 2323.00
1818, 2322.00
1819, 2322.00
1820, 2322.00
1821, 2322.00
1822, 2322.00
1823, 2321.00
1824, 2318.00
1825, 2320.00
1826, 2318.00
1827, 2316.00
1828, 2317.00
1829, 2317.00
1830, 2315.00
1831, 2313.00
1832, 2314.00
1833, 2311.00
1834, 2309.00
1835, 2309.00
1836, 2307.00
1837, 2307.00
1838, 2304.00
1839, 2304.00
1840, 2303.00
1841, 2301.00
1842, 2299.00
1843, 2297.00
1844, 2296.00
1845, 2295.00
1846, 2291.00
1847, 2291.00
1848, 2291.00
1849, 2288.00
1850, 2285.00
1851, 2284.00
1852, 2283.00
1853, 2281.00
1854, 2277.00
1855, 2276.00
1856, 2276.00
1857, 2275.00
1858, 2271.00
1859, 2268.00
1860, 2269.00
1861, 2265.00
1862, 2266.00
1863, 2264.00
1864, 2261.00
1865, 2260.00
1866, 2258.00
1867, 2256.00
1868, 2255.00
1869, 2256.00
1870, 2253.00
1871, 2251.00
1872, 2250.00
1873, 2249.00
1874, 2248.00
1875, 2248.00
1876, 2248.00
1877, 2245.00
1878, 2245.00
1879, 2244.00
1880, 2244.00
1881, 2244.00
1882, 2243.00
1883, 2241.00
1884, 2240.00
1885, 2242.00
1886, 2241.00
1887, 2237.00
1888, 2238.00
1889, 2240.00
1890, 2239.00
1891, 2236.00
1892, 2237.00
1893, 2236.00
1894, 2236.00
1895, 2233.00
1896, 2234.00
1897, 2235.00
1898, 2233.00
1899, 2234.00
1900, 2234.00
1901, 2232.00
1902, 2235.00
1903, 2234.00
1904, 2233.00
1905, 2233.00
1906, 2232.00
1907, 2234.00
1908, 2229.00
1909, 2234.00
1910, 2230.00
1911, 2232.00
1912, 2231.00
1913, 2231.00
1914, 2232.00
1915, 2231.00
1916, 2230.00
1917, 2231.00
1918, 2230.00
1919, 2232.00
1920, 2229.00
1921, 2229.00
1922, 2230.00
1923, 2230.00
1924, 2233.00
1925, 2233.00
1926, 2231.00
1927, 2230.00
1928, 2231.00
1929, 2231.00
1930, 2231.00
1931, 2232.00
1932, 2231.00
1933, 2231.00
1934, 2231.00
1935, 2231.00
1936, 2232.00
1937, 2232.00
1938, 2233.00
1939, 2233.00
1940, 2233.00
1941, 2233.00
1942, 2234.00
1943, 2235.00
1944, 2233.00
1945, 2233.00
1946, 2235.00
1947, 2234.00
1948, 2234.00
1949, 2235.00
1950, 2236.00
1951, 2236.00
1952, 2236.00
1953, 2235.00
1954, 2238.00
1955, 2238.00
1956, 2237.00
1957, 2238.00
1958, 2238.00
1959, 2239.00
1960, 2240.00
1961, 2239.00
1962, 2242.00
1963, 2240.00
1964, 2240.00
1965, 2241.00
1966, 2241.00
1967, 2244.00
1968, 2242.00
1969, 2244.00
1970, 2245.00
1971, 2244.00
1972, 2244.00
1973, 2243.00
1974, 2245.00
1975, 2245.00
1976, 2248.00
1977, 2249.00
1978, 2249.00
1979, 2251.00
1980, 2249.00
1981, 2250.00
1982, 2250.00
1983, 2252.00
1984, 2251.00
1985, 2251.00
1986, 2253.00
1987, 2252.00
1988, 2253.00
1989, 2255.00
1990, 2254.00
1991, 2255.00
1992, 2255.00
1993, 2257.00
1994, 2256.00
1995, 2257.00
1996, 2258.00
1997, 2259.00
1998, 2260.00
1999, 2259.00
2000, 2261.00
2001, 2261.00
2002, 2261.00
2003, 2261.00
2004, 2262.00
2005, 2262.00
2006, 2263.00
2007, 2263.00
2008, 2263.00
2009, 2265.00
2010, 2264.00
2011, 2263.00
2012, 2264.00
2013, 2267.00
2014, 2267.00
2015, 2265.00
2016, 2267.00
2017, 2269.00
2018, 2267.00
2019, 2270.00
2020, 2270.00
2021, 2270.00
2022, 2269.00
2023, 2272.00
2024, 2270.00
2025, 2270.00
2026, 2271.00
2027, 2272.00
2028, 2273.00
2029, 2273.00
2030, 2275.00
2031, 2274.00
2032, 2276.00
2033, 2276.00
2034, 2276.00
2035, 2276.00
2036, 2278.00
2037, 2279.00
2038, 2278.00
2039, 2280.00
2040, 2281.00
2041, 2280.00
2042, 2281.00
2043, 2283.00
2044, 2283.00
2045, 2281.00
2046, 2285.00
2047, 2285.00
2048, 2284.00
2049, 2285.00
2050, 2286.00
2051, 2287.00
2052, 2289.00
2053, 2289.00
2054, 2289.00
2055, 2290.00
2056, 2290.00
2057, 2293.00
2058, 2293.00
2059, 2292.00
2060, 2296.00
2061, 2294.00
2062, 2294.00
2063, 2296.00
2064, 2297.00
2065, 2298.00
2066, 2298.00
2067, 2298.00
2068, 2301.00
2069, 2302.00
2070, 2302.00
2071, 2304.00
2072, 2303.00
2073, 2303.00
2074, 2305.00
2075, 2305.00
2076, 2307.00
2077, 2306.00
2078, 2309.00
2079, 2310.00
2080, 2308.00
2081, 2310.00
2082, 2310.00
2083, 2310.00
2084, 2312.00
2085, 2311.00
2086, 2314.00
2087, 2312.00
2088, 2314.00
2089, 2315.00
2090, 2315.00
2091, 2313.00
2092, 2316.00
2093, 2316.00
2094, 2316.00
2095, 2318.00
2096, 2317.00
2097, 2318.00
2098, 2317.00
2099, 2318.00
2100, 2319.00
2101, 2319.00
2102, 2319.00
2103, 2319.00
2104, 2321.00
2105, 2319.00
2106, 2320.00
2107, 2323.00
2108, 2320.00
2109, 2323.00
2110, 2323.00
2111, 2322.00
2112, 2323.00
2113, 2322.00
2114, 2324.00
2115, 2323.00
2116, 2324.00
2117, 2325.00
2118, 2325.00
2119, 2325.00
2120, 2323.00
2121, 2324.00
2122, 2325.00
2123, 2327.00
2124, 2326.00
2125, 2327.00
2126, 2326.00
2127, 2327.00
2128, 2327.00
2129, 2328.00
2130, 2327.00
2131, 2329.00
2132, 2329.00
2133, 2326.00
2134, 2329.00
2135, 2328.00
2136, 2328.00
2137, 2329.00
2138, 2330.00
2139, 2331.00
2140, 2329.00
2141, 2329.00
2142, 2331.00
2143, 2331.00
2144, 2329.00
2145, 2332.00
2146, 2332.00
2147, 2333.00
2148, 2332.00
2149, 2333.00
2150, 2331.00
