FW version: 24
Log Version: 3.0.3

General Info:
       Command/Macro Performed,            Timestamp,             Device ID, COM Port, UART/I2C, Test Name, Host Major, Host Minor, Host Revision, Host Git Commit
            Single_measurement,  2023_07_18_11_26_46,       Insight2_F4_xxx,    USB-C,      USB,          ,          0,          1,             1,      4031237645

Show Spectrometer Status:
l0_version, f4_version, battery_perc, battery_mVolt, accelerometer_temp, accelerometer_x, accelerometer_y, accelerometer_z, compass_temp, compass_x, compass_y, compass_z, lamp_0, lamp_1, gain_0, gain_1
        17,         24,           78,          2007,               6544,           65228,            1540,           18916,            0,     65501,     65247,     18932,   2866,   2866,      1,      1

Temperature Statistic Info:
NTC AVG [°C], NTC2 AVG [°C]
      40.381,        40.084

Statistic Info:
M1:  num,      min,      max,   median,      AVG,      STD,M2:  num,      min,      max,   median,      AVG,      STD
     301,  1241.00,  1402.00,  1279.00,  1294.87,  49.8744,     401,  1798.00,  1890.00,  1845.00,  1844.50,  31.3695,

Measurements:
Wavelength, Data Amplitude
1350, 1259.00
1351, 1259.00
1352, 1259.00
1353, 1259.00
1354, 1258.00
1355, 1258.00
1356, 1258.00
1357, 1256.00
1358, 1257.00
1359, 1257.00
1360, 1257.00
1361, 1256.00
1362, 1255.00
1363, 1256.00
1364, 1253.00
1365, 1256.00
1366, 1253.00
1367, 1252.00
1368, 1253.00
1369, 1253.00
1370, 1253.00
1371, 1251.00
1372, 1251.00
1373, 1250.00
1374, 1249.00
1375, 1249.00
1376, 1249.00
1377, 1248.00
1378, 1247.00
1379, 1247.00
1380, 1246.00
1381, 1246.00
1382, 1245.00
1383, 1246.00
1384, 1245.00
1385, 1246.00
1386, 1245.00
1387, 1244.00
1388, 1245.00
1389, 1244.00
1390, 1244.00
1391, 1245.00
1392, 1243.00
1393, 1243.00
1394, 1243.00
1395, 1243.00
1396, 1243.00
1397, 1242.00
1398, 1243.00
1399, 1242.00
1400, 1242.00
1401, 1243.00
1402, 1244.00
1403, 1243.00
1404, 1243.00
1405, 1243.00
1406, 1242.00
1407, 1244.00
1408, 1241.00
1409, 1244.00
1410, 1243.00
1411, 1242.00
1412, 1243.00
1413, 1243.00
1414, 1242.00
1415, 1242.00
1416, 1243.00
1417, 1243.00
1418, 1243.00
1419, 1243.00
1420, 1243.00
1421, 1242.00
1422, 1242.00
1423, 1243.00
1424, 1243.00
1425, 1244.00
1426, 1244.00
1427, 1243.00
1428, 1243.00
1429, 1244.00
1430, 1243.00
1431, 1244.00
1432, 1245.00
1433, 1244.00
1434, 1246.00
1435, 1245.00
1436, 1246.00
1437, 1246.00
1438, 1247.00
1439, 1246.00
1440, 1247.00
1441, 1247.00
1442, 1246.00
1443, 1249.00
1444, 1248.00
1445, 1249.00
1446, 1249.00
1447, 1248.00
1448, 1249.00
1449, 1250.00
1450, 1251.00
1451, 1251.00
1452, 1251.00
1453, 1251.00
1454, 1251.00
1455, 1252.00
1456, 1253.00
1457, 1253.00
1458, 1254.00
1459, 1254.00
1460, 1255.00
1461, 1255.00
1462, 1255.00
1463, 1257.00
1464, 1256.00
1465, 1257.00
1466, 1258.00
1467, 1258.00
1468, 1258.00
1469, 1259.00
1470, 1260.00
1471, 1261.00
1472, 1260.00
1473, 1262.00
1474, 1262.00
1475, 1263.00
1476, 1263.00
1477, 1264.00
1478, 1264.00
1479, 1265.00
1480, 1266.00
1481, 1267.00
1482, 1267.00
1483, 1268.00
1484, 1268.00
1485, 1268.00
1486, 1269.00
1487, 1270.00
1488, 1271.00
1489, 1271.00
1490, 1273.00
1491, 1273.00
1492, 1274.00
1493, 1274.00
1494, 1275.00
1495, 1275.00
1496, 1276.00
1497, 1276.00
1498, 1277.00
1499, 1278.00
1500, 1279.00
1501, 1279.00
1502, 1280.00
1503, 1281.00
1504, 1281.00
1505, 1281.00
1506, 1282.00
1507, 1282.00
1508, 1284.00
1509, 1284.00
1510, 1285.00
1511, 1286.00
1512, 1287.00
1513, 1287.00
1514, 1288.00
1515, 1288.00
1516, 1290.00
1517, 1291.00
1518, 1291.00
1519, 1292.00
1520, 1293.00
1521, 1293.00
1522, 1294.00
1523, 1296.00
1524, 1295.00
1525, 1296.00
1526, 1297.00
1527, 1298.00
1528, 1298.00
1529, 1299.00
1530, 1300.00
1531, 1300.00
1532, 1302.00
1533, 1302.00
1534, 1303.00
1535, 1304.00
1536, 1305.00
1537, 1305.00
1538, 1307.00
1539, 1307.00
1540, 1308.00
1541, 1308.00
1542, 1309.00
1543, 1310.00
1544, 1311.00
1545, 1312.00
1546, 1312.00
1547, 1314.00
1548, 1313.00
1549, 1315.00
1550, 1316.00
1551, 1317.00
1552, 1318.00
1553, 1318.00
1554, 1318.00
1555, 1319.00
1556, 1320.00
1557, 1321.00
1558, 1322.00
1559, 1323.00
1560, 1324.00
1561, 1325.00
1562, 1326.00
1563, 1326.00
1564, 1327.00
1565, 1328.00
1566, 1329.00
1567, 1329.00
1568, 1330.00
1569, 1332.00
1570, 1332.00
1571, 1333.00
1572, 1334.00
1573, 1335.00
1574, 1336.00
1575, 1337.00
1576, 1337.00
1577, 1337.00
1578, 1339.00
1579, 1340.00
1580, 1340.00
1581, 1341.00
1582, 1341.00
1583, 1343.00
1584, 1343.00
1585, 1344.00
1586, 1345.00
1587, 1346.00
1588, 1346.00
1589, 1347.00
1590, 1347.00
1591, 1349.00
1592, 1349.00
1593, 1350.00
1594, 1352.00
1595, 1351.00
1596, 1352.00
1597, 1352.00
1598, 1354.00
1599, 1355.00
1600, 1356.00
1601, 1356.00
1602, 1357.00
1603, 1357.00
1604, 1359.00
1605, 1359.00
1606, 1360.00
1607, 1361.00
1608, 1363.00
1609, 1363.00
1610, 1364.00
1611, 1365.00
1612, 1365.00
1613, 1367.00
1614, 1368.00
1615, 1368.00
1616, 1370.00
1617, 1370.00
1618, 1373.00
1619, 1373.00
1620, 1375.00
1621, 1376.00
1622, 1376.00
1623, 1377.00
1624, 1377.00
1625, 1380.00
1626, 1379.00
1627, 1382.00
1628, 1383.00
1629, 1382.00
1630, 1383.00
1631, 1385.00
1632, 1385.00
1633, 1387.00
1634, 1388.00
1635, 1389.00
1636, 1390.00
1637, 1390.00
1638, 1391.00
1639, 1391.00
1640, 1392.00
1641, 1393.00
1642, 1395.00
1643, 1395.00
1644, 1396.00
1645, 1397.00
1646, 1398.00
1647, 1399.00
1648, 1400.00
1649, 1400.00
1650, 1402.00

1750, 1889.00
1751, 1889.00
1752, 1890.00
1753, 1889.00
1754, 1889.00
1755, 1889.00
1756, 1889.00
1757, 1888.00
1758, 1890.00
1759, 1887.00
1760, 1889.00
1761, 1887.00
1762, 1888.00
1763, 1887.00
1764, 1889.00
1765, 1889.00
1766, 1888.00
1767, 1890.00
1768, 1887.00
1769, 1889.00
1770, 1887.00
1771, 1886.00
1772, 1887.00
1773, 1888.00
1774, 1887.00
1775, 1885.00
1776, 1887.00
1777, 1887.00
1778, 1885.00
1779, 1885.00
1780, 1885.00
1781, 1883.00
1782, 1883.00
1783, 1884.00
1784, 1883.00
1785, 1883.00
1786, 1882.00
1787, 1883.00
1788, 1882.00
1789, 1882.00
1790, 1881.00
1791, 1881.00
1792, 1880.00
1793, 1880.00
1794, 1881.00
1795, 1882.00
1796, 1879.00
1797, 1880.00
1798, 1878.00
1799, 1877.00
1800, 1879.00
1801, 1879.00
1802, 1876.00
1803, 1877.00
1804, 1877.00
1805, 1876.00
1806, 1876.00
1807, 1875.00
1808, 1878.00
1809, 1877.00
1810, 1876.00
1811, 1877.00
1812, 1876.00
1813, 1875.00
1814, 1876.00
1815, 1877.00
1816, 1874.00
1817, 1875.00
1818, 1875.00
1819, 1872.00
1820, 1874.00
1821, 1872.00
1822, 1872.00
1823, 1873.00
1824, 1871.00
1825, 1871.00
1826, 1870.00
1827, 1867.00
1828, 1868.00
1829, 1868.00
1830, 1868.00
1831, 1867.00
1832, 1865.00
1833, 1864.00
1834, 1863.00
1835, 1863.00
1836, 1861.00
1837, 1861.00
1838, 1858.00
1839, 1860.00
1840, 1857.00
1841, 1856.00
1842, 1855.00
1843, 1855.00
1844, 1852.00
1845, 1851.00
1846, 1848.00
1847, 1846.00
1848, 1845.00
1849, 1844.00
1850, 1844.00
1851, 1844.00
1852, 1841.00
1853, 1841.00
1854, 1837.00
1855, 1835.00
1856, 1834.00
1857, 1833.00
1858, 1833.00
1859, 1832.00
1860, 1830.00
1861, 1828.00
1862, 1826.00
1863, 1825.00
1864, 1824.00
1865, 1822.00
1866, 1823.00
1867, 1820.00
1868, 1820.00
1869, 1819.00
1870, 1818.00
1871, 1817.00
1872, 1817.00
1873, 1815.00
1874, 1815.00
1875, 1813.00
1876, 1812.00
1877, 1810.00
1878, 1813.00
1879, 1811.00
1880, 1809.00
1881, 1807.00
1882, 1810.00
1883, 1809.00
1884, 1806.00
1885, 1806.00
1886, 1808.00
1887, 1806.00
1888, 1804.00
1889, 1806.00
1890, 1805.00
1891, 1804.00
1892, 1805.00
1893, 1803.00
1894, 1804.00
1895, 1804.00
1896, 1803.00
1897, 1802.00
1898, 1803.00
1899, 1802.00
1900, 1802.00
1901, 1801.00
1902, 1801.00
1903, 1801.00
1904, 1799.00
1905, 1804.00
1906, 1802.00
1907, 1801.00
1908, 1801.00
1909, 1801.00
1910, 1801.00
1911, 1799.00
1912, 1800.00
1913, 1799.00
1914, 1800.00
1915, 1798.00
1916, 1799.00
1917, 1799.00
1918, 1799.00
1919, 1802.00
1920, 1800.00
1921, 1799.00
1922, 1798.00
1923, 1800.00
1924, 1799.00
1925, 1799.00
1926, 1802.00
1927, 1799.00
1928, 1800.00
1929, 1801.00
1930, 1798.00
1931, 1799.00
1932, 1801.00
1933, 1799.00
1934, 1798.00
1935, 1801.00
1936, 1799.00
1937, 1800.00
1938, 1800.00
1939, 1803.00
1940, 1801.00
1941, 1801.00
1942, 1802.00
1943, 1800.00
1944, 1802.00
1945, 1800.00
1946, 1804.00
1947, 1804.00
1948, 1803.00
1949, 1801.00
1950, 1805.00
1951, 1805.00
1952, 1804.00
1953, 1806.00
1954, 1804.00
1955, 1804.00
1956, 1805.00
1957, 1805.00
1958, 1803.00
1959, 1807.00
1960, 1806.00
1961, 1807.00
1962, 1805.00
1963, 1809.00
1964, 1809.00
1965, 1810.00
1966, 1808.00
1967, 1809.00
1968, 1811.00
1969, 1810.00
1970, 1810.00
1971, 1810.00
1972, 1809.00
1973, 1810.00
1974, 1811.00
1975, 1813.00
1976, 1814.00
1977, 1814.00
1978, 1816.00
1979, 1815.00
1980, 1815.00
1981, 1815.00
1982, 1817.00
1983, 1814.00
1984, 1817.00
1985, 1817.00
1986, 1818.00
1987, 1819.00
1988, 1819.00
1989, 1818.00
1990, 1821.00
1991, 1819.00
1992, 1820.00
1993, 1821.00
1994, 1821.00
1995, 1819.00
1996, 1821.00
1997, 1822.00
1998, 1823.00
1999, 1823.00
2000, 1823.00
2001, 1825.00
2002, 1823.00
2003, 1824.00
2004, 1826.00
2005, 1824.00
2006, 1825.00
2007, 1825.00
2008, 1826.00
2009, 1826.00
2010, 1827.00
2011, 1828.00
2012, 1827.00
2013, 1827.00
2014, 1829.00
2015, 1829.00
2016, 1831.00
2017, 1829.00
2018, 1832.00
2019, 1830.00
2020, 1830.00
2021, 1831.00
2022, 1831.00
2023, 1832.00
2024, 1831.00
2025, 1835.00
2026, 1833.00
2027, 1835.00
2028, 1835.00
2029, 1833.00
2030, 1836.00
2031, 1837.00
2032, 1834.00
2033, 1836.00
2034, 1838.00
2035, 1838.00
2036, 1839.00
2037, 1840.00
2038, 1840.00
2039, 1840.00
2040, 1839.00
2041, 1841.00
2042, 1842.00
2043, 1843.00
2044, 1844.00
2045, 1843.00
2046, 1844.00
2047, 1845.00
2048, 1844.00
2049, 1845.00
2050, 1847.00
2051, 1847.00
2052, 1849.00
2053, 1848.00
2054, 1849.00
2055, 1850.00
2056, 1851.00
2057, 1849.00
2058, 1850.00
2059, 1853.00
2060, 1853.00
2061, 1854.00
2062, 1853.00
2063, 1854.00
2064, 1855.00
2065, 1855.00
2066, 1854.00
2067, 1856.00
2068, 1856.00
2069, 1858.00
2070, 1860.00
2071, 1857.00
2072, 1861.00
2073, 1860.00
2074, 1861.00
2075, 1861.00
2076, 1863.00
2077, 1862.00
2078, 1861.00
2079, 1865.00
2080, 1865.00
2081, 1864.00
2082, 1865.00
2083, 1865.00
2084, 1866.00
2085, 1867.00
2086, 1869.00
2087, 1867.00
2088, 1868.00
2089, 1871.00
2090, 1868.00
2091, 1871.00
2092, 1870.00
2093, 1871.00
2094, 1870.00
2095, 1872.00
2096, 1871.00
2097, 1872.00
2098, 1872.00
2099, 1872.00
2100, 1874.00
2101, 1873.00
2102, 1873.00
2103, 1872.00
2104, 1875.00
2105, 1874.00
2106, 1872.00
2107, 1874.00
2108, 1873.00
2109, 1875.00
2110, 1875.00
2111, 1876.00
2112, 1876.00
2113, 1874.00
2114, 1875.00
2115, 1877.00
2116, 1877.00
2117, 1878.00
2118, 1879.00
2119, 1877.00
2120, 1879.00
2121, 1878.00
2122, 1878.00
2123, 1879.00
2124, 1880.00
2125, 1879.00
2126, 1879.00
2127, 1881.00
2128, 1879.00
2129, 1878.00
2130, 1881.00
2131, 1879.00
2132, 1879.00
2133, 1880.00
2134, 1880.00
2135, 1882.00
2136, 1879.00
2137, 1880.00
2138, 1881.00
2139, 1882.00
2140, 1881.00
2141, 1882.00
2142, 1881.00
2143, 1883.00
2144, 1882.00
2145, 1883.00
2146, 1883.00
2147, 1883.00
2148, 1883.00
2149, 1883.00
2150, 1883.00
