FW version: 24
Log Version: 3.0.3

General Info:
       Command/Macro Performed,            Timestamp,             Device ID, COM Port, UART/I2C, Test Name, Host Major, Host Minor, Host Revision, Host Git Commit
            Single_measurement,  2023_07_18_11_06_21,       Insight2_F4_xxx,    USB-C,      USB,          ,          0,          1,             1,      4031237645

Show Spectrometer Status:
l0_version, f4_version, battery_perc, battery_mVolt, accelerometer_temp, accelerometer_x, accelerometer_y, accelerometer_z, compass_temp, compass_x, compass_y, compass_z, lamp_0, lamp_1, gain_0, gain_1
        17,         24,           74,          1992,               6352,           65236,            1172,           18856,            0,     65493,     65246,     18937,   2457,   2457,      1,      1

Temperature Statistic Info:
NTC AVG [°C], NTC2 AVG [°C]
      39.441,        39.116

Statistic Info:
M1:  num,      min,      max,   median,      AVG,      STD,M2:  num,      min,      max,   median,      AVG,      STD
     301,  1308.00,  1531.00,  1354.00,  1380.73,  69.1779,     401,  1822.00,  1955.00,  1878.00,  1880.95,  43.7210,

Measurements:
Wavelength, Data Amplitude
1350, 1346.00
1351, 1345.00
1352, 1345.00
1353, 1344.00
1354, 1344.00
1355, 1342.00
1356, 1343.00
1357, 1341.00
1358, 1339.00
1359, 1338.00
1360, 1338.00
1361, 1338.00
1362, 1337.00
1363, 1335.00
1364, 1335.00
1365, 1333.00
1366, 1333.00
1367, 1332.00
1368, 1330.00
1369, 1329.00
1370, 1329.00
1371, 1327.00
1372, 1326.00
1373, 1325.00
1374, 1325.00
1375, 1324.00
1376, 1323.00
1377, 1320.00
1378, 1320.00
1379, 1321.00
1380, 1320.00
1381, 1318.00
1382, 1317.00
1383, 1318.00
1384, 1316.00
1385, 1316.00
1386, 1315.00
1387, 1315.00
1388, 1314.00
1389, 1313.00
1390, 1314.00
1391, 1312.00
1392, 1314.00
1393, 1314.00
1394, 1312.00
1395, 1311.00
1396, 1312.00
1397, 1311.00
1398, 1311.00
1399, 1311.00
1400, 1311.00
1401, 1310.00
1402, 1310.00
1403, 1310.00
1404, 1309.00
1405, 1310.00
1406, 1309.00
1407, 1309.00
1408, 1309.00
1409, 1309.00
1410, 1309.00
1411, 1309.00
1412, 1309.00
1413, 1308.00
1414, 1308.00
1415, 1310.00
1416, 1308.00
1417, 1309.00
1418, 1308.00
1419, 1309.00
1420, 1309.00
1421, 1309.00
1422, 1308.00
1423, 1309.00
1424, 1308.00
1425, 1310.00
1426, 1309.00
1427, 1309.00
1428, 1310.00
1429, 1309.00
1430, 1310.00
1431, 1308.00
1432, 1311.00
1433, 1311.00
1434, 1311.00
1435, 1311.00
1436, 1311.00
1437, 1312.00
1438, 1312.00
1439, 1312.00
1440, 1313.00
1441, 1313.00
1442, 1313.00
1443, 1314.00
1444, 1315.00
1445, 1314.00
1446, 1315.00
1447, 1315.00
1448, 1315.00
1449, 1315.00
1450, 1317.00
1451, 1317.00
1452, 1317.00
1453, 1317.00
1454, 1318.00
1455, 1318.00
1456, 1320.00
1457, 1320.00
1458, 1321.00
1459, 1322.00
1460, 1322.00
1461, 1322.00
1462, 1323.00
1463, 1322.00
1464, 1324.00
1465, 1325.00
1466, 1325.00
1467, 1325.00
1468, 1327.00
1469, 1327.00
1470, 1328.00
1471, 1328.00
1472, 1329.00
1473, 1329.00
1474, 1331.00
1475, 1331.00
1476, 1332.00
1477, 1333.00
1478, 1334.00
1479, 1335.00
1480, 1336.00
1481, 1335.00
1482, 1338.00
1483, 1337.00
1484, 1339.00
1485, 1341.00
1486, 1341.00
1487, 1341.00
1488, 1343.00
1489, 1344.00
1490, 1345.00
1491, 1345.00
1492, 1346.00
1493, 1348.00
1494, 1348.00
1495, 1349.00
1496, 1349.00
1497, 1351.00
1498, 1352.00
1499, 1353.00
1500, 1354.00
1501, 1355.00
1502, 1355.00
1503, 1356.00
1504, 1357.00
1505, 1358.00
1506, 1360.00
1507, 1359.00
1508, 1361.00
1509, 1362.00
1510, 1363.00
1511, 1363.00
1512, 1364.00
1513, 1366.00
1514, 1367.00
1515, 1368.00
1516, 1369.00
1517, 1371.00
1518, 1371.00
1519, 1372.00
1520, 1373.00
1521, 1373.00
1522, 1375.00
1523, 1376.00
1524, 1377.00
1525, 1379.00
1526, 1379.00
1527, 1382.00
1528, 1382.00
1529, 1383.00
1530, 1384.00
1531, 1385.00
1532, 1387.00
1533, 1387.00
1534, 1389.00
1535, 1390.00
1536, 1390.00
1537, 1392.00
1538, 1392.00
1539, 1393.00
1540, 1395.00
1541, 1396.00
1542, 1398.00
1543, 1398.00
1544, 1400.00
1545, 1402.00
1546, 1403.00
1547, 1403.00
1548, 1404.00
1549, 1406.00
1550, 1407.00
1551, 1409.00
1552, 1409.00
1553, 1411.00
1554, 1413.00
1555, 1412.00
1556, 1414.00
1557, 1415.00
1558, 1416.00
1559, 1419.00
1560, 1419.00
1561, 1420.00
1562, 1421.00
1563, 1422.00
1564, 1424.00
1565, 1425.00
1566, 1426.00
1567, 1427.00
1568, 1429.00
1569, 1430.00
1570, 1431.00
1571, 1432.00
1572, 1434.00
1573, 1435.00
1574, 1437.00
1575, 1437.00
1576, 1438.00
1577, 1441.00
1578, 1440.00
1579, 1442.00
1580, 1443.00
1581, 1445.00
1582, 1445.00
1583, 1447.00
1584, 1448.00
1585, 1450.00
1586, 1450.00
1587, 1451.00
1588, 1452.00
1589, 1453.00
1590, 1453.00
1591, 1455.00
1592, 1456.00
1593, 1457.00
1594, 1458.00
1595, 1460.00
1596, 1461.00
1597, 1462.00
1598, 1463.00
1599, 1465.00
1600, 1465.00
1601, 1467.00
1602, 1468.00
1603, 1469.00
1604, 1470.00
1605, 1473.00
1606, 1473.00
1607, 1474.00
1608, 1476.00
1609, 1477.00
1610, 1478.00
1611, 1481.00
1612, 1481.00
1613, 1482.00
1614, 1484.00
1615, 1485.00
1616, 1487.00
1617, 1489.00
1618, 1490.00
1619, 1491.00
1620, 1492.00
1621, 1494.00
1622, 1495.00
1623, 1497.00
1624, 1499.00
1625, 1498.00
1626, 1501.00
1627, 1503.00
1628, 1503.00
1629, 1505.00
1630, 1505.00
1631, 1508.00
1632, 1509.00
1633, 1509.00
1634, 1512.00
1635, 1513.00
1636, 1514.00
1637, 1515.00
1638, 1516.00
1639, 1517.00
1640, 1519.00
1641, 1519.00
1642, 1521.00
1643, 1522.00
1644, 1523.00
1645, 1524.00
1646, 1525.00
1647, 1526.00
1648, 1527.00
1649, 1529.00
1650, 1531.00

1750, 1954.00
1751, 1953.00
1752, 1955.00
1753, 1954.00
1754, 1954.00
1755, 1954.00
1756, 1954.00
1757, 1955.00
1758, 1954.00
1759, 1953.00
1760, 1954.00
1761, 1953.00
1762, 1952.00
1763, 1953.00
1764, 1952.00
1765, 1950.00
1766, 1951.00
1767, 1953.00
1768, 1953.00
1769, 1952.00
1770, 1952.00
1771, 1951.00
1772, 1950.00
1773, 1950.00
1774, 1949.00
1775, 1949.00
1776, 1950.00
1777, 1948.00
1778, 1949.00
1779, 1949.00
1780, 1948.00
1781, 1948.00
1782, 1948.00
1783, 1946.00
1784, 1946.00
1785, 1946.00
1786, 1946.00
1787, 1943.00
1788, 1944.00
1789, 1944.00
1790, 1944.00
1791, 1941.00
1792, 1943.00
1793, 1943.00
1794, 1941.00
1795, 1941.00
1796, 1939.00
1797, 1941.00
1798, 1940.00
1799, 1940.00
1800, 1940.00
1801, 1940.00
1802, 1938.00
1803, 1938.00
1804, 1938.00
1805, 1937.00
1806, 1936.00
1807, 1937.00
1808, 1935.00
1809, 1936.00
1810, 1935.00
1811, 1934.00
1812, 1933.00
1813, 1931.00
1814, 1934.00
1815, 1931.00
1816, 1933.00
1817, 1929.00
1818, 1929.00
1819, 1929.00
1820, 1928.00
1821, 1927.00
1822, 1926.00
1823, 1925.00
1824, 1923.00
1825, 1924.00
1826, 1922.00
1827, 1921.00
1828, 1920.00
1829, 1919.00
1830, 1917.00
1831, 1916.00
1832, 1916.00
1833, 1911.00
1834, 1913.00
1835, 1910.00
1836, 1909.00
1837, 1907.00
1838, 1906.00
1839, 1902.00
1840, 1903.00
1841, 1901.00
1842, 1896.00
1843, 1894.00
1844, 1893.00
1845, 1892.00
1846, 1889.00
1847, 1888.00
1848, 1883.00
1849, 1882.00
1850, 1882.00
1851, 1880.00
1852, 1878.00
1853, 1877.00
1854, 1873.00
1855, 1871.00
1856, 1868.00
1857, 1868.00
1858, 1864.00
1859, 1866.00
1860, 1861.00
1861, 1861.00
1862, 1858.00
1863, 1858.00
1864, 1856.00
1865, 1854.00
1866, 1852.00
1867, 1849.00
1868, 1847.00
1869, 1847.00
1870, 1845.00
1871, 1844.00
1872, 1844.00
1873, 1843.00
1874, 1845.00
1875, 1841.00
1876, 1840.00
1877, 1840.00
1878, 1838.00
1879, 1838.00
1880, 1838.00
1881, 1836.00
1882, 1837.00
1883, 1835.00
1884, 1833.00
1885, 1833.00
1886, 1832.00
1887, 1832.00
1888, 1832.00
1889, 1832.00
1890, 1831.00
1891, 1831.00
1892, 1831.00
1893, 1830.00
1894, 1829.00
1895, 1830.00
1896, 1828.00
1897, 1828.00
1898, 1829.00
1899, 1827.00
1900, 1828.00
1901, 1827.00
1902, 1828.00
1903, 1827.00
1904, 1826.00
1905, 1825.00
1906, 1825.00
1907, 1825.00
1908, 1825.00
1909, 1826.00
1910, 1826.00
1911, 1825.00
1912, 1823.00
1913, 1827.00
1914, 1823.00
1915, 1823.00
1916, 1824.00
1917, 1824.00
1918, 1824.00
1919, 1824.00
1920, 1825.00
1921, 1823.00
1922, 1825.00
1923, 1823.00
1924, 1823.00
1925, 1822.00
1926, 1825.00
1927, 1824.00
1928, 1825.00
1929, 1824.00
1930, 1823.00
1931, 1824.00
1932, 1822.00
1933, 1824.00
1934, 1824.00
1935, 1824.00
1936, 1824.00
1937, 1825.00
1938, 1824.00
1939, 1824.00
1940, 1824.00
1941, 1824.00
1942, 1825.00
1943, 1825.00
1944, 1826.00
1945, 1825.00
1946, 1826.00
1947, 1825.00
1948, 1827.00
1949, 1827.00
1950, 1827.00
1951, 1826.00
1952, 1825.00
1953, 1828.00
1954, 1828.00
1955, 1827.00
1956, 1829.00
1957, 1829.00
1958, 1828.00
1959, 1828.00
1960, 1831.00
1961, 1831.00
1962, 1830.00
1963, 1829.00
1964, 1831.00
1965, 1832.00
1966, 1832.00
1967, 1832.00
1968, 1832.00
1969, 1832.00
1970, 1833.00
1971, 1835.00
1972, 1833.00
1973, 1835.00
1974, 1835.00
1975, 1837.00
1976, 1838.00
1977, 1835.00
1978, 1837.00
1979, 1837.00
1980, 1837.00
1981, 1838.00
1982, 1838.00
1983, 1839.00
1984, 1839.00
1985, 1840.00
1986, 1840.00
1987, 1841.00
1988, 1842.00
1989, 1844.00
1990, 1844.00
1991, 1842.00
1992, 1843.00
1993, 1843.00
1994, 1845.00
1995, 1844.00
1996, 1847.00
1997, 1844.00
1998, 1848.00
1999, 1845.00
2000, 1848.00
2001, 1849.00
2002, 1848.00
2003, 1848.00
2004, 1850.00
2005, 1848.00
2006, 1849.00
2007, 1850.00
2008, 1850.00
2009, 1852.00
2010, 1853.00
2011, 1853.00
2012, 1854.00
2013, 1855.00
2014, 1855.00
2015, 1853.00
2016, 1855.00
2017, 1856.00
2018, 1855.00
2019, 1858.00
2020, 1857.00
2021, 1856.00
2022, 1858.00
2023, 1859.00
2024, 1860.00
2025, 1861.00
2026, 1861.00
2027, 1861.00
2028, 1861.00
2029, 1861.00
2030, 1863.00
2031, 1864.00
2032, 1865.00
2033, 1865.00
2034, 1864.00
2035, 1866.00
2036, 1867.00
2037, 1864.00
2038, 1867.00
2039, 1869.00
2040, 1869.00
2041, 1868.00
2042, 1871.00
2043, 1869.00
2044, 1870.00
2045, 1871.00
2046, 1873.00
2047, 1873.00
2048, 1874.00
2049, 1874.00
2050, 1878.00
2051, 1877.00
2052, 1877.00
2053, 1877.00
2054, 1879.00
2055, 1878.00
2056, 1880.00
2057, 1880.00
2058, 1882.00
2059, 1881.00
2060, 1884.00
2061, 1884.00
2062, 1884.00
2063, 1887.00
2064, 1886.00
2065, 1887.00
2066, 1889.00
2067, 1887.00
2068, 1887.00
2069, 1889.00
2070, 1891.00
2071, 1891.00
2072, 1893.00
2073, 1893.00
2074, 1893.00
2075, 1894.00
2076, 1895.00
2077, 1896.00
2078, 1896.00
2079, 1898.00
2080, 1896.00
2081, 1899.00
2082, 1898.00
2083, 1900.00
2084, 1901.00
2085, 1901.00
2086, 1902.00
2087, 1902.00
2088, 1902.00
2089, 1904.00
2090, 1905.00
2091, 1903.00
2092, 1906.00
2093, 1905.00
2094, 1905.00
2095, 1906.00
2096, 1908.00
2097, 1909.00
2098, 1908.00
2099, 1910.00
2100, 1910.00
2101, 1910.00
2102, 1912.00
2103, 1911.00
2104, 1913.00
2105, 1912.00
2106, 1911.00
2107, 1913.00
2108, 1912.00
2109, 1914.00
2110, 1913.00
2111, 1915.00
2112, 1914.00
2113, 1916.00
2114, 1917.00
2115, 1916.00
2116, 1915.00
2117, 1915.00
2118, 1917.00
2119, 1919.00
2120, 1917.00
2121, 1918.00
2122, 1918.00
2123, 1919.00
2124, 1919.00
2125, 1918.00
2126, 1919.00
2127, 1919.00
2128, 1921.00
2129, 1922.00
2130, 1919.00
2131, 1921.00
2132, 1922.00
2133, 1922.00
2134, 1922.00
2135, 1922.00
2136, 1923.00
2137, 1923.00
2138, 1924.00
2139, 1923.00
2140, 1925.00
2141, 1923.00
2142, 1924.00
2143, 1923.00
2144, 1928.00
2145, 1925.00
2146, 1926.00
2147, 1926.00
2148, 1927.00
2149, 1926.00
2150, 1927.00
