FW version: 24
Log Version: 3.0.3

General Info:
       Command/Macro Performed,            Timestamp,             Device ID, COM Port, UART/I2C, Test Name, Host Major, Host Minor, Host Revision, Host Git Commit
            Single_measurement,  2023_07_18_11_06_36,       Insight2_F4_xxx,    USB-C,      USB,          ,          0,          1,             1,      4031237645

Show Spectrometer Status:
l0_version, f4_version, battery_perc, battery_mVolt, accelerometer_temp, accelerometer_x, accelerometer_y, accelerometer_z, compass_temp, compass_x, compass_y, compass_z, lamp_0, lamp_1, gain_0, gain_1
        17,         24,           74,          1992,               6352,           65220,            1228,           18832,            0,     65492,     65245,     18939,   2866,   2866,      1,      1

Temperature Statistic Info:
NTC AVG [°C], NTC2 AVG [°C]
      39.558,        39.264

Statistic Info:
M1:  num,      min,      max,   median,      AVG,      STD,M2:  num,      min,      max,   median,      AVG,      STD
     301,  1763.00,  2052.00,  1821.00,  1857.61,  89.5910,     401,  2358.00,  2529.00,  2427.00,  2431.93,  55.9197,

Measurements:
Wavelength, Data Amplitude
1350, 1817.00
1351, 1816.00
1352, 1815.00
1353, 1814.00
1354, 1813.00
1355, 1811.00
1356, 1811.00
1357, 1810.00
1358, 1809.00
1359, 1807.00
1360, 1807.00
1361, 1804.00
1362, 1803.00
1363, 1802.00
1364, 1800.00
1365, 1799.00
1366, 1797.00
1367, 1796.00
1368, 1795.00
1369, 1793.00
1370, 1793.00
1371, 1791.00
1372, 1788.00
1373, 1787.00
1374, 1786.00
1375, 1785.00
1376, 1784.00
1377, 1783.00
1378, 1782.00
1379, 1781.00
1380, 1780.00
1381, 1779.00
1382, 1777.00
1383, 1776.00
1384, 1775.00
1385, 1775.00
1386, 1774.00
1387, 1773.00
1388, 1772.00
1389, 1771.00
1390, 1772.00
1391, 1770.00
1392, 1770.00
1393, 1770.00
1394, 1770.00
1395, 1769.00
1396, 1768.00
1397, 1769.00
1398, 1767.00
1399, 1767.00
1400, 1767.00
1401, 1767.00
1402, 1767.00
1403, 1767.00
1404, 1766.00
1405, 1765.00
1406, 1765.00
1407, 1764.00
1408, 1765.00
1409, 1766.00
1410, 1765.00
1411, 1764.00
1412, 1765.00
1413, 1765.00
1414, 1764.00
1415, 1763.00
1416, 1764.00
1417, 1764.00
1418, 1764.00
1419, 1764.00
1420, 1764.00
1421, 1765.00
1422, 1764.00
1423, 1765.00
1424, 1765.00
1425, 1765.00
1426, 1765.00
1427, 1765.00
1428, 1765.00
1429, 1766.00
1430, 1765.00
1431, 1765.00
1432, 1767.00
1433, 1766.00
1434, 1767.00
1435, 1767.00
1436, 1767.00
1437, 1766.00
1438, 1768.00
1439, 1769.00
1440, 1769.00
1441, 1770.00
1442, 1770.00
1443, 1770.00
1444, 1771.00
1445, 1771.00
1446, 1771.00
1447, 1773.00
1448, 1773.00
1449, 1774.00
1450, 1775.00
1451, 1775.00
1452, 1774.00
1453, 1776.00
1454, 1776.00
1455, 1777.00
1456, 1776.00
1457, 1778.00
1458, 1777.00
1459, 1779.00
1460, 1781.00
1461, 1781.00
1462, 1782.00
1463, 1783.00
1464, 1784.00
1465, 1783.00
1466, 1785.00
1467, 1785.00
1468, 1787.00
1469, 1787.00
1470, 1788.00
1471, 1788.00
1472, 1790.00
1473, 1791.00
1474, 1791.00
1475, 1793.00
1476, 1794.00
1477, 1795.00
1478, 1796.00
1479, 1795.00
1480, 1797.00
1481, 1799.00
1482, 1800.00
1483, 1801.00
1484, 1803.00
1485, 1804.00
1486, 1805.00
1487, 1806.00
1488, 1807.00
1489, 1809.00
1490, 1809.00
1491, 1811.00
1492, 1812.00
1493, 1814.00
1494, 1814.00
1495, 1816.00
1496, 1817.00
1497, 1816.00
1498, 1818.00
1499, 1820.00
1500, 1821.00
1501, 1823.00
1502, 1824.00
1503, 1824.00
1504, 1826.00
1505, 1827.00
1506, 1828.00
1507, 1829.00
1508, 1831.00
1509, 1831.00
1510, 1833.00
1511, 1834.00
1512, 1835.00
1513, 1837.00
1514, 1838.00
1515, 1839.00
1516, 1842.00
1517, 1841.00
1518, 1843.00
1519, 1845.00
1520, 1846.00
1521, 1847.00
1522, 1849.00
1523, 1850.00
1524, 1853.00
1525, 1853.00
1526, 1855.00
1527, 1857.00
1528, 1857.00
1529, 1858.00
1530, 1861.00
1531, 1862.00
1532, 1864.00
1533, 1866.00
1534, 1866.00
1535, 1869.00
1536, 1870.00
1537, 1871.00
1538, 1873.00
1539, 1874.00
1540, 1876.00
1541, 1875.00
1542, 1879.00
1543, 1880.00
1544, 1882.00
1545, 1883.00
1546, 1885.00
1547, 1887.00
1548, 1888.00
1549, 1889.00
1550, 1890.00
1551, 1892.00
1552, 1895.00
1553, 1897.00
1554, 1897.00
1555, 1898.00
1556, 1900.00
1557, 1903.00
1558, 1904.00
1559, 1905.00
1560, 1907.00
1561, 1908.00
1562, 1910.00
1563, 1911.00
1564, 1913.00
1565, 1916.00
1566, 1917.00
1567, 1919.00
1568, 1919.00
1569, 1921.00
1570, 1923.00
1571, 1925.00
1572, 1927.00
1573, 1927.00
1574, 1930.00
1575, 1932.00
1576, 1933.00
1577, 1934.00
1578, 1936.00
1579, 1938.00
1580, 1940.00
1581, 1940.00
1582, 1942.00
1583, 1943.00
1584, 1946.00
1585, 1946.00
1586, 1947.00
1587, 1949.00
1588, 1951.00
1589, 1952.00
1590, 1953.00
1591, 1954.00
1592, 1955.00
1593, 1958.00
1594, 1959.00
1595, 1961.00
1596, 1962.00
1597, 1963.00
1598, 1966.00
1599, 1966.00
1600, 1967.00
1601, 1970.00
1602, 1970.00
1603, 1972.00
1604, 1974.00
1605, 1976.00
1606, 1977.00
1607, 1979.00
1608, 1980.00
1609, 1983.00
1610, 1985.00
1611, 1985.00
1612, 1987.00
1613, 1989.00
1614, 1992.00
1615, 1993.00
1616, 1995.00
1617, 1995.00
1618, 1998.00
1619, 2001.00
1620, 2002.00
1621, 2005.00
1622, 2006.00
1623, 2009.00
1624, 2011.00
1625, 2012.00
1626, 2012.00
1627, 2015.00
1628, 2017.00
1629, 2018.00
1630, 2020.00
1631, 2022.00
1632, 2023.00
1633, 2025.00
1634, 2027.00
1635, 2029.00
1636, 2030.00
1637, 2031.00
1638, 2033.00
1639, 2035.00
1640, 2036.00
1641, 2038.00
1642, 2040.00
1643, 2040.00
1644, 2042.00
1645, 2043.00
1646, 2046.00
1647, 2046.00
1648, 2049.00
1649, 2050.00
1650, 2052.00

1750, 2527.00
1751, 2527.00
1752, 2527.00
1753, 2528.00
1754, 2529.00
1755, 2526.00
1756, 2527.00
1757, 2526.00
1758, 2528.00
1759, 2526.00
1760, 2529.00
1761, 2527.00
1762, 2527.00
1763, 2526.00
1764, 2526.00
1765, 2526.00
1766, 2525.00
1767, 2524.00
1768, 2525.00
1769, 2524.00
1770, 2525.00
1771, 2525.00
1772, 2521.00
1773, 2523.00
1774, 2525.00
1775, 2522.00
1776, 2522.00
1777, 2521.00
1778, 2519.00
1779, 2521.00
1780, 2521.00
1781, 2519.00
1782, 2519.00
1783, 2519.00
1784, 2516.00
1785, 2517.00
1786, 2515.00
1787, 2515.00
1788, 2514.00
1789, 2516.00
1790, 2514.00
1791, 2514.00
1792, 2511.00
1793, 2512.00
1794, 2509.00
1795, 2514.00
1796, 2511.00
1797, 2508.00
1798, 2510.00
1799, 2508.00
1800, 2508.00
1801, 2508.00
1802, 2507.00
1803, 2508.00
1804, 2505.00
1805, 2506.00
1806, 2503.00
1807, 2505.00
1808, 2502.00
1809, 2504.00
1810, 2503.00
1811, 2501.00
1812, 2502.00
1813, 2501.00
1814, 2499.00
1815, 2498.00
1816, 2499.00
1817, 2498.00
1818, 2497.00
1819, 2495.00
1820, 2494.00
1821, 2490.00
1822, 2493.00
1823, 2490.00
1824, 2490.00
1825, 2487.00
1826, 2485.00
1827, 2485.00
1828, 2482.00
1829, 2481.00
1830, 2479.00
1831, 2479.00
1832, 2476.00
1833, 2473.00
1834, 2471.00
1835, 2469.00
1836, 2468.00
1837, 2465.00
1838, 2464.00
1839, 2461.00
1840, 2459.00
1841, 2456.00
1842, 2455.00
1843, 2451.00
1844, 2449.00
1845, 2445.00
1846, 2442.00
1847, 2439.00
1848, 2441.00
1849, 2435.00
1850, 2431.00
1851, 2430.00
1852, 2428.00
1853, 2425.00
1854, 2422.00
1855, 2421.00
1856, 2416.00
1857, 2416.00
1858, 2412.00
1859, 2413.00
1860, 2410.00
1861, 2408.00
1862, 2403.00
1863, 2401.00
1864, 2399.00
1865, 2397.00
1866, 2396.00
1867, 2395.00
1868, 2392.00
1869, 2392.00
1870, 2387.00
1871, 2388.00
1872, 2385.00
1873, 2386.00
1874, 2384.00
1875, 2381.00
1876, 2381.00
1877, 2379.00
1878, 2380.00
1879, 2377.00
1880, 2378.00
1881, 2376.00
1882, 2374.00
1883, 2373.00
1884, 2376.00
1885, 2374.00
1886, 2374.00
1887, 2370.00
1888, 2371.00
1889, 2370.00
1890, 2370.00
1891, 2368.00
1892, 2369.00
1893, 2369.00
1894, 2368.00
1895, 2365.00
1896, 2368.00
1897, 2364.00
1898, 2366.00
1899, 2365.00
1900, 2365.00
1901, 2367.00
1902, 2362.00
1903, 2364.00
1904, 2363.00
1905, 2364.00
1906, 2364.00
1907, 2362.00
1908, 2361.00
1909, 2360.00
1910, 2361.00
1911, 2361.00
1912, 2360.00
1913, 2361.00
1914, 2360.00
1915, 2360.00
1916, 2359.00
1917, 2359.00
1918, 2360.00
1919, 2359.00
1920, 2359.00
1921, 2360.00
1922, 2359.00
1923, 2361.00
1924, 2359.00
1925, 2359.00
1926, 2358.00
1927, 2359.00
1928, 2359.00
1929, 2360.00
1930, 2359.00
1931, 2359.00
1932, 2361.00
1933, 2360.00
1934, 2358.00
1935, 2361.00
1936, 2360.00
1937, 2360.00
1938, 2359.00
1939, 2360.00
1940, 2360.00
1941, 2360.00
1942, 2361.00
1943, 2360.00
1944, 2359.00
1945, 2361.00
1946, 2361.00
1947, 2361.00
1948, 2361.00
1949, 2363.00
1950, 2362.00
1951, 2364.00
1952, 2363.00
1953, 2363.00
1954, 2364.00
1955, 2364.00
1956, 2365.00
1957, 2365.00
1958, 2366.00
1959, 2366.00
1960, 2366.00
1961, 2368.00
1962, 2369.00
1963, 2367.00
1964, 2368.00
1965, 2368.00
1966, 2370.00
1967, 2370.00
1968, 2369.00
1969, 2371.00
1970, 2370.00
1971, 2372.00
1972, 2372.00
1973, 2373.00
1974, 2373.00
1975, 2374.00
1976, 2373.00
1977, 2374.00
1978, 2376.00
1979, 2376.00
1980, 2377.00
1981, 2378.00
1982, 2377.00
1983, 2380.00
1984, 2378.00
1985, 2381.00
1986, 2381.00
1987, 2382.00
1988, 2382.00
1989, 2382.00
1990, 2382.00
1991, 2383.00
1992, 2384.00
1993, 2384.00
1994, 2385.00
1995, 2384.00
1996, 2386.00
1997, 2387.00
1998, 2386.00
1999, 2388.00
2000, 2390.00
2001, 2391.00
2002, 2390.00
2003, 2390.00
2004, 2390.00
2005, 2391.00
2006, 2393.00
2007, 2392.00
2008, 2392.00
2009, 2394.00
2010, 2395.00
2011, 2395.00
2012, 2397.00
2013, 2395.00
2014, 2397.00
2015, 2400.00
2016, 2396.00
2017, 2399.00
2018, 2399.00
2019, 2401.00
2020, 2402.00
2021, 2403.00
2022, 2403.00
2023, 2403.00
2024, 2403.00
2025, 2404.00
2026, 2406.00
2027, 2406.00
2028, 2408.00
2029, 2407.00
2030, 2407.00
2031, 2406.00
2032, 2408.00
2033, 2412.00
2034, 2411.00
2035, 2411.00
2036, 2411.00
2037, 2412.00
2038, 2413.00
2039, 2415.00
2040, 2416.00
2041, 2415.00
2042, 2416.00
2043, 2416.00
2044, 2420.00
2045, 2419.00
2046, 2419.00
2047, 2422.00
2048, 2422.00
2049, 2423.00
2050, 2422.00
2051, 2425.00
2052, 2426.00
2053, 2427.00
2054, 2427.00
2055, 2429.00
2056, 2429.00
2057, 2431.00
2058, 2431.00
2059, 2432.00
2060, 2433.00
2061, 2434.00
2062, 2436.00
2063, 2439.00
2064, 2438.00
2065, 2439.00
2066, 2439.00
2067, 2441.00
2068, 2441.00
2069, 2442.00
2070, 2443.00
2071, 2444.00
2072, 2444.00
2073, 2446.00
2074, 2445.00
2075, 2448.00
2076, 2447.00
2077, 2448.00
2078, 2450.00
2079, 2452.00
2080, 2453.00
2081, 2451.00
2082, 2454.00
2083, 2453.00
2084, 2455.00
2085, 2457.00
2086, 2455.00
2087, 2458.00
2088, 2459.00
2089, 2459.00
2090, 2459.00
2091, 2460.00
2092, 2462.00
2093, 2461.00
2094, 2461.00
2095, 2463.00
2096, 2464.00
2097, 2465.00
2098, 2465.00
2099, 2465.00
2100, 2464.00
2101, 2467.00
2102, 2469.00
2103, 2467.00
2104, 2469.00
2105, 2469.00
2106, 2469.00
2107, 2469.00
2108, 2469.00
2109, 2471.00
2110, 2472.00
2111, 2472.00
2112, 2471.00
2113, 2473.00
2114, 2472.00
2115, 2475.00
2116, 2472.00
2117, 2475.00
2118, 2474.00
2119, 2475.00
2120, 2476.00
2121, 2476.00
2122, 2475.00
2123, 2477.00
2124, 2478.00
2125, 2479.00
2126, 2479.00
2127, 2478.00
2128, 2480.00
2129, 2479.00
2130, 2479.00
2131, 2479.00
2132, 2482.00
2133, 2482.00
2134, 2480.00
2135, 2481.00
2136, 2484.00
2137, 2483.00
2138, 2483.00
2139, 2484.00
2140, 2483.00
2141, 2483.00
2142, 2484.00
2143, 2484.00
2144, 2486.00
2145, 2487.00
2146, 2486.00
2147, 2486.00
2148, 2486.00
2149, 2488.00
2150, 2489.00
