FW version: 24
Log Version: 3.0.3

General Info:
       Command/Macro Performed,            Timestamp,             Device ID, COM Port, UART/I2C, Test Name, Host Major, Host Minor, Host Revision, Host Git Commit
            Single_measurement,  2023_07_18_11_06_56,       Insight2_F4_xxx,    USB-C,      USB,          ,          0,          1,             1,      4031237645

Show Spectrometer Status:
l0_version, f4_version, battery_perc, battery_mVolt, accelerometer_temp, accelerometer_x, accelerometer_y, accelerometer_z, compass_temp, compass_x, compass_y, compass_z, lamp_0, lamp_1, gain_0, gain_1
        17,         24,           74,          1992,               6352,           65208,            1260,           18912,            0,     65466,     65279,     18935,   3276,   3276,      1,      1

Temperature Statistic Info:
NTC AVG [°C], NTC2 AVG [°C]
      39.704,        39.352

Statistic Info:
M1:  num,      min,      max,   median,      AVG,      STD,M2:  num,      min,      max,   median,      AVG,      STD
     301,  2266.00,  2624.00,  2338.00,  2383.94, 111.2189,     401,  2924.00,  3138.00,  3009.00,  3016.18,  69.0687,

Measurements:
Wavelength, Data Amplitude
1350, 2336.00
1351, 2337.00
1352, 2334.00
1353, 2332.00
1354, 2332.00
1355, 2330.00
1356, 2330.00
1357, 2327.00
1358, 2326.00
1359, 2325.00
1360, 2322.00
1361, 2321.00
1362, 2320.00
1363, 2317.00
1364, 2316.00
1365, 2314.00
1366, 2313.00
1367, 2309.00
1368, 2308.00
1369, 2306.00
1370, 2303.00
1371, 2302.00
1372, 2299.00
1373, 2298.00
1374, 2298.00
1375, 2295.00
1376, 2293.00
1377, 2291.00
1378, 2289.00
1379, 2289.00
1380, 2287.00
1381, 2286.00
1382, 2286.00
1383, 2285.00
1384, 2283.00
1385, 2281.00
1386, 2280.00
1387, 2279.00
1388, 2279.00
1389, 2279.00
1390, 2277.00
1391, 2277.00
1392, 2276.00
1393, 2276.00
1394, 2274.00
1395, 2274.00
1396, 2273.00
1397, 2273.00
1398, 2275.00
1399, 2271.00
1400, 2272.00
1401, 2272.00
1402, 2271.00
1403, 2270.00
1404, 2271.00
1405, 2270.00
1406, 2269.00
1407, 2269.00
1408, 2269.00
1409, 2268.00
1410, 2270.00
1411, 2268.00
1412, 2269.00
1413, 2267.00
1414, 2266.00
1415, 2267.00
1416, 2268.00
1417, 2267.00
1418, 2268.00
1419, 2267.00
1420, 2267.00
1421, 2268.00
1422, 2268.00
1423, 2268.00
1424, 2268.00
1425, 2267.00
1426, 2268.00
1427, 2268.00
1428, 2268.00
1429, 2268.00
1430, 2269.00
1431, 2268.00
1432, 2269.00
1433, 2270.00
1434, 2271.00
1435, 2271.00
1436, 2271.00
1437, 2271.00
1438, 2271.00
1439, 2272.00
1440, 2273.00
1441, 2274.00
1442, 2273.00
1443, 2275.00
1444, 2275.00
1445, 2276.00
1446, 2276.00
1447, 2276.00
1448, 2277.00
1449, 2278.00
1450, 2279.00
1451, 2281.00
1452, 2281.00
1453, 2282.00
1454, 2283.00
1455, 2283.00
1456, 2283.00
1457, 2285.00
1458, 2285.00
1459, 2286.00
1460, 2287.00
1461, 2289.00
1462, 2289.00
1463, 2289.00
1464, 2291.00
1465, 2292.00
1466, 2293.00
1467, 2292.00
1468, 2294.00
1469, 2296.00
1470, 2296.00
1471, 2297.00
1472, 2299.00
1473, 2301.00
1474, 2301.00
1475, 2303.00
1476, 2305.00
1477, 2305.00
1478, 2306.00
1479, 2309.00
1480, 2310.00
1481, 2311.00
1482, 2312.00
1483, 2313.00
1484, 2316.00
1485, 2316.00
1486, 2319.00
1487, 2319.00
1488, 2322.00
1489, 2323.00
1490, 2324.00
1491, 2326.00
1492, 2326.00
1493, 2328.00
1494, 2330.00
1495, 2331.00
1496, 2332.00
1497, 2332.00
1498, 2335.00
1499, 2337.00
1500, 2338.00
1501, 2340.00
1502, 2342.00
1503, 2342.00
1504, 2345.00
1505, 2346.00
1506, 2348.00
1507, 2348.00
1508, 2351.00
1509, 2351.00
1510, 2353.00
1511, 2355.00
1512, 2358.00
1513, 2358.00
1514, 2359.00
1515, 2361.00
1516, 2363.00
1517, 2363.00
1518, 2366.00
1519, 2369.00
1520, 2369.00
1521, 2371.00
1522, 2373.00
1523, 2376.00
1524, 2377.00
1525, 2379.00
1526, 2380.00
1527, 2383.00
1528, 2384.00
1529, 2386.00
1530, 2387.00
1531, 2389.00
1532, 2392.00
1533, 2393.00
1534, 2394.00
1535, 2396.00
1536, 2398.00
1537, 2400.00
1538, 2402.00
1539, 2404.00
1540, 2405.00
1541, 2408.00
1542, 2409.00
1543, 2411.00
1544, 2413.00
1545, 2415.00
1546, 2417.00
1547, 2419.00
1548, 2421.00
1549, 2423.00
1550, 2425.00
1551, 2426.00
1552, 2429.00
1553, 2430.00
1554, 2431.00
1555, 2434.00
1556, 2436.00
1557, 2438.00
1558, 2441.00
1559, 2443.00
1560, 2444.00
1561, 2446.00
1562, 2449.00
1563, 2451.00
1564, 2453.00
1565, 2455.00
1566, 2457.00
1567, 2459.00
1568, 2461.00
1569, 2463.00
1570, 2465.00
1571, 2468.00
1572, 2470.00
1573, 2471.00
1574, 2473.00
1575, 2475.00
1576, 2477.00
1577, 2480.00
1578, 2482.00
1579, 2483.00
1580, 2486.00
1581, 2487.00
1582, 2488.00
1583, 2490.00
1584, 2493.00
1585, 2495.00
1586, 2495.00
1587, 2497.00
1588, 2499.00
1589, 2501.00
1590, 2503.00
1591, 2505.00
1592, 2507.00
1593, 2508.00
1594, 2509.00
1595, 2513.00
1596, 2513.00
1597, 2515.00
1598, 2518.00
1599, 2519.00
1600, 2521.00
1601, 2523.00
1602, 2524.00
1603, 2527.00
1604, 2528.00
1605, 2531.00
1606, 2534.00
1607, 2535.00
1608, 2537.00
1609, 2538.00
1610, 2542.00
1611, 2544.00
1612, 2546.00
1613, 2548.00
1614, 2551.00
1615, 2553.00
1616, 2555.00
1617, 2558.00
1618, 2559.00
1619, 2561.00
1620, 2564.00
1621, 2567.00
1622, 2568.00
1623, 2571.00
1624, 2573.00
1625, 2576.00
1626, 2578.00
1627, 2579.00
1628, 2582.00
1629, 2583.00
1630, 2586.00
1631, 2588.00
1632, 2590.00
1633, 2592.00
1634, 2594.00
1635, 2596.00
1636, 2598.00
1637, 2600.00
1638, 2601.00
1639, 2604.00
1640, 2606.00
1641, 2608.00
1642, 2609.00
1643, 2611.00
1644, 2612.00
1645, 2614.00
1646, 2615.00
1647, 2617.00
1648, 2620.00
1649, 2621.00
1650, 2624.00

1750, 3138.00
1751, 3137.00
1752, 3137.00
1753, 3135.00
1754, 3136.00
1755, 3136.00
1756, 3136.00
1757, 3138.00
1758, 3137.00
1759, 3136.00
1760, 3136.00
1761, 3136.00
1762, 3134.00
1763, 3135.00
1764, 3134.00
1765, 3132.00
1766, 3132.00
1767, 3135.00
1768, 3131.00
1769, 3130.00
1770, 3133.00
1771, 3130.00
1772, 3131.00
1773, 3133.00
1774, 3130.00
1775, 3132.00
1776, 3127.00
1777, 3129.00
1778, 3127.00
1779, 3127.00
1780, 3126.00
1781, 3125.00
1782, 3124.00
1783, 3125.00
1784, 3123.00
1785, 3122.00
1786, 3121.00
1787, 3123.00
1788, 3120.00
1789, 3120.00
1790, 3120.00
1791, 3117.00
1792, 3119.00
1793, 3115.00
1794, 3117.00
1795, 3115.00
1796, 3114.00
1797, 3112.00
1798, 3113.00
1799, 3114.00
1800, 3112.00
1801, 3110.00
1802, 3113.00
1803, 3109.00
1804, 3107.00
1805, 3108.00
1806, 3108.00
1807, 3107.00
1808, 3106.00
1809, 3107.00
1810, 3103.00
1811, 3101.00
1812, 3101.00
1813, 3100.00
1814, 3102.00
1815, 3102.00
1816, 3098.00
1817, 3097.00
1818, 3096.00
1819, 3095.00
1820, 3093.00
1821, 3093.00
1822, 3091.00
1823, 3088.00
1824, 3089.00
1825, 3087.00
1826, 3085.00
1827, 3081.00
1828, 3080.00
1829, 3077.00
1830, 3078.00
1831, 3075.00
1832, 3070.00
1833, 3069.00
1834, 3066.00
1835, 3062.00
1836, 3061.00
1837, 3059.00
1838, 3056.00
1839, 3054.00
1840, 3051.00
1841, 3049.00
1842, 3043.00
1843, 3041.00
1844, 3038.00
1845, 3036.00
1846, 3028.00
1847, 3028.00
1848, 3023.00
1849, 3021.00
1850, 3017.00
1851, 3013.00
1852, 3014.00
1853, 3009.00
1854, 3005.00
1855, 3002.00
1856, 2998.00
1857, 2999.00
1858, 2989.00
1859, 2991.00
1860, 2987.00
1861, 2985.00
1862, 2980.00
1863, 2978.00
1864, 2977.00
1865, 2973.00
1866, 2971.00
1867, 2969.00
1868, 2967.00
1869, 2967.00
1870, 2963.00
1871, 2963.00
1872, 2959.00
1873, 2959.00
1874, 2956.00
1875, 2955.00
1876, 2955.00
1877, 2951.00
1878, 2951.00
1879, 2950.00
1880, 2948.00
1881, 2948.00
1882, 2948.00
1883, 2944.00
1884, 2946.00
1885, 2945.00
1886, 2942.00
1887, 2943.00
1888, 2942.00
1889, 2939.00
1890, 2940.00
1891, 2938.00
1892, 2939.00
1893, 2936.00
1894, 2936.00
1895, 2937.00
1896, 2936.00
1897, 2934.00
1898, 2934.00
1899, 2936.00
1900, 2933.00
1901, 2931.00
1902, 2932.00
1903, 2931.00
1904, 2932.00
1905, 2931.00
1906, 2930.00
1907, 2930.00
1908, 2931.00
1909, 2930.00
1910, 2928.00
1911, 2929.00
1912, 2929.00
1913, 2929.00
1914, 2927.00
1915, 2928.00
1916, 2929.00
1917, 2929.00
1918, 2927.00
1919, 2927.00
1920, 2927.00
1921, 2924.00
1922, 2927.00
1923, 2926.00
1924, 2927.00
1925, 2926.00
1926, 2926.00
1927, 2927.00
1928, 2927.00
1929, 2927.00
1930, 2927.00
1931, 2928.00
1932, 2927.00
1933, 2927.00
1934, 2927.00
1935, 2928.00
1936, 2927.00
1937, 2928.00
1938, 2927.00
1939, 2929.00
1940, 2927.00
1941, 2931.00
1942, 2929.00
1943, 2929.00
1944, 2929.00
1945, 2930.00
1946, 2930.00
1947, 2928.00
1948, 2930.00
1949, 2930.00
1950, 2930.00
1951, 2932.00
1952, 2932.00
1953, 2929.00
1954, 2933.00
1955, 2934.00
1956, 2934.00
1957, 2934.00
1958, 2935.00
1959, 2936.00
1960, 2936.00
1961, 2935.00
1962, 2936.00
1963, 2939.00
1964, 2939.00
1965, 2939.00
1966, 2940.00
1967, 2940.00
1968, 2941.00
1969, 2942.00
1970, 2941.00
1971, 2943.00
1972, 2945.00
1973, 2943.00
1974, 2944.00
1975, 2946.00
1976, 2945.00
1977, 2948.00
1978, 2947.00
1979, 2949.00
1980, 2949.00
1981, 2948.00
1982, 2949.00
1983, 2951.00
1984, 2952.00
1985, 2951.00
1986, 2954.00
1987, 2954.00
1988, 2953.00
1989, 2954.00
1990, 2955.00
1991, 2960.00
1992, 2959.00
1993, 2956.00
1994, 2961.00
1995, 2959.00
1996, 2959.00
1997, 2961.00
1998, 2962.00
1999, 2963.00
2000, 2964.00
2001, 2965.00
2002, 2965.00
2003, 2965.00
2004, 2966.00
2005, 2967.00
2006, 2968.00
2007, 2967.00
2008, 2969.00
2009, 2971.00
2010, 2970.00
2011, 2972.00
2012, 2972.00
2013, 2973.00
2014, 2975.00
2015, 2975.00
2016, 2975.00
2017, 2975.00
2018, 2977.00
2019, 2977.00
2020, 2978.00
2021, 2978.00
2022, 2979.00
2023, 2981.00
2024, 2981.00
2025, 2981.00
2026, 2982.00
2027, 2986.00
2028, 2983.00
2029, 2987.00
2030, 2987.00
2031, 2988.00
2032, 2989.00
2033, 2987.00
2034, 2989.00
2035, 2990.00
2036, 2992.00
2037, 2991.00
2038, 2992.00
2039, 2994.00
2040, 2996.00
2041, 2996.00
2042, 2997.00
2043, 2999.00
2044, 2999.00
2045, 2998.00
2046, 2998.00
2047, 2999.00
2048, 3004.00
2049, 3002.00
2050, 3006.00
2051, 3006.00
2052, 3007.00
2053, 3007.00
2054, 3010.00
2055, 3010.00
2056, 3013.00
2057, 3011.00
2058, 3012.00
2059, 3016.00
2060, 3016.00
2061, 3017.00
2062, 3019.00
2063, 3020.00
2064, 3022.00
2065, 3023.00
2066, 3022.00
2067, 3027.00
2068, 3026.00
2069, 3026.00
2070, 3028.00
2071, 3029.00
2072, 3029.00
2073, 3032.00
2074, 3033.00
2075, 3033.00
2076, 3033.00
2077, 3033.00
2078, 3037.00
2079, 3038.00
2080, 3041.00
2081, 3039.00
2082, 3039.00
2083, 3042.00
2084, 3042.00
2085, 3043.00
2086, 3045.00
2087, 3047.00
2088, 3047.00
2089, 3047.00
2090, 3050.00
2091, 3051.00
2092, 3049.00
2093, 3050.00
2094, 3052.00
2095, 3053.00
2096, 3054.00
2097, 3054.00
2098, 3054.00
2099, 3056.00
2100, 3057.00
2101, 3056.00
2102, 3060.00
2103, 3057.00
2104, 3059.00
2105, 3059.00
2106, 3062.00
2107, 3060.00
2108, 3063.00
2109, 3061.00
2110, 3062.00
2111, 3062.00
2112, 3063.00
2113, 3064.00
2114, 3066.00
2115, 3063.00
2116, 3065.00
2117, 3066.00
2118, 3066.00
2119, 3068.00
2120, 3067.00
2121, 3068.00
2122, 3070.00
2123, 3068.00
2124, 3070.00
2125, 3070.00
2126, 3071.00
2127, 3071.00
2128, 3071.00
2129, 3073.00
2130, 3073.00
2131, 3073.00
2132, 3075.00
2133, 3074.00
2134, 3075.00
2135, 3076.00
2136, 3076.00
2137, 3077.00
2138, 3077.00
2139, 3079.00
2140, 3078.00
2141, 3077.00
2142, 3079.00
2143, 3079.00
2144, 3082.00
2145, 3079.00
2146, 3082.00
2147, 3082.00
2148, 3080.00
2149, 3082.00
2150, 3084.00
