FW version: 24
Log Version: 3.0.3

General Info:
       Command/Macro Performed,            Timestamp,             Device ID, COM Port, UART/I2C, Test Name, Host Major, Host Minor, Host Revision, Host Git Commit
            Single_measurement,  2023_07_18_11_06_32,       Insight2_F4_xxx,    USB-C,      USB,          ,          0,          1,             1,      4031237645

Show Spectrometer Status:
l0_version, f4_version, battery_perc, battery_mVolt, accelerometer_temp, accelerometer_x, accelerometer_y, accelerometer_z, compass_temp, compass_x, compass_y, compass_z, lamp_0, lamp_1, gain_0, gain_1
        17,         24,           74,          1992,               6320,           65236,            1260,           18868,            0,     65493,     65279,     18935,   2866,   2866,      1,      1

Temperature Statistic Info:
NTC AVG [°C], NTC2 AVG [°C]
      39.529,        39.234

Statistic Info:
M1:  num,      min,      max,   median,      AVG,      STD,M2:  num,      min,      max,   median,      AVG,      STD
     301,  1763.00,  2052.00,  1821.00,  1858.04,  89.6950,     401,  2358.00,  2529.00,  2427.00,  2432.24,  55.9764,

Measurements:
Wavelength, Data Amplitude
1350, 1818.00
1351, 1817.00
1352, 1816.00
1353, 1813.00
1354, 1812.00
1355, 1812.00
1356, 1811.00
1357, 1809.00
1358, 1809.00
1359, 1808.00
1360, 1807.00
1361, 1805.00
1362, 1804.00
1363, 1802.00
1364, 1800.00
1365, 1800.00
1366, 1798.00
1367, 1796.00
1368, 1795.00
1369, 1793.00
1370, 1791.00
1371, 1791.00
1372, 1790.00
1373, 1788.00
1374, 1788.00
1375, 1786.00
1376, 1784.00
1377, 1783.00
1378, 1781.00
1379, 1781.00
1380, 1779.00
1381, 1779.00
1382, 1777.00
1383, 1777.00
1384, 1776.00
1385, 1775.00
1386, 1774.00
1387, 1773.00
1388, 1772.00
1389, 1773.00
1390, 1773.00
1391, 1770.00
1392, 1771.00
1393, 1771.00
1394, 1769.00
1395, 1768.00
1396, 1770.00
1397, 1768.00
1398, 1769.00
1399, 1768.00
1400, 1768.00
1401, 1767.00
1402, 1767.00
1403, 1766.00
1404, 1767.00
1405, 1767.00
1406, 1767.00
1407, 1767.00
1408, 1766.00
1409, 1765.00
1410, 1766.00
1411, 1765.00
1412, 1765.00
1413, 1764.00
1414, 1765.00
1415, 1765.00
1416, 1763.00
1417, 1765.00
1418, 1765.00
1419, 1764.00
1420, 1764.00
1421, 1765.00
1422, 1765.00
1423, 1765.00
1424, 1764.00
1425, 1764.00
1426, 1765.00
1427, 1765.00
1428, 1766.00
1429, 1765.00
1430, 1766.00
1431, 1767.00
1432, 1767.00
1433, 1767.00
1434, 1768.00
1435, 1767.00
1436, 1768.00
1437, 1767.00
1438, 1768.00
1439, 1769.00
1440, 1768.00
1441, 1770.00
1442, 1771.00
1443, 1770.00
1444, 1771.00
1445, 1772.00
1446, 1773.00
1447, 1772.00
1448, 1773.00
1449, 1773.00
1450, 1774.00
1451, 1775.00
1452, 1775.00
1453, 1776.00
1454, 1775.00
1455, 1777.00
1456, 1778.00
1457, 1778.00
1458, 1779.00
1459, 1780.00
1460, 1780.00
1461, 1780.00
1462, 1783.00
1463, 1783.00
1464, 1783.00
1465, 1785.00
1466, 1784.00
1467, 1785.00
1468, 1787.00
1469, 1787.00
1470, 1788.00
1471, 1789.00
1472, 1790.00
1473, 1791.00
1474, 1792.00
1475, 1794.00
1476, 1794.00
1477, 1795.00
1478, 1797.00
1479, 1797.00
1480, 1799.00
1481, 1799.00
1482, 1800.00
1483, 1802.00
1484, 1802.00
1485, 1803.00
1486, 1804.00
1487, 1806.00
1488, 1807.00
1489, 1809.00
1490, 1811.00
1491, 1811.00
1492, 1811.00
1493, 1813.00
1494, 1814.00
1495, 1816.00
1496, 1817.00
1497, 1818.00
1498, 1819.00
1499, 1820.00
1500, 1821.00
1501, 1823.00
1502, 1824.00
1503, 1826.00
1504, 1827.00
1505, 1827.00
1506, 1829.00
1507, 1830.00
1508, 1831.00
1509, 1832.00
1510, 1834.00
1511, 1835.00
1512, 1837.00
1513, 1837.00
1514, 1839.00
1515, 1840.00
1516, 1842.00
1517, 1843.00
1518, 1844.00
1519, 1844.00
1520, 1847.00
1521, 1849.00
1522, 1850.00
1523, 1851.00
1524, 1852.00
1525, 1854.00
1526, 1856.00
1527, 1856.00
1528, 1858.00
1529, 1859.00
1530, 1862.00
1531, 1863.00
1532, 1863.00
1533, 1867.00
1534, 1867.00
1535, 1869.00
1536, 1869.00
1537, 1872.00
1538, 1872.00
1539, 1875.00
1540, 1877.00
1541, 1877.00
1542, 1879.00
1543, 1881.00
1544, 1882.00
1545, 1884.00
1546, 1885.00
1547, 1887.00
1548, 1888.00
1549, 1890.00
1550, 1892.00
1551, 1893.00
1552, 1894.00
1553, 1895.00
1554, 1898.00
1555, 1899.00
1556, 1900.00
1557, 1902.00
1558, 1904.00
1559, 1906.00
1560, 1906.00
1561, 1908.00
1562, 1911.00
1563, 1912.00
1564, 1914.00
1565, 1915.00
1566, 1917.00
1567, 1919.00
1568, 1919.00
1569, 1922.00
1570, 1923.00
1571, 1926.00
1572, 1927.00
1573, 1929.00
1574, 1930.00
1575, 1931.00
1576, 1933.00
1577, 1935.00
1578, 1935.00
1579, 1937.00
1580, 1939.00
1581, 1941.00
1582, 1943.00
1583, 1944.00
1584, 1945.00
1585, 1946.00
1586, 1948.00
1587, 1950.00
1588, 1950.00
1589, 1952.00
1590, 1954.00
1591, 1955.00
1592, 1956.00
1593, 1956.00
1594, 1960.00
1595, 1961.00
1596, 1962.00
1597, 1964.00
1598, 1966.00
1599, 1966.00
1600, 1969.00
1601, 1971.00
1602, 1972.00
1603, 1973.00
1604, 1975.00
1605, 1975.00
1606, 1979.00
1607, 1979.00
1608, 1982.00
1609, 1983.00
1610, 1983.00
1611, 1986.00
1612, 1989.00
1613, 1991.00
1614, 1992.00
1615, 1994.00
1616, 1996.00
1617, 1998.00
1618, 2000.00
1619, 2002.00
1620, 2004.00
1621, 2005.00
1622, 2007.00
1623, 2008.00
1624, 2010.00
1625, 2012.00
1626, 2013.00
1627, 2015.00
1628, 2018.00
1629, 2020.00
1630, 2021.00
1631, 2022.00
1632, 2025.00
1633, 2025.00
1634, 2027.00
1635, 2029.00
1636, 2031.00
1637, 2033.00
1638, 2034.00
1639, 2035.00
1640, 2037.00
1641, 2039.00
1642, 2040.00
1643, 2041.00
1644, 2043.00
1645, 2044.00
1646, 2045.00
1647, 2048.00
1648, 2050.00
1649, 2051.00
1650, 2052.00

1750, 2526.00
1751, 2529.00
1752, 2528.00
1753, 2527.00
1754, 2529.00
1755, 2528.00
1756, 2529.00
1757, 2527.00
1758, 2527.00
1759, 2527.00
1760, 2527.00
1761, 2528.00
1762, 2527.00
1763, 2526.00
1764, 2526.00
1765, 2525.00
1766, 2527.00
1767, 2526.00
1768, 2525.00
1769, 2525.00
1770, 2526.00
1771, 2523.00
1772, 2523.00
1773, 2523.00
1774, 2526.00
1775, 2524.00
1776, 2521.00
1777, 2521.00
1778, 2521.00
1779, 2521.00
1780, 2519.00
1781, 2521.00
1782, 2519.00
1783, 2516.00
1784, 2517.00
1785, 2517.00
1786, 2517.00
1787, 2515.00
1788, 2516.00
1789, 2517.00
1790, 2515.00
1791, 2512.00
1792, 2513.00
1793, 2511.00
1794, 2514.00
1795, 2511.00
1796, 2511.00
1797, 2510.00
1798, 2511.00
1799, 2509.00
1800, 2509.00
1801, 2507.00
1802, 2508.00
1803, 2507.00
1804, 2506.00
1805, 2505.00
1806, 2507.00
1807, 2506.00
1808, 2505.00
1809, 2503.00
1810, 2503.00
1811, 2502.00
1812, 2502.00
1813, 2499.00
1814, 2500.00
1815, 2500.00
1816, 2497.00
1817, 2498.00
1818, 2499.00
1819, 2494.00
1820, 2495.00
1821, 2494.00
1822, 2492.00
1823, 2491.00
1824, 2489.00
1825, 2488.00
1826, 2485.00
1827, 2485.00
1828, 2483.00
1829, 2482.00
1830, 2479.00
1831, 2479.00
1832, 2476.00
1833, 2473.00
1834, 2472.00
1835, 2472.00
1836, 2467.00
1837, 2466.00
1838, 2464.00
1839, 2463.00
1840, 2459.00
1841, 2458.00
1842, 2454.00
1843, 2451.00
1844, 2449.00
1845, 2446.00
1846, 2443.00
1847, 2441.00
1848, 2441.00
1849, 2437.00
1850, 2431.00
1851, 2431.00
1852, 2427.00
1853, 2427.00
1854, 2423.00
1855, 2420.00
1856, 2417.00
1857, 2416.00
1858, 2413.00
1859, 2411.00
1860, 2408.00
1861, 2407.00
1862, 2403.00
1863, 2402.00
1864, 2399.00
1865, 2396.00
1866, 2396.00
1867, 2394.00
1868, 2393.00
1869, 2391.00
1870, 2389.00
1871, 2388.00
1872, 2387.00
1873, 2384.00
1874, 2384.00
1875, 2383.00
1876, 2383.00
1877, 2381.00
1878, 2380.00
1879, 2379.00
1880, 2378.00
1881, 2376.00
1882, 2375.00
1883, 2376.00
1884, 2372.00
1885, 2373.00
1886, 2372.00
1887, 2371.00
1888, 2370.00
1889, 2371.00
1890, 2370.00
1891, 2369.00
1892, 2370.00
1893, 2367.00
1894, 2368.00
1895, 2366.00
1896, 2366.00
1897, 2366.00
1898, 2365.00
1899, 2366.00
1900, 2364.00
1901, 2364.00
1902, 2363.00
1903, 2364.00
1904, 2363.00
1905, 2363.00
1906, 2362.00
1907, 2363.00
1908, 2362.00
1909, 2363.00
1910, 2361.00
1911, 2360.00
1912, 2362.00
1913, 2360.00
1914, 2360.00
1915, 2361.00
1916, 2361.00
1917, 2360.00
1918, 2358.00
1919, 2359.00
1920, 2360.00
1921, 2361.00
1922, 2359.00
1923, 2359.00
1924, 2360.00
1925, 2358.00
1926, 2361.00
1927, 2360.00
1928, 2359.00
1929, 2359.00
1930, 2358.00
1931, 2359.00
1932, 2360.00
1933, 2361.00
1934, 2360.00
1935, 2358.00
1936, 2360.00
1937, 2359.00
1938, 2361.00
1939, 2359.00
1940, 2361.00
1941, 2361.00
1942, 2361.00
1943, 2359.00
1944, 2361.00
1945, 2362.00
1946, 2362.00
1947, 2361.00
1948, 2362.00
1949, 2361.00
1950, 2363.00
1951, 2363.00
1952, 2365.00
1953, 2362.00
1954, 2361.00
1955, 2364.00
1956, 2366.00
1957, 2366.00
1958, 2369.00
1959, 2365.00
1960, 2368.00
1961, 2365.00
1962, 2367.00
1963, 2369.00
1964, 2370.00
1965, 2369.00
1966, 2369.00
1967, 2370.00
1968, 2372.00
1969, 2371.00
1970, 2370.00
1971, 2373.00
1972, 2373.00
1973, 2372.00
1974, 2375.00
1975, 2377.00
1976, 2375.00
1977, 2376.00
1978, 2375.00
1979, 2375.00
1980, 2377.00
1981, 2378.00
1982, 2379.00
1983, 2377.00
1984, 2379.00
1985, 2380.00
1986, 2381.00
1987, 2383.00
1988, 2383.00
1989, 2382.00
1990, 2384.00
1991, 2384.00
1992, 2385.00
1993, 2386.00
1994, 2385.00
1995, 2387.00
1996, 2385.00
1997, 2388.00
1998, 2388.00
1999, 2390.00
2000, 2388.00
2001, 2389.00
2002, 2388.00
2003, 2392.00
2004, 2391.00
2005, 2391.00
2006, 2392.00
2007, 2393.00
2008, 2393.00
2009, 2394.00
2010, 2396.00
2011, 2398.00
2012, 2398.00
2013, 2396.00
2014, 2397.00
2015, 2400.00
2016, 2399.00
2017, 2400.00
2018, 2401.00
2019, 2403.00
2020, 2402.00
2021, 2403.00
2022, 2402.00
2023, 2400.00
2024, 2404.00
2025, 2405.00
2026, 2405.00
2027, 2407.00
2028, 2409.00
2029, 2407.00
2030, 2408.00
2031, 2408.00
2032, 2412.00
2033, 2410.00
2034, 2411.00
2035, 2411.00
2036, 2411.00
2037, 2413.00
2038, 2414.00
2039, 2414.00
2040, 2415.00
2041, 2416.00
2042, 2417.00
2043, 2419.00
2044, 2419.00
2045, 2420.00
2046, 2420.00
2047, 2421.00
2048, 2423.00
2049, 2423.00
2050, 2423.00
2051, 2424.00
2052, 2426.00
2053, 2427.00
2054, 2426.00
2055, 2429.00
2056, 2429.00
2057, 2431.00
2058, 2433.00
2059, 2433.00
2060, 2432.00
2061, 2433.00
2062, 2437.00
2063, 2437.00
2064, 2437.00
2065, 2438.00
2066, 2439.00
2067, 2439.00
2068, 2440.00
2069, 2442.00
2070, 2442.00
2071, 2443.00
2072, 2443.00
2073, 2445.00
2074, 2445.00
2075, 2449.00
2076, 2448.00
2077, 2450.00
2078, 2449.00
2079, 2450.00
2080, 2452.00
2081, 2453.00
2082, 2453.00
2083, 2455.00
2084, 2455.00
2085, 2455.00
2086, 2458.00
2087, 2458.00
2088, 2458.00
2089, 2457.00
2090, 2461.00
2091, 2461.00
2092, 2460.00
2093, 2463.00
2094, 2464.00
2095, 2463.00
2096, 2463.00
2097, 2464.00
2098, 2465.00
2099, 2466.00
2100, 2467.00
2101, 2465.00
2102, 2467.00
2103, 2469.00
2104, 2469.00
2105, 2469.00
2106, 2469.00
2107, 2470.00
2108, 2470.00
2109, 2472.00
2110, 2469.00
2111, 2473.00
2112, 2471.00
2113, 2473.00
2114, 2475.00
2115, 2473.00
2116, 2473.00
2117, 2473.00
2118, 2474.00
2119, 2477.00
2120, 2477.00
2121, 2476.00
2122, 2477.00
2123, 2476.00
2124, 2477.00
2125, 2478.00
2126, 2480.00
2127, 2479.00
2128, 2481.00
2129, 2479.00
2130, 2481.00
2131, 2481.00
2132, 2482.00
2133, 2482.00
2134, 2480.00
2135, 2483.00
2136, 2481.00
2137, 2484.00
2138, 2484.00
2139, 2485.00
2140, 2483.00
2141, 2485.00
2142, 2483.00
2143, 2486.00
2144, 2487.00
2145, 2486.00
2146, 2487.00
2147, 2486.00
2148, 2487.00
2149, 2488.00
2150, 2487.00
