FW version: 24
Log Version: 3.0.3

General Info:
       Command/Macro Performed,            Timestamp,             Device ID, COM Port, UART/I2C, Test Name, Host Major, Host Minor, Host Revision, Host Git Commit
            Single_measurement,  2023_07_18_11_06_51,       Insight2_F4_xxx,    USB-C,      USB,          ,          0,          1,             1,      4031237645

Show Spectrometer Status:
l0_version, f4_version, battery_perc, battery_mVolt, accelerometer_temp, accelerometer_x, accelerometer_y, accelerometer_z, compass_temp, compass_x, compass_y, compass_z, lamp_0, lamp_1, gain_0, gain_1
        17,         24,           74,          1993,               6368,           65192,            1248,           18884,            0,     65469,     65274,     18942,   3276,   3276,      1,      1

Temperature Statistic Info:
NTC AVG [°C], NTC2 AVG [°C]
      39.646,        39.382

Statistic Info:
M1:  num,      min,      max,   median,      AVG,      STD,M2:  num,      min,      max,   median,      AVG,      STD
     301,  2267.00,  2625.00,  2339.00,  2384.82, 111.2671,     401,  2924.00,  3138.00,  3009.00,  3016.78,  69.1005,

Measurements:
Wavelength, Data Amplitude
1350, 2339.00
1351, 2337.00
1352, 2336.00
1353, 2337.00
1354, 2333.00
1355, 2332.00
1356, 2331.00
1357, 2328.00
1358, 2327.00
1359, 2324.00
1360, 2323.00
1361, 2321.00
1362, 2321.00
1363, 2317.00
1364, 2316.00
1365, 2314.00
1366, 2313.00
1367, 2311.00
1368, 2309.00
1369, 2306.00
1370, 2305.00
1371, 2302.00
1372, 2301.00
1373, 2300.00
1374, 2298.00
1375, 2297.00
1376, 2294.00
1377, 2293.00
1378, 2291.00
1379, 2290.00
1380, 2290.00
1381, 2287.00
1382, 2285.00
1383, 2285.00
1384, 2284.00
1385, 2282.00
1386, 2281.00
1387, 2280.00
1388, 2280.00
1389, 2279.00
1390, 2278.00
1391, 2277.00
1392, 2278.00
1393, 2276.00
1394, 2275.00
1395, 2274.00
1396, 2275.00
1397, 2274.00
1398, 2273.00
1399, 2272.00
1400, 2272.00
1401, 2272.00
1402, 2271.00
1403, 2272.00
1404, 2272.00
1405, 2272.00
1406, 2271.00
1407, 2270.00
1408, 2270.00
1409, 2271.00
1410, 2269.00
1411, 2269.00
1412, 2269.00
1413, 2268.00
1414, 2269.00
1415, 2268.00
1416, 2268.00
1417, 2268.00
1418, 2269.00
1419, 2268.00
1420, 2267.00
1421, 2269.00
1422, 2269.00
1423, 2269.00
1424, 2268.00
1425, 2268.00
1426, 2267.00
1427, 2267.00
1428, 2270.00
1429, 2268.00
1430, 2269.00
1431, 2270.00
1432, 2271.00
1433, 2270.00
1434, 2271.00
1435, 2272.00
1436, 2272.00
1437, 2272.00
1438, 2271.00
1439, 2274.00
1440, 2274.00
1441, 2275.00
1442, 2276.00
1443, 2275.00
1444, 2277.00
1445, 2277.00
1446, 2277.00
1447, 2277.00
1448, 2279.00
1449, 2279.00
1450, 2280.00
1451, 2282.00
1452, 2281.00
1453, 2282.00
1454, 2283.00
1455, 2283.00
1456, 2284.00
1457, 2286.00
1458, 2286.00
1459, 2288.00
1460, 2287.00
1461, 2287.00
1462, 2290.00
1463, 2290.00
1464, 2293.00
1465, 2293.00
1466, 2293.00
1467, 2294.00
1468, 2295.00
1469, 2297.00
1470, 2298.00
1471, 2299.00
1472, 2301.00
1473, 2302.00
1474, 2302.00
1475, 2304.00
1476, 2305.00
1477, 2307.00
1478, 2309.00
1479, 2308.00
1480, 2310.00
1481, 2313.00
1482, 2313.00
1483, 2314.00
1484, 2316.00
1485, 2318.00
1486, 2319.00
1487, 2321.00
1488, 2321.00
1489, 2324.00
1490, 2325.00
1491, 2325.00
1492, 2327.00
1493, 2329.00
1494, 2329.00
1495, 2331.00
1496, 2333.00
1497, 2334.00
1498, 2336.00
1499, 2339.00
1500, 2339.00
1501, 2341.00
1502, 2343.00
1503, 2343.00
1504, 2345.00
1505, 2346.00
1506, 2347.00
1507, 2349.00
1508, 2351.00
1509, 2353.00
1510, 2353.00
1511, 2356.00
1512, 2357.00
1513, 2359.00
1514, 2359.00
1515, 2362.00
1516, 2364.00
1517, 2366.00
1518, 2367.00
1519, 2369.00
1520, 2371.00
1521, 2371.00
1522, 2374.00
1523, 2376.00
1524, 2378.00
1525, 2379.00
1526, 2380.00
1527, 2382.00
1528, 2384.00
1529, 2387.00
1530, 2389.00
1531, 2389.00
1532, 2392.00
1533, 2394.00
1534, 2394.00
1535, 2396.00
1536, 2399.00
1537, 2401.00
1538, 2403.00
1539, 2405.00
1540, 2407.00
1541, 2409.00
1542, 2411.00
1543, 2413.00
1544, 2413.00
1545, 2415.00
1546, 2417.00
1547, 2420.00
1548, 2422.00
1549, 2424.00
1550, 2426.00
1551, 2427.00
1552, 2428.00
1553, 2431.00
1554, 2433.00
1555, 2435.00
1556, 2437.00
1557, 2438.00
1558, 2441.00
1559, 2444.00
1560, 2444.00
1561, 2447.00
1562, 2450.00
1563, 2451.00
1564, 2453.00
1565, 2455.00
1566, 2457.00
1567, 2459.00
1568, 2463.00
1569, 2464.00
1570, 2467.00
1571, 2468.00
1572, 2471.00
1573, 2471.00
1574, 2474.00
1575, 2477.00
1576, 2477.00
1577, 2481.00
1578, 2482.00
1579, 2485.00
1580, 2485.00
1581, 2488.00
1582, 2489.00
1583, 2492.00
1584, 2493.00
1585, 2495.00
1586, 2497.00
1587, 2499.00
1588, 2501.00
1589, 2503.00
1590, 2503.00
1591, 2506.00
1592, 2507.00
1593, 2508.00
1594, 2512.00
1595, 2514.00
1596, 2514.00
1597, 2516.00
1598, 2519.00
1599, 2521.00
1600, 2523.00
1601, 2523.00
1602, 2527.00
1603, 2528.00
1604, 2530.00
1605, 2532.00
1606, 2534.00
1607, 2535.00
1608, 2539.00
1609, 2540.00
1610, 2542.00
1611, 2545.00
1612, 2548.00
1613, 2549.00
1614, 2551.00
1615, 2554.00
1616, 2556.00
1617, 2559.00
1618, 2560.00
1619, 2562.00
1620, 2564.00
1621, 2568.00
1622, 2570.00
1623, 2572.00
1624, 2574.00
1625, 2577.00
1626, 2577.00
1627, 2581.00
1628, 2583.00
1629, 2584.00
1630, 2588.00
1631, 2590.00
1632, 2591.00
1633, 2593.00
1634, 2595.00
1635, 2598.00
1636, 2600.00
1637, 2601.00
1638, 2603.00
1639, 2604.00
1640, 2606.00
1641, 2608.00
1642, 2609.00
1643, 2612.00
1644, 2613.00
1645, 2615.00
1646, 2616.00
1647, 2619.00
1648, 2620.00
1649, 2622.00
1650, 2625.00

1750, 3137.00
1751, 3136.00
1752, 3136.00
1753, 3138.00
1754, 3138.00
1755, 3136.00
1756, 3136.00
1757, 3136.00
1758, 3136.00
1759, 3138.00
1760, 3133.00
1761, 3136.00
1762, 3137.00
1763, 3134.00
1764, 3135.00
1765, 3137.00
1766, 3136.00
1767, 3134.00
1768, 3133.00
1769, 3133.00
1770, 3132.00
1771, 3132.00
1772, 3131.00
1773, 3131.00
1774, 3130.00
1775, 3128.00
1776, 3128.00
1777, 3130.00
1778, 3128.00
1779, 3128.00
1780, 3127.00
1781, 3127.00
1782, 3126.00
1783, 3127.00
1784, 3124.00
1785, 3123.00
1786, 3122.00
1787, 3122.00
1788, 3120.00
1789, 3121.00
1790, 3120.00
1791, 3119.00
1792, 3120.00
1793, 3115.00
1794, 3116.00
1795, 3116.00
1796, 3114.00
1797, 3114.00
1798, 3113.00
1799, 3113.00
1800, 3112.00
1801, 3110.00
1802, 3111.00
1803, 3111.00
1804, 3111.00
1805, 3108.00
1806, 3107.00
1807, 3106.00
1808, 3106.00
1809, 3105.00
1810, 3105.00
1811, 3103.00
1812, 3104.00
1813, 3102.00
1814, 3103.00
1815, 3101.00
1816, 3100.00
1817, 3098.00
1818, 3098.00
1819, 3095.00
1820, 3093.00
1821, 3092.00
1822, 3091.00
1823, 3089.00
1824, 3089.00
1825, 3085.00
1826, 3084.00
1827, 3084.00
1828, 3081.00
1829, 3079.00
1830, 3075.00
1831, 3075.00
1832, 3073.00
1833, 3070.00
1834, 3066.00
1835, 3064.00
1836, 3061.00
1837, 3058.00
1838, 3055.00
1839, 3051.00
1840, 3051.00
1841, 3048.00
1842, 3047.00
1843, 3042.00
1844, 3037.00
1845, 3037.00
1846, 3031.00
1847, 3027.00
1848, 3027.00
1849, 3021.00
1850, 3019.00
1851, 3017.00
1852, 3012.00
1853, 3009.00
1854, 3005.00
1855, 3003.00
1856, 2998.00
1857, 2998.00
1858, 2994.00
1859, 2990.00
1860, 2987.00
1861, 2982.00
1862, 2982.00
1863, 2979.00
1864, 2977.00
1865, 2975.00
1866, 2971.00
1867, 2971.00
1868, 2969.00
1869, 2969.00
1870, 2964.00
1871, 2963.00
1872, 2961.00
1873, 2959.00
1874, 2958.00
1875, 2956.00
1876, 2955.00
1877, 2954.00
1878, 2951.00
1879, 2951.00
1880, 2948.00
1881, 2950.00
1882, 2946.00
1883, 2948.00
1884, 2945.00
1885, 2945.00
1886, 2942.00
1887, 2943.00
1888, 2942.00
1889, 2942.00
1890, 2938.00
1891, 2940.00
1892, 2939.00
1893, 2937.00
1894, 2939.00
1895, 2937.00
1896, 2934.00
1897, 2936.00
1898, 2935.00
1899, 2934.00
1900, 2933.00
1901, 2933.00
1902, 2933.00
1903, 2934.00
1904, 2931.00
1905, 2932.00
1906, 2930.00
1907, 2931.00
1908, 2931.00
1909, 2931.00
1910, 2930.00
1911, 2929.00
1912, 2930.00
1913, 2930.00
1914, 2930.00
1915, 2930.00
1916, 2925.00
1917, 2928.00
1918, 2927.00
1919, 2928.00
1920, 2928.00
1921, 2928.00
1922, 2928.00
1923, 2927.00
1924, 2927.00
1925, 2927.00
1926, 2926.00
1927, 2924.00
1928, 2929.00
1929, 2927.00
1930, 2927.00
1931, 2927.00
1932, 2926.00
1933, 2929.00
1934, 2928.00
1935, 2926.00
1936, 2927.00
1937, 2928.00
1938, 2930.00
1939, 2928.00
1940, 2927.00
1941, 2930.00
1942, 2930.00
1943, 2929.00
1944, 2929.00
1945, 2931.00
1946, 2931.00
1947, 2929.00
1948, 2931.00
1949, 2931.00
1950, 2934.00
1951, 2931.00
1952, 2931.00
1953, 2933.00
1954, 2935.00
1955, 2933.00
1956, 2933.00
1957, 2935.00
1958, 2935.00
1959, 2934.00
1960, 2937.00
1961, 2938.00
1962, 2937.00
1963, 2938.00
1964, 2938.00
1965, 2940.00
1966, 2943.00
1967, 2939.00
1968, 2941.00
1969, 2941.00
1970, 2942.00
1971, 2943.00
1972, 2945.00
1973, 2943.00
1974, 2945.00
1975, 2946.00
1976, 2947.00
1977, 2947.00
1978, 2948.00
1979, 2949.00
1980, 2949.00
1981, 2949.00
1982, 2951.00
1983, 2952.00
1984, 2953.00
1985, 2952.00
1986, 2954.00
1987, 2955.00
1988, 2956.00
1989, 2956.00
1990, 2956.00
1991, 2958.00
1992, 2959.00
1993, 2959.00
1994, 2960.00
1995, 2960.00
1996, 2960.00
1997, 2961.00
1998, 2962.00
1999, 2962.00
2000, 2964.00
2001, 2963.00
2002, 2964.00
2003, 2966.00
2004, 2968.00
2005, 2966.00
2006, 2969.00
2007, 2969.00
2008, 2969.00
2009, 2970.00
2010, 2971.00
2011, 2972.00
2012, 2973.00
2013, 2971.00
2014, 2972.00
2015, 2974.00
2016, 2974.00
2017, 2976.00
2018, 2975.00
2019, 2979.00
2020, 2979.00
2021, 2979.00
2022, 2981.00
2023, 2980.00
2024, 2982.00
2025, 2981.00
2026, 2983.00
2027, 2983.00
2028, 2985.00
2029, 2986.00
2030, 2987.00
2031, 2987.00
2032, 2987.00
2033, 2989.00
2034, 2991.00
2035, 2992.00
2036, 2993.00
2037, 2991.00
2038, 2993.00
2039, 2995.00
2040, 2995.00
2041, 2997.00
2042, 2999.00
2043, 2999.00
2044, 2998.00
2045, 3001.00
2046, 3003.00
2047, 3002.00
2048, 3004.00
2049, 3005.00
2050, 3005.00
2051, 3007.00
2052, 3008.00
2053, 3009.00
2054, 3011.00
2055, 3012.00
2056, 3012.00
2057, 3011.00
2058, 3014.00
2059, 3015.00
2060, 3018.00
2061, 3019.00
2062, 3021.00
2063, 3019.00
2064, 3023.00
2065, 3023.00
2066, 3023.00
2067, 3026.00
2068, 3026.00
2069, 3028.00
2070, 3028.00
2071, 3030.00
2072, 3031.00
2073, 3031.00
2074, 3033.00
2075, 3033.00
2076, 3035.00
2077, 3037.00
2078, 3034.00
2079, 3040.00
2080, 3039.00
2081, 3039.00
2082, 3041.00
2083, 3043.00
2084, 3043.00
2085, 3043.00
2086, 3046.00
2087, 3047.00
2088, 3048.00
2089, 3048.00
2090, 3049.00
2091, 3050.00
2092, 3051.00
2093, 3053.00
2094, 3053.00
2095, 3054.00
2096, 3055.00
2097, 3053.00
2098, 3055.00
2099, 3055.00
2100, 3057.00
2101, 3057.00
2102, 3059.00
2103, 3060.00
2104, 3061.00
2105, 3060.00
2106, 3061.00
2107, 3063.00
2108, 3061.00
2109, 3061.00
2110, 3063.00
2111, 3066.00
2112, 3064.00
2113, 3067.00
2114, 3066.00
2115, 3066.00
2116, 3067.00
2117, 3067.00
2118, 3069.00
2119, 3067.00
2120, 3071.00
2121, 3070.00
2122, 3071.00
2123, 3071.00
2124, 3071.00
2125, 3071.00
2126, 3070.00
2127, 3073.00
2128, 3073.00
2129, 3073.00
2130, 3073.00
2131, 3074.00
2132, 3075.00
2133, 3074.00
2134, 3077.00
2135, 3076.00
2136, 3079.00
2137, 3078.00
2138, 3078.00
2139, 3080.00
2140, 3077.00
2141, 3079.00
2142, 3081.00
2143, 3081.00
2144, 3080.00
2145, 3081.00
2146, 3081.00
2147, 3080.00
2148, 3081.00
2149, 3081.00
2150, 3081.00
