FW version: 24
Log Version: 3.0.3

General Info:
       Command/Macro Performed,            Timestamp,             Device ID, COM Port, UART/I2C, Test Name, Host Major, Host Minor, Host Revision, Host Git Commit
            Single_measurement,  2023_07_11_10_44_23,       Insight2_F4_xxx,    USB-C,      USB,          ,          0,          1,             1,      4031237645

Show Spectrometer Status:
l0_version, f4_version, battery_perc, battery_mVolt, accelerometer_temp, accelerometer_x, accelerometer_y, accelerometer_z, compass_temp, compass_x, compass_y, compass_z, lamp_0, lamp_1, gain_0, gain_1
        17,         24,           49,          1906,               5952,           65296,              72,           18728,            0,     65373,     65354,     18814,   3276,   3276,      0,      0

Temperature Statistic Info:
NTC AVG [°C], NTC2 AVG [°C]
      37.669,        37.353

Statistic Info:
M1:  num,      min,      max,   median,      AVG,      STD,M2:  num,      min,      max,   median,      AVG,      STD
     301,   856.00,   980.00,   881.00,   896.43,  38.5001,     401,  1105.00,  1181.00,  1136.00,  1137.86,  25.0282,

Measurements:
Wavelength, Data Amplitude
1350, 879.00
1351, 879.00
1352, 878.00
1353, 878.00
1354, 877.00
1355, 878.00
1356, 878.00
1357, 876.00
1358, 876.00
1359, 875.00
1360, 875.00
1361, 875.00
1362, 874.00
1363, 873.00
1364, 873.00
1365, 872.00
1366, 871.00
1367, 871.00
1368, 870.00
1369, 870.00
1370, 869.00
1371, 868.00
1372, 868.00
1373, 867.00
1374, 866.00
1375, 866.00
1376, 865.00
1377, 865.00
1378, 864.00
1379, 864.00
1380, 863.00
1381, 863.00
1382, 863.00
1383, 862.00
1384, 861.00
1385, 861.00
1386, 861.00
1387, 860.00
1388, 861.00
1389, 860.00
1390, 859.00
1391, 859.00
1392, 859.00
1393, 859.00
1394, 859.00
1395, 859.00
1396, 859.00
1397, 858.00
1398, 858.00
1399, 858.00
1400, 858.00
1401, 858.00
1402, 857.00
1403, 857.00
1404, 857.00
1405, 857.00
1406, 857.00
1407, 857.00
1408, 857.00
1409, 857.00
1410, 856.00
1411, 857.00
1412, 856.00
1413, 856.00
1414, 857.00
1415, 857.00
1416, 856.00
1417, 856.00
1418, 856.00
1419, 856.00
1420, 856.00
1421, 856.00
1422, 856.00
1423, 856.00
1424, 856.00
1425, 856.00
1426, 856.00
1427, 857.00
1428, 856.00
1429, 857.00
1430, 857.00
1431, 857.00
1432, 857.00
1433, 857.00
1434, 857.00
1435, 857.00
1436, 857.00
1437, 858.00
1438, 858.00
1439, 858.00
1440, 858.00
1441, 859.00
1442, 858.00
1443, 858.00
1444, 859.00
1445, 859.00
1446, 859.00
1447, 859.00
1448, 860.00
1449, 860.00
1450, 860.00
1451, 860.00
1452, 861.00
1453, 861.00
1454, 861.00
1455, 861.00
1456, 861.00
1457, 862.00
1458, 862.00
1459, 862.00
1460, 863.00
1461, 863.00
1462, 863.00
1463, 864.00
1464, 864.00
1465, 865.00
1466, 865.00
1467, 865.00
1468, 866.00
1469, 866.00
1470, 866.00
1471, 867.00
1472, 867.00
1473, 868.00
1474, 868.00
1475, 869.00
1476, 869.00
1477, 869.00
1478, 870.00
1479, 870.00
1480, 871.00
1481, 872.00
1482, 872.00
1483, 873.00
1484, 872.00
1485, 874.00
1486, 873.00
1487, 874.00
1488, 874.00
1489, 875.00
1490, 876.00
1491, 876.00
1492, 877.00
1493, 877.00
1494, 878.00
1495, 878.00
1496, 878.00
1497, 879.00
1498, 880.00
1499, 880.00
1500, 881.00
1501, 881.00
1502, 882.00
1503, 882.00
1504, 883.00
1505, 883.00
1506, 884.00
1507, 884.00
1508, 885.00
1509, 885.00
1510, 886.00
1511, 886.00
1512, 887.00
1513, 887.00
1514, 888.00
1515, 889.00
1516, 889.00
1517, 890.00
1518, 890.00
1519, 890.00
1520, 892.00
1521, 893.00
1522, 893.00
1523, 893.00
1524, 894.00
1525, 894.00
1526, 895.00
1527, 896.00
1528, 896.00
1529, 897.00
1530, 897.00
1531, 898.00
1532, 899.00
1533, 899.00
1534, 900.00
1535, 900.00
1536, 901.00
1537, 902.00
1538, 902.00
1539, 903.00
1540, 903.00
1541, 904.00
1542, 905.00
1543, 906.00
1544, 906.00
1545, 907.00
1546, 908.00
1547, 909.00
1548, 909.00
1549, 910.00
1550, 910.00
1551, 911.00
1552, 912.00
1553, 912.00
1554, 913.00
1555, 914.00
1556, 914.00
1557, 915.00
1558, 916.00
1559, 917.00
1560, 917.00
1561, 918.00
1562, 919.00
1563, 919.00
1564, 920.00
1565, 921.00
1566, 922.00
1567, 922.00
1568, 923.00
1569, 924.00
1570, 924.00
1571, 925.00
1572, 926.00
1573, 926.00
1574, 928.00
1575, 928.00
1576, 929.00
1577, 929.00
1578, 930.00
1579, 931.00
1580, 931.00
1581, 932.00
1582, 933.00
1583, 933.00
1584, 934.00
1585, 934.00
1586, 935.00
1587, 935.00
1588, 936.00
1589, 937.00
1590, 937.00
1591, 938.00
1592, 939.00
1593, 939.00
1594, 940.00
1595, 941.00
1596, 941.00
1597, 942.00
1598, 942.00
1599, 943.00
1600, 943.00
1601, 945.00
1602, 945.00
1603, 946.00
1604, 946.00
1605, 947.00
1606, 948.00
1607, 949.00
1608, 950.00
1609, 950.00
1610, 951.00
1611, 952.00
1612, 953.00
1613, 954.00
1614, 954.00
1615, 955.00
1616, 956.00
1617, 956.00
1618, 957.00
1619, 958.00
1620, 959.00
1621, 960.00
1622, 961.00
1623, 961.00
1624, 962.00
1625, 963.00
1626, 964.00
1627, 964.00
1628, 965.00
1629, 966.00
1630, 967.00
1631, 967.00
1632, 968.00
1633, 969.00
1634, 970.00
1635, 970.00
1636, 970.00
1637, 971.00
1638, 972.00
1639, 973.00
1640, 973.00
1641, 974.00
1642, 974.00
1643, 975.00
1644, 976.00
1645, 976.00
1646, 977.00
1647, 978.00
1648, 978.00
1649, 979.00
1650, 980.00

1750, 1181.00
1751, 1181.00
1752, 1181.00
1753, 1181.00
1754, 1181.00
1755, 1181.00
1756, 1181.00
1757, 1181.00
1758, 1181.00
1759, 1181.00
1760, 1181.00
1761, 1181.00
1762, 1181.00
1763, 1181.00
1764, 1181.00
1765, 1181.00
1766, 1180.00
1767, 1181.00
1768, 1180.00
1769, 1181.00
1770, 1179.00
1771, 1180.00
1772, 1180.00
1773, 1180.00
1774, 1180.00
1775, 1179.00
1776, 1179.00
1777, 1179.00
1778, 1178.00
1779, 1179.00
1780, 1179.00
1781, 1178.00
1782, 1178.00
1783, 1178.00
1784, 1177.00
1785, 1177.00
1786, 1176.00
1787, 1176.00
1788, 1176.00
1789, 1176.00
1790, 1175.00
1791, 1175.00
1792, 1175.00
1793, 1175.00
1794, 1175.00
1795, 1174.00
1796, 1173.00
1797, 1173.00
1798, 1174.00
1799, 1173.00
1800, 1173.00
1801, 1173.00
1802, 1172.00
1803, 1172.00
1804, 1172.00
1805, 1172.00
1806, 1171.00
1807, 1171.00
1808, 1171.00
1809, 1170.00
1810, 1171.00
1811, 1171.00
1812, 1169.00
1813, 1170.00
1814, 1169.00
1815, 1169.00
1816, 1168.00
1817, 1168.00
1818, 1168.00
1819, 1167.00
1820, 1167.00
1821, 1166.00
1822, 1166.00
1823, 1165.00
1824, 1165.00
1825, 1164.00
1826, 1164.00
1827, 1162.00
1828, 1161.00
1829, 1161.00
1830, 1160.00
1831, 1160.00
1832, 1160.00
1833, 1158.00
1834, 1157.00
1835, 1157.00
1836, 1155.00
1837, 1154.00
1838, 1153.00
1839, 1153.00
1840, 1152.00
1841, 1151.00
1842, 1149.00
1843, 1149.00
1844, 1146.00
1845, 1146.00
1846, 1145.00
1847, 1143.00
1848, 1143.00
1849, 1141.00
1850, 1140.00
1851, 1139.00
1852, 1138.00
1853, 1137.00
1854, 1136.00
1855, 1135.00
1856, 1133.00
1857, 1132.00
1858, 1130.00
1859, 1130.00
1860, 1129.00
1861, 1127.00
1862, 1127.00
1863, 1126.00
1864, 1125.00
1865, 1124.00
1866, 1123.00
1867, 1122.00
1868, 1121.00
1869, 1121.00
1870, 1119.00
1871, 1119.00
1872, 1118.00
1873, 1117.00
1874, 1118.00
1875, 1117.00
1876, 1116.00
1877, 1116.00
1878, 1115.00
1879, 1114.00
1880, 1114.00
1881, 1113.00
1882, 1114.00
1883, 1113.00
1884, 1112.00
1885, 1112.00
1886, 1112.00
1887, 1111.00
1888, 1111.00
1889, 1111.00
1890, 1110.00
1891, 1110.00
1892, 1109.00
1893, 1110.00
1894, 1110.00
1895, 1109.00
1896, 1109.00
1897, 1108.00
1898, 1108.00
1899, 1108.00
1900, 1109.00
1901, 1108.00
1902, 1108.00
1903, 1108.00
1904, 1107.00
1905, 1108.00
1906, 1108.00
1907, 1108.00
1908, 1107.00
1909, 1107.00
1910, 1107.00
1911, 1107.00
1912, 1106.00
1913, 1107.00
1914, 1106.00
1915, 1106.00
1916, 1105.00
1917, 1106.00
1918, 1105.00
1919, 1106.00
1920, 1106.00
1921, 1106.00
1922, 1106.00
1923, 1105.00
1924, 1106.00
1925, 1106.00
1926, 1106.00
1927, 1106.00
1928, 1106.00
1929, 1106.00
1930, 1105.00
1931, 1106.00
1932, 1105.00
1933, 1105.00
1934, 1106.00
1935, 1105.00
1936, 1106.00
1937, 1105.00
1938, 1106.00
1939, 1106.00
1940, 1106.00
1941, 1106.00
1942, 1106.00
1943, 1106.00
1944, 1106.00
1945, 1106.00
1946, 1107.00
1947, 1106.00
1948, 1107.00
1949, 1106.00
1950, 1108.00
1951, 1108.00
1952, 1107.00
1953, 1107.00
1954, 1108.00
1955, 1107.00
1956, 1108.00
1957, 1108.00
1958, 1109.00
1959, 1108.00
1960, 1108.00
1961, 1109.00
1962, 1109.00
1963, 1109.00
1964, 1109.00
1965, 1110.00
1966, 1109.00
1967, 1110.00
1968, 1110.00
1969, 1111.00
1970, 1111.00
1971, 1111.00
1972, 1111.00
1973, 1112.00
1974, 1111.00
1975, 1112.00
1976, 1112.00
1977, 1112.00
1978, 1113.00
1979, 1113.00
1980, 1113.00
1981, 1113.00
1982, 1113.00
1983, 1114.00
1984, 1114.00
1985, 1115.00
1986, 1115.00
1987, 1115.00
1988, 1115.00
1989, 1115.00
1990, 1116.00
1991, 1116.00
1992, 1116.00
1993, 1117.00
1994, 1117.00
1995, 1117.00
1996, 1118.00
1997, 1118.00
1998, 1118.00
1999, 1118.00
2000, 1118.00
2001, 1119.00
2002, 1118.00
2003, 1119.00
2004, 1119.00
2005, 1119.00
2006, 1120.00
2007, 1120.00
2008, 1120.00
2009, 1121.00
2010, 1122.00
2011, 1122.00
2012, 1121.00
2013, 1121.00
2014, 1122.00
2015, 1122.00
2016, 1122.00
2017, 1122.00
2018, 1123.00
2019, 1123.00
2020, 1123.00
2021, 1124.00
2022, 1124.00
2023, 1124.00
2024, 1124.00
2025, 1125.00
2026, 1125.00
2027, 1124.00
2028, 1126.00
2029, 1126.00
2030, 1127.00
2031, 1127.00
2032, 1127.00
2033, 1128.00
2034, 1127.00
2035, 1128.00
2036, 1128.00
2037, 1129.00
2038, 1129.00
2039, 1129.00
2040, 1130.00
2041, 1130.00
2042, 1130.00
2043, 1131.00
2044, 1131.00
2045, 1131.00
2046, 1133.00
2047, 1132.00
2048, 1132.00
2049, 1133.00
2050, 1133.00
2051, 1134.00
2052, 1134.00
2053, 1135.00
2054, 1135.00
2055, 1136.00
2056, 1136.00
2057, 1136.00
2058, 1136.00
2059, 1137.00
2060, 1138.00
2061, 1138.00
2062, 1139.00
2063, 1139.00
2064, 1139.00
2065, 1140.00
2066, 1139.00
2067, 1141.00
2068, 1141.00
2069, 1141.00
2070, 1142.00
2071, 1142.00
2072, 1142.00
2073, 1142.00
2074, 1143.00
2075, 1143.00
2076, 1143.00
2077, 1145.00
2078, 1144.00
2079, 1144.00
2080, 1145.00
2081, 1145.00
2082, 1146.00
2083, 1147.00
2084, 1146.00
2085, 1147.00
2086, 1147.00
2087, 1148.00
2088, 1148.00
2089, 1149.00
2090, 1148.00
2091, 1149.00
2092, 1149.00
2093, 1149.00
2094, 1149.00
2095, 1150.00
2096, 1151.00
2097, 1150.00
2098, 1152.00
2099, 1152.00
2100, 1152.00
2101, 1152.00
2102, 1152.00
2103, 1154.00
2104, 1153.00
2105, 1152.00
2106, 1154.00
2107, 1152.00
2108, 1154.00
2109, 1154.00
2110, 1154.00
2111, 1154.00
2112, 1154.00
2113, 1154.00
2114, 1155.00
2115, 1155.00
2116, 1155.00
2117, 1155.00
2118, 1155.00
2119, 1156.00
2120, 1156.00
2121, 1156.00
2122, 1156.00
2123, 1156.00
2124, 1157.00
2125, 1156.00
2126, 1157.00
2127, 1158.00
2128, 1158.00
2129, 1158.00
2130, 1158.00
2131, 1158.00
2132, 1158.00
2133, 1158.00
2134, 1158.00
2135, 1158.00
2136, 1158.00
2137, 1160.00
2138, 1159.00
2139, 1159.00
2140, 1159.00
2141, 1160.00
2142, 1159.00
2143, 1160.00
2144, 1160.00
2145, 1160.00
2146, 1160.00
2147, 1160.00
2148, 1160.00
2149, 1160.00
2150, 1160.00
