FW version: 24
Log Version: 3.0.3

General Info:
       Command/Macro Performed,            Timestamp,             Device ID, COM Port, UART/I2C, Test Name, Host Major, Host Minor, Host Revision, Host Git Commit
            Single_measurement,  2023_07_11_10_44_34,       Insight2_F4_xxx,    USB-C,      USB,          ,          0,          1,             1,      4031237645

Show Spectrometer Status:
l0_version, f4_version, battery_perc, battery_mVolt, accelerometer_temp, accelerometer_x, accelerometer_y, accelerometer_z, compass_temp, compass_x, compass_y, compass_z, lamp_0, lamp_1, gain_0, gain_1
        17,         24,           49,          1907,               5984,           65308,              68,           18620,            0,     65372,     65405,     18685,   2047,   2047,      1,      1

Temperature Statistic Info:
NTC AVG [°C], NTC2 AVG [°C]
      37.698,        37.382

Statistic Info:
M1:  num,      min,      max,   median,      AVG,      STD,M2:  num,      min,      max,   median,      AVG,      STD
     301,   986.00,  1145.00,  1020.00,  1039.34,  50.2567,     401,  1443.00,  1544.00,  1486.00,  1488.95,  33.6903,

Measurements:
Wavelength, Data Amplitude
1350, 1010.00
1351, 1011.00
1352, 1009.00
1353, 1009.00
1354, 1009.00
1355, 1007.00
1356, 1007.00
1357, 1007.00
1358, 1007.00
1359, 1006.00
1360, 1006.00
1361, 1006.00
1362, 1005.00
1363, 1005.00
1364, 1003.00
1365, 1003.00
1366, 1001.00
1367, 1002.00
1368, 1001.00
1369, 999.00
1370, 1000.00
1371, 999.00
1372, 998.00
1373, 998.00
1374, 997.00
1375, 997.00
1376, 996.00
1377, 994.00
1378, 993.00
1379, 994.00
1380, 993.00
1381, 993.00
1382, 993.00
1383, 991.00
1384, 991.00
1385, 991.00
1386, 991.00
1387, 990.00
1388, 991.00
1389, 989.00
1390, 990.00
1391, 989.00
1392, 989.00
1393, 990.00
1394, 990.00
1395, 989.00
1396, 988.00
1397, 989.00
1398, 988.00
1399, 987.00
1400, 988.00
1401, 987.00
1402, 988.00
1403, 987.00
1404, 988.00
1405, 987.00
1406, 987.00
1407, 987.00
1408, 987.00
1409, 986.00
1410, 987.00
1411, 986.00
1412, 988.00
1413, 987.00
1414, 988.00
1415, 987.00
1416, 987.00
1417, 987.00
1418, 987.00
1419, 986.00
1420, 987.00
1421, 987.00
1422, 988.00
1423, 987.00
1424, 988.00
1425, 988.00
1426, 987.00
1427, 987.00
1428, 988.00
1429, 987.00
1430, 988.00
1431, 988.00
1432, 988.00
1433, 989.00
1434, 988.00
1435, 989.00
1436, 990.00
1437, 989.00
1438, 989.00
1439, 989.00
1440, 990.00
1441, 990.00
1442, 991.00
1443, 991.00
1444, 991.00
1445, 991.00
1446, 992.00
1447, 992.00
1448, 991.00
1449, 993.00
1450, 993.00
1451, 992.00
1452, 994.00
1453, 994.00
1454, 995.00
1455, 995.00
1456, 994.00
1457, 995.00
1458, 996.00
1459, 996.00
1460, 997.00
1461, 997.00
1462, 997.00
1463, 998.00
1464, 999.00
1465, 999.00
1466, 1000.00
1467, 1000.00
1468, 1000.00
1469, 1001.00
1470, 1001.00
1471, 1002.00
1472, 1002.00
1473, 1003.00
1474, 1003.00
1475, 1003.00
1476, 1003.00
1477, 1005.00
1478, 1006.00
1479, 1007.00
1480, 1008.00
1481, 1008.00
1482, 1007.00
1483, 1009.00
1484, 1009.00
1485, 1011.00
1486, 1011.00
1487, 1012.00
1488, 1012.00
1489, 1013.00
1490, 1013.00
1491, 1013.00
1492, 1015.00
1493, 1015.00
1494, 1016.00
1495, 1017.00
1496, 1017.00
1497, 1017.00
1498, 1019.00
1499, 1020.00
1500, 1020.00
1501, 1021.00
1502, 1022.00
1503, 1024.00
1504, 1023.00
1505, 1024.00
1506, 1025.00
1507, 1027.00
1508, 1026.00
1509, 1026.00
1510, 1028.00
1511, 1028.00
1512, 1030.00
1513, 1030.00
1514, 1032.00
1515, 1031.00
1516, 1032.00
1517, 1033.00
1518, 1034.00
1519, 1034.00
1520, 1035.00
1521, 1036.00
1522, 1037.00
1523, 1037.00
1524, 1038.00
1525, 1039.00
1526, 1040.00
1527, 1041.00
1528, 1041.00
1529, 1043.00
1530, 1043.00
1531, 1044.00
1532, 1045.00
1533, 1047.00
1534, 1046.00
1535, 1047.00
1536, 1048.00
1537, 1050.00
1538, 1050.00
1539, 1052.00
1540, 1052.00
1541, 1053.00
1542, 1054.00
1543, 1055.00
1544, 1055.00
1545, 1056.00
1546, 1056.00
1547, 1058.00
1548, 1058.00
1549, 1059.00
1550, 1060.00
1551, 1061.00
1552, 1062.00
1553, 1062.00
1554, 1063.00
1555, 1063.00
1556, 1065.00
1557, 1065.00
1558, 1066.00
1559, 1067.00
1560, 1067.00
1561, 1069.00
1562, 1070.00
1563, 1071.00
1564, 1072.00
1565, 1073.00
1566, 1074.00
1567, 1075.00
1568, 1075.00
1569, 1076.00
1570, 1077.00
1571, 1078.00
1572, 1079.00
1573, 1080.00
1574, 1080.00
1575, 1081.00
1576, 1082.00
1577, 1083.00
1578, 1084.00
1579, 1085.00
1580, 1086.00
1581, 1085.00
1582, 1085.00
1583, 1088.00
1584, 1088.00
1585, 1089.00
1586, 1090.00
1587, 1090.00
1588, 1092.00
1589, 1092.00
1590, 1093.00
1591, 1094.00
1592, 1095.00
1593, 1096.00
1594, 1096.00
1595, 1097.00
1596, 1097.00
1597, 1099.00
1598, 1099.00
1599, 1100.00
1600, 1102.00
1601, 1102.00
1602, 1104.00
1603, 1103.00
1604, 1105.00
1605, 1105.00
1606, 1106.00
1607, 1108.00
1608, 1108.00
1609, 1109.00
1610, 1110.00
1611, 1111.00
1612, 1113.00
1613, 1113.00
1614, 1114.00
1615, 1115.00
1616, 1116.00
1617, 1117.00
1618, 1119.00
1619, 1119.00
1620, 1121.00
1621, 1121.00
1622, 1122.00
1623, 1123.00
1624, 1124.00
1625, 1126.00
1626, 1126.00
1627, 1128.00
1628, 1128.00
1629, 1129.00
1630, 1130.00
1631, 1132.00
1632, 1132.00
1633, 1132.00
1634, 1133.00
1635, 1134.00
1636, 1135.00
1637, 1136.00
1638, 1136.00
1639, 1138.00
1640, 1137.00
1641, 1138.00
1642, 1139.00
1643, 1140.00
1644, 1140.00
1645, 1140.00
1646, 1142.00
1647, 1143.00
1648, 1143.00
1649, 1143.00
1650, 1145.00

1750, 1544.00
1751, 1544.00
1752, 1543.00
1753, 1544.00
1754, 1543.00
1755, 1543.00
1756, 1543.00
1757, 1543.00
1758, 1543.00
1759, 1543.00
1760, 1543.00
1761, 1543.00
1762, 1543.00
1763, 1544.00
1764, 1544.00
1765, 1542.00
1766, 1542.00
1767, 1543.00
1768, 1541.00
1769, 1542.00
1770, 1542.00
1771, 1543.00
1772, 1542.00
1773, 1541.00
1774, 1540.00
1775, 1543.00
1776, 1540.00
1777, 1541.00
1778, 1541.00
1779, 1540.00
1780, 1539.00
1781, 1540.00
1782, 1538.00
1783, 1540.00
1784, 1539.00
1785, 1539.00
1786, 1538.00
1787, 1538.00
1788, 1536.00
1789, 1539.00
1790, 1538.00
1791, 1537.00
1792, 1535.00
1793, 1536.00
1794, 1536.00
1795, 1534.00
1796, 1534.00
1797, 1534.00
1798, 1533.00
1799, 1533.00
1800, 1535.00
1801, 1531.00
1802, 1534.00
1803, 1531.00
1804, 1533.00
1805, 1533.00
1806, 1531.00
1807, 1533.00
1808, 1531.00
1809, 1531.00
1810, 1530.00
1811, 1531.00
1812, 1528.00
1813, 1528.00
1814, 1529.00
1815, 1529.00
1816, 1529.00
1817, 1527.00
1818, 1527.00
1819, 1527.00
1820, 1527.00
1821, 1525.00
1822, 1526.00
1823, 1525.00
1824, 1522.00
1825, 1523.00
1826, 1523.00
1827, 1519.00
1828, 1520.00
1829, 1520.00
1830, 1517.00
1831, 1518.00
1832, 1514.00
1833, 1515.00
1834, 1515.00
1835, 1512.00
1836, 1511.00
1837, 1510.00
1838, 1509.00
1839, 1509.00
1840, 1505.00
1841, 1503.00
1842, 1504.00
1843, 1500.00
1844, 1499.00
1845, 1499.00
1846, 1497.00
1847, 1498.00
1848, 1494.00
1849, 1494.00
1850, 1490.00
1851, 1487.00
1852, 1488.00
1853, 1486.00
1854, 1482.00
1855, 1482.00
1856, 1480.00
1857, 1480.00
1858, 1479.00
1859, 1477.00
1860, 1475.00
1861, 1473.00
1862, 1473.00
1863, 1472.00
1864, 1470.00
1865, 1468.00
1866, 1468.00
1867, 1468.00
1868, 1465.00
1869, 1467.00
1870, 1465.00
1871, 1460.00
1872, 1463.00
1873, 1461.00
1874, 1459.00
1875, 1457.00
1876, 1458.00
1877, 1459.00
1878, 1455.00
1879, 1456.00
1880, 1457.00
1881, 1454.00
1882, 1454.00
1883, 1454.00
1884, 1455.00
1885, 1451.00
1886, 1453.00
1887, 1453.00
1888, 1451.00
1889, 1450.00
1890, 1452.00
1891, 1451.00
1892, 1450.00
1893, 1450.00
1894, 1450.00
1895, 1450.00
1896, 1448.00
1897, 1449.00
1898, 1450.00
1899, 1447.00
1900, 1448.00
1901, 1448.00
1902, 1447.00
1903, 1446.00
1904, 1447.00
1905, 1450.00
1906, 1446.00
1907, 1447.00
1908, 1446.00
1909, 1447.00
1910, 1445.00
1911, 1445.00
1912, 1445.00
1913, 1445.00
1914, 1445.00
1915, 1445.00
1916, 1447.00
1917, 1445.00
1918, 1445.00
1919, 1444.00
1920, 1444.00
1921, 1444.00
1922, 1445.00
1923, 1444.00
1924, 1444.00
1925, 1444.00
1926, 1445.00
1927, 1444.00
1928, 1444.00
1929, 1445.00
1930, 1444.00
1931, 1445.00
1932, 1445.00
1933, 1445.00
1934, 1443.00
1935, 1445.00
1936, 1443.00
1937, 1444.00
1938, 1444.00
1939, 1445.00
1940, 1444.00
1941, 1447.00
1942, 1446.00
1943, 1445.00
1944, 1446.00
1945, 1447.00
1946, 1445.00
1947, 1447.00
1948, 1447.00
1949, 1446.00
1950, 1446.00
1951, 1445.00
1952, 1447.00
1953, 1446.00
1954, 1447.00
1955, 1447.00
1956, 1448.00
1957, 1448.00
1958, 1448.00
1959, 1450.00
1960, 1448.00
1961, 1450.00
1962, 1450.00
1963, 1449.00
1964, 1450.00
1965, 1449.00
1966, 1452.00
1967, 1451.00
1968, 1450.00
1969, 1453.00
1970, 1452.00
1971, 1453.00
1972, 1453.00
1973, 1453.00
1974, 1453.00
1975, 1453.00
1976, 1454.00
1977, 1452.00
1978, 1455.00
1979, 1454.00
1980, 1455.00
1981, 1454.00
1982, 1456.00
1983, 1459.00
1984, 1456.00
1985, 1457.00
1986, 1458.00
1987, 1457.00
1988, 1459.00
1989, 1459.00
1990, 1460.00
1991, 1460.00
1992, 1459.00
1993, 1461.00
1994, 1461.00
1995, 1461.00
1996, 1462.00
1997, 1461.00
1998, 1462.00
1999, 1462.00
2000, 1462.00
2001, 1463.00
2002, 1464.00
2003, 1464.00
2004, 1464.00
2005, 1463.00
2006, 1465.00
2007, 1464.00
2008, 1467.00
2009, 1467.00
2010, 1466.00
2011, 1466.00
2012, 1467.00
2013, 1467.00
2014, 1468.00
2015, 1468.00
2016, 1470.00
2017, 1469.00
2018, 1467.00
2019, 1468.00
2020, 1469.00
2021, 1471.00
2022, 1471.00
2023, 1471.00
2024, 1471.00
2025, 1471.00
2026, 1471.00
2027, 1474.00
2028, 1475.00
2029, 1473.00
2030, 1475.00
2031, 1475.00
2032, 1477.00
2033, 1477.00
2034, 1477.00
2035, 1477.00
2036, 1477.00
2037, 1479.00
2038, 1478.00
2039, 1479.00
2040, 1479.00
2041, 1479.00
2042, 1480.00
2043, 1480.00
2044, 1482.00
2045, 1481.00
2046, 1482.00
2047, 1483.00
2048, 1482.00
2049, 1485.00
2050, 1483.00
2051, 1486.00
2052, 1486.00
2053, 1487.00
2054, 1486.00
2055, 1487.00
2056, 1488.00
2057, 1489.00
2058, 1489.00
2059, 1489.00
2060, 1491.00
2061, 1491.00
2062, 1491.00
2063, 1492.00
2064, 1493.00
2065, 1495.00
2066, 1494.00
2067, 1494.00
2068, 1493.00
2069, 1496.00
2070, 1496.00
2071, 1497.00
2072, 1498.00
2073, 1496.00
2074, 1499.00
2075, 1498.00
2076, 1500.00
2077, 1499.00
2078, 1501.00
2079, 1501.00
2080, 1503.00
2081, 1503.00
2082, 1500.00
2083, 1504.00
2084, 1505.00
2085, 1505.00
2086, 1505.00
2087, 1506.00
2088, 1506.00
2089, 1507.00
2090, 1506.00
2091, 1508.00
2092, 1509.00
2093, 1509.00
2094, 1509.00
2095, 1509.00
2096, 1509.00
2097, 1511.00
2098, 1512.00
2099, 1510.00
2100, 1511.00
2101, 1512.00
2102, 1512.00
2103, 1512.00
2104, 1513.00
2105, 1514.00
2106, 1513.00
2107, 1513.00
2108, 1514.00
2109, 1513.00
2110, 1515.00
2111, 1515.00
2112, 1516.00
2113, 1515.00
2114, 1515.00
2115, 1516.00
2116, 1516.00
2117, 1517.00
2118, 1517.00
2119, 1517.00
2120, 1517.00
2121, 1519.00
2122, 1518.00
2123, 1519.00
2124, 1520.00
2125, 1520.00
2126, 1520.00
2127, 1520.00
2128, 1519.00
2129, 1519.00
2130, 1519.00
2131, 1521.00
2132, 1521.00
2133, 1521.00
2134, 1520.00
2135, 1521.00
2136, 1522.00
2137, 1523.00
2138, 1522.00
2139, 1523.00
2140, 1523.00
2141, 1523.00
2142, 1522.00
2143, 1523.00
2144, 1522.00
2145, 1523.00
2146, 1524.00
2147, 1524.00
2148, 1526.00
2149, 1526.00
2150, 1525.00
