FW version: 24
Log Version: 3.0.3

General Info:
       Command/Macro Performed,            Timestamp,             Device ID, COM Port, UART/I2C, Test Name, Host Major, Host Minor, Host Revision, Host Git Commit
            Single_measurement,  2023_07_11_10_45_17,       Insight2_F4_xxx,    USB-C,      USB,          ,          0,          1,             1,      4031237645

Show Spectrometer Status:
l0_version, f4_version, battery_perc, battery_mVolt, accelerometer_temp, accelerometer_x, accelerometer_y, accelerometer_z, compass_temp, compass_x, compass_y, compass_z, lamp_0, lamp_1, gain_0, gain_1
        17,         24,           49,          1905,               6032,           65300,              64,           18716,            0,     65367,     65344,     18812,   2866,   2866,      1,      1

Temperature Statistic Info:
NTC AVG [°C], NTC2 AVG [°C]
      38.070,        37.726

Statistic Info:
M1:  num,      min,      max,   median,      AVG,      STD,M2:  num,      min,      max,   median,      AVG,      STD
     301,  1925.00,  2215.00,  1983.00,  2020.03,  90.2946,     401,  2569.00,  2748.00,  2641.00,  2647.00,  58.5374,

Measurements:
Wavelength, Data Amplitude
1350, 1976.00
1351, 1976.00
1352, 1975.00
1353, 1974.00
1354, 1973.00
1355, 1972.00
1356, 1971.00
1357, 1970.00
1358, 1969.00
1359, 1967.00
1360, 1966.00
1361, 1965.00
1362, 1965.00
1363, 1962.00
1364, 1960.00
1365, 1960.00
1366, 1959.00
1367, 1958.00
1368, 1955.00
1369, 1954.00
1370, 1952.00
1371, 1952.00
1372, 1950.00
1373, 1950.00
1374, 1949.00
1375, 1946.00
1376, 1946.00
1377, 1943.00
1378, 1943.00
1379, 1943.00
1380, 1942.00
1381, 1940.00
1382, 1939.00
1383, 1937.00
1384, 1938.00
1385, 1937.00
1386, 1935.00
1387, 1934.00
1388, 1934.00
1389, 1934.00
1390, 1933.00
1391, 1933.00
1392, 1933.00
1393, 1932.00
1394, 1931.00
1395, 1931.00
1396, 1931.00
1397, 1930.00
1398, 1930.00
1399, 1929.00
1400, 1929.00
1401, 1929.00
1402, 1928.00
1403, 1928.00
1404, 1927.00
1405, 1928.00
1406, 1928.00
1407, 1928.00
1408, 1926.00
1409, 1926.00
1410, 1927.00
1411, 1927.00
1412, 1927.00
1413, 1926.00
1414, 1926.00
1415, 1926.00
1416, 1926.00
1417, 1927.00
1418, 1925.00
1419, 1926.00
1420, 1927.00
1421, 1925.00
1422, 1927.00
1423, 1926.00
1424, 1926.00
1425, 1926.00
1426, 1925.00
1427, 1927.00
1428, 1926.00
1429, 1927.00
1430, 1927.00
1431, 1928.00
1432, 1928.00
1433, 1927.00
1434, 1929.00
1435, 1927.00
1436, 1930.00
1437, 1929.00
1438, 1930.00
1439, 1930.00
1440, 1931.00
1441, 1931.00
1442, 1931.00
1443, 1932.00
1444, 1932.00
1445, 1932.00
1446, 1933.00
1447, 1934.00
1448, 1935.00
1449, 1935.00
1450, 1936.00
1451, 1937.00
1452, 1937.00
1453, 1939.00
1454, 1938.00
1455, 1939.00
1456, 1939.00
1457, 1941.00
1458, 1941.00
1459, 1941.00
1460, 1943.00
1461, 1942.00
1462, 1944.00
1463, 1945.00
1464, 1945.00
1465, 1946.00
1466, 1947.00
1467, 1947.00
1468, 1949.00
1469, 1949.00
1470, 1950.00
1471, 1952.00
1472, 1952.00
1473, 1954.00
1474, 1954.00
1475, 1955.00
1476, 1957.00
1477, 1957.00
1478, 1959.00
1479, 1959.00
1480, 1960.00
1481, 1962.00
1482, 1963.00
1483, 1964.00
1484, 1965.00
1485, 1966.00
1486, 1967.00
1487, 1968.00
1488, 1970.00
1489, 1971.00
1490, 1973.00
1491, 1973.00
1492, 1974.00
1493, 1975.00
1494, 1977.00
1495, 1978.00
1496, 1979.00
1497, 1981.00
1498, 1981.00
1499, 1983.00
1500, 1983.00
1501, 1985.00
1502, 1986.00
1503, 1988.00
1504, 1988.00
1505, 1990.00
1506, 1991.00
1507, 1992.00
1508, 1994.00
1509, 1994.00
1510, 1996.00
1511, 1997.00
1512, 1998.00
1513, 2000.00
1514, 2000.00
1515, 2003.00
1516, 2003.00
1517, 2006.00
1518, 2007.00
1519, 2009.00
1520, 2008.00
1521, 2011.00
1522, 2011.00
1523, 2013.00
1524, 2015.00
1525, 2015.00
1526, 2017.00
1527, 2019.00
1528, 2021.00
1529, 2023.00
1530, 2023.00
1531, 2024.00
1532, 2025.00
1533, 2028.00
1534, 2030.00
1535, 2031.00
1536, 2031.00
1537, 2033.00
1538, 2035.00
1539, 2036.00
1540, 2039.00
1541, 2039.00
1542, 2042.00
1543, 2043.00
1544, 2044.00
1545, 2046.00
1546, 2047.00
1547, 2048.00
1548, 2050.00
1549, 2052.00
1550, 2053.00
1551, 2054.00
1552, 2057.00
1553, 2058.00
1554, 2059.00
1555, 2061.00
1556, 2063.00
1557, 2065.00
1558, 2066.00
1559, 2067.00
1560, 2070.00
1561, 2071.00
1562, 2072.00
1563, 2075.00
1564, 2076.00
1565, 2077.00
1566, 2080.00
1567, 2082.00
1568, 2082.00
1569, 2085.00
1570, 2087.00
1571, 2088.00
1572, 2090.00
1573, 2091.00
1574, 2092.00
1575, 2094.00
1576, 2095.00
1577, 2096.00
1578, 2098.00
1579, 2100.00
1580, 2102.00
1581, 2103.00
1582, 2105.00
1583, 2107.00
1584, 2107.00
1585, 2109.00
1586, 2110.00
1587, 2112.00
1588, 2113.00
1589, 2115.00
1590, 2116.00
1591, 2118.00
1592, 2119.00
1593, 2120.00
1594, 2122.00
1595, 2123.00
1596, 2125.00
1597, 2126.00
1598, 2128.00
1599, 2130.00
1600, 2131.00
1601, 2133.00
1602, 2134.00
1603, 2135.00
1604, 2137.00
1605, 2139.00
1606, 2140.00
1607, 2142.00
1608, 2144.00
1609, 2146.00
1610, 2148.00
1611, 2149.00
1612, 2151.00
1613, 2153.00
1614, 2155.00
1615, 2156.00
1616, 2159.00
1617, 2160.00
1618, 2162.00
1619, 2164.00
1620, 2166.00
1621, 2168.00
1622, 2170.00
1623, 2172.00
1624, 2173.00
1625, 2176.00
1626, 2177.00
1627, 2179.00
1628, 2180.00
1629, 2183.00
1630, 2184.00
1631, 2186.00
1632, 2188.00
1633, 2189.00
1634, 2190.00
1635, 2193.00
1636, 2194.00
1637, 2196.00
1638, 2197.00
1639, 2200.00
1640, 2200.00
1641, 2202.00
1642, 2204.00
1643, 2205.00
1644, 2207.00
1645, 2207.00
1646, 2209.00
1647, 2211.00
1648, 2213.00
1649, 2214.00
1650, 2215.00

1750, 2747.00
1751, 2748.00
1752, 2748.00
1753, 2748.00
1754, 2747.00
1755, 2747.00
1756, 2747.00
1757, 2746.00
1758, 2747.00
1759, 2746.00
1760, 2747.00
1761, 2747.00
1762, 2747.00
1763, 2746.00
1764, 2746.00
1765, 2745.00
1766, 2743.00
1767, 2745.00
1768, 2744.00
1769, 2744.00
1770, 2744.00
1771, 2743.00
1772, 2743.00
1773, 2745.00
1774, 2743.00
1775, 2743.00
1776, 2742.00
1777, 2743.00
1778, 2740.00
1779, 2742.00
1780, 2740.00
1781, 2738.00
1782, 2741.00
1783, 2738.00
1784, 2737.00
1785, 2737.00
1786, 2734.00
1787, 2735.00
1788, 2733.00
1789, 2734.00
1790, 2733.00
1791, 2734.00
1792, 2732.00
1793, 2732.00
1794, 2731.00
1795, 2730.00
1796, 2729.00
1797, 2731.00
1798, 2730.00
1799, 2727.00
1800, 2725.00
1801, 2728.00
1802, 2726.00
1803, 2727.00
1804, 2723.00
1805, 2725.00
1806, 2724.00
1807, 2725.00
1808, 2722.00
1809, 2721.00
1810, 2724.00
1811, 2723.00
1812, 2721.00
1813, 2719.00
1814, 2720.00
1815, 2718.00
1816, 2715.00
1817, 2716.00
1818, 2717.00
1819, 2713.00
1820, 2713.00
1821, 2714.00
1822, 2713.00
1823, 2708.00
1824, 2708.00
1825, 2707.00
1826, 2705.00
1827, 2704.00
1828, 2701.00
1829, 2699.00
1830, 2699.00
1831, 2697.00
1832, 2697.00
1833, 2693.00
1834, 2692.00
1835, 2691.00
1836, 2687.00
1837, 2685.00
1838, 2683.00
1839, 2680.00
1840, 2677.00
1841, 2676.00
1842, 2673.00
1843, 2668.00
1844, 2667.00
1845, 2665.00
1846, 2661.00
1847, 2659.00
1848, 2658.00
1849, 2654.00
1850, 2649.00
1851, 2647.00
1852, 2646.00
1853, 2644.00
1854, 2640.00
1855, 2637.00
1856, 2635.00
1857, 2633.00
1858, 2631.00
1859, 2627.00
1860, 2625.00
1861, 2619.00
1862, 2618.00
1863, 2618.00
1864, 2615.00
1865, 2613.00
1866, 2610.00
1867, 2609.00
1868, 2606.00
1869, 2606.00
1870, 2606.00
1871, 2603.00
1872, 2601.00
1873, 2599.00
1874, 2599.00
1875, 2595.00
1876, 2596.00
1877, 2594.00
1878, 2592.00
1879, 2590.00
1880, 2592.00
1881, 2588.00
1882, 2589.00
1883, 2588.00
1884, 2587.00
1885, 2585.00
1886, 2585.00
1887, 2584.00
1888, 2585.00
1889, 2582.00
1890, 2583.00
1891, 2583.00
1892, 2580.00
1893, 2581.00
1894, 2580.00
1895, 2579.00
1896, 2579.00
1897, 2578.00
1898, 2577.00
1899, 2577.00
1900, 2576.00
1901, 2577.00
1902, 2575.00
1903, 2576.00
1904, 2575.00
1905, 2575.00
1906, 2574.00
1907, 2575.00
1908, 2575.00
1909, 2573.00
1910, 2574.00
1911, 2572.00
1912, 2573.00
1913, 2574.00
1914, 2573.00
1915, 2572.00
1916, 2571.00
1917, 2572.00
1918, 2571.00
1919, 2571.00
1920, 2569.00
1921, 2571.00
1922, 2572.00
1923, 2571.00
1924, 2571.00
1925, 2570.00
1926, 2570.00
1927, 2571.00
1928, 2572.00
1929, 2571.00
1930, 2570.00
1931, 2572.00
1932, 2570.00
1933, 2571.00
1934, 2571.00
1935, 2572.00
1936, 2572.00
1937, 2570.00
1938, 2574.00
1939, 2571.00
1940, 2572.00
1941, 2572.00
1942, 2572.00
1943, 2574.00
1944, 2573.00
1945, 2571.00
1946, 2574.00
1947, 2572.00
1948, 2574.00
1949, 2574.00
1950, 2575.00
1951, 2575.00
1952, 2576.00
1953, 2576.00
1954, 2577.00
1955, 2575.00
1956, 2576.00
1957, 2577.00
1958, 2578.00
1959, 2580.00
1960, 2579.00
1961, 2581.00
1962, 2579.00
1963, 2579.00
1964, 2580.00
1965, 2581.00
1966, 2581.00
1967, 2580.00
1968, 2582.00
1969, 2583.00
1970, 2582.00
1971, 2584.00
1972, 2585.00
1973, 2586.00
1974, 2584.00
1975, 2586.00
1976, 2588.00
1977, 2587.00
1978, 2587.00
1979, 2588.00
1980, 2588.00
1981, 2590.00
1982, 2592.00
1983, 2593.00
1984, 2591.00
1985, 2594.00
1986, 2593.00
1987, 2595.00
1988, 2595.00
1989, 2594.00
1990, 2595.00
1991, 2595.00
1992, 2596.00
1993, 2596.00
1994, 2599.00
1995, 2598.00
1996, 2600.00
1997, 2600.00
1998, 2601.00
1999, 2599.00
2000, 2601.00
2001, 2601.00
2002, 2602.00
2003, 2603.00
2004, 2604.00
2005, 2605.00
2006, 2605.00
2007, 2607.00
2008, 2605.00
2009, 2605.00
2010, 2607.00
2011, 2609.00
2012, 2610.00
2013, 2609.00
2014, 2610.00
2015, 2612.00
2016, 2611.00
2017, 2612.00
2018, 2613.00
2019, 2613.00
2020, 2613.00
2021, 2615.00
2022, 2615.00
2023, 2616.00
2024, 2617.00
2025, 2616.00
2026, 2619.00
2027, 2619.00
2028, 2619.00
2029, 2618.00
2030, 2622.00
2031, 2619.00
2032, 2622.00
2033, 2621.00
2034, 2625.00
2035, 2625.00
2036, 2624.00
2037, 2624.00
2038, 2628.00
2039, 2626.00
2040, 2630.00
2041, 2628.00
2042, 2630.00
2043, 2631.00
2044, 2630.00
2045, 2632.00
2046, 2632.00
2047, 2636.00
2048, 2635.00
2049, 2637.00
2050, 2638.00
2051, 2639.00
2052, 2639.00
2053, 2639.00
2054, 2641.00
2055, 2641.00
2056, 2642.00
2057, 2645.00
2058, 2647.00
2059, 2647.00
2060, 2647.00
2061, 2649.00
2062, 2647.00
2063, 2650.00
2064, 2652.00
2065, 2649.00
2066, 2653.00
2067, 2655.00
2068, 2654.00
2069, 2656.00
2070, 2658.00
2071, 2659.00
2072, 2659.00
2073, 2657.00
2074, 2660.00
2075, 2662.00
2076, 2664.00
2077, 2664.00
2078, 2665.00
2079, 2665.00
2080, 2666.00
2081, 2669.00
2082, 2665.00
2083, 2670.00
2084, 2670.00
2085, 2669.00
2086, 2672.00
2087, 2674.00
2088, 2673.00
2089, 2675.00
2090, 2673.00
2091, 2675.00
2092, 2676.00
2093, 2676.00
2094, 2679.00
2095, 2679.00
2096, 2677.00
2097, 2680.00
2098, 2679.00
2099, 2682.00
2100, 2682.00
2101, 2682.00
2102, 2681.00
2103, 2683.00
2104, 2685.00
2105, 2684.00
2106, 2686.00
2107, 2687.00
2108, 2684.00
2109, 2688.00
2110, 2686.00
2111, 2686.00
2112, 2687.00
2113, 2688.00
2114, 2688.00
2115, 2689.00
2116, 2688.00
2117, 2689.00
2118, 2691.00
2119, 2690.00
2120, 2691.00
2121, 2692.00
2122, 2693.00
2123, 2693.00
2124, 2693.00
2125, 2694.00
2126, 2695.00
2127, 2696.00
2128, 2695.00
2129, 2696.00
2130, 2697.00
2131, 2695.00
2132, 2696.00
2133, 2695.00
2134, 2698.00
2135, 2698.00
2136, 2697.00
2137, 2700.00
2138, 2698.00
2139, 2700.00
2140, 2699.00
2141, 2700.00
2142, 2699.00
2143, 2699.00
2144, 2701.00
2145, 2701.00
2146, 2700.00
2147, 2702.00
2148, 2703.00
2149, 2702.00
2150, 2702.00
