FW version: 24
Log Version: 3.0.3

General Info:
       Command/Macro Performed,            Timestamp,             Device ID, COM Port, UART/I2C, Test Name, Host Major, Host Minor, Host Revision, Host Git Commit
            Single_measurement,  2023_06_30_11_20_14,       Insight2_F4_xxx,    USB-C,      USB,          ,          0,          1,             1,      4031237645

Show Spectrometer Status:
l0_version, f4_version, battery_perc, battery_mVolt, accelerometer_temp, accelerometer_x, accelerometer_y, accelerometer_z, compass_temp, compass_x, compass_y, compass_z, lamp_0, lamp_1, gain_0, gain_1
        17,         24,           94,          2073,               6192,           65168,             180,           18504,            0,     65461,     65527,     18506,   2866,   2866,      1,      1

Temperature Statistic Info:
NTC AVG [°C], NTC2 AVG [°C]
      39.116,        38.768

Statistic Info:
M1:  num,      min,      max,   median,      AVG,      STD,M2:  num,      min,      max,   median,      AVG,      STD
     301,  1507.00,  1740.00,  1556.00,  1583.78,  71.8034,     401,  2039.00,  2179.00,  2100.00,  2102.23,  45.9029,

Measurements:
Wavelength, Data Amplitude
1350, 1547.00
1351, 1547.00
1352, 1545.00
1353, 1545.00
1354, 1544.00
1355, 1543.00
1356, 1544.00
1357, 1542.00
1358, 1542.00
1359, 1542.00
1360, 1540.00
1361, 1538.00
1362, 1539.00
1363, 1536.00
1364, 1535.00
1365, 1535.00
1366, 1533.00
1367, 1533.00
1368, 1532.00
1369, 1531.00
1370, 1529.00
1371, 1528.00
1372, 1528.00
1373, 1526.00
1374, 1525.00
1375, 1524.00
1376, 1524.00
1377, 1522.00
1378, 1521.00
1379, 1521.00
1380, 1520.00
1381, 1520.00
1382, 1519.00
1383, 1518.00
1384, 1517.00
1385, 1516.00
1386, 1515.00
1387, 1515.00
1388, 1515.00
1389, 1516.00
1390, 1514.00
1391, 1513.00
1392, 1513.00
1393, 1513.00
1394, 1513.00
1395, 1512.00
1396, 1511.00
1397, 1512.00
1398, 1512.00
1399, 1511.00
1400, 1511.00
1401, 1510.00
1402, 1510.00
1403, 1510.00
1404, 1510.00
1405, 1510.00
1406, 1509.00
1407, 1509.00
1408, 1509.00
1409, 1509.00
1410, 1509.00
1411, 1509.00
1412, 1509.00
1413, 1509.00
1414, 1509.00
1415, 1508.00
1416, 1509.00
1417, 1509.00
1418, 1509.00
1419, 1509.00
1420, 1509.00
1421, 1507.00
1422, 1508.00
1423, 1509.00
1424, 1509.00
1425, 1508.00
1426, 1509.00
1427, 1508.00
1428, 1509.00
1429, 1510.00
1430, 1509.00
1431, 1510.00
1432, 1511.00
1433, 1510.00
1434, 1511.00
1435, 1511.00
1436, 1511.00
1437, 1512.00
1438, 1513.00
1439, 1513.00
1440, 1512.00
1441, 1513.00
1442, 1513.00
1443, 1513.00
1444, 1515.00
1445, 1515.00
1446, 1515.00
1447, 1516.00
1448, 1516.00
1449, 1516.00
1450, 1517.00
1451, 1517.00
1452, 1518.00
1453, 1517.00
1454, 1518.00
1455, 1519.00
1456, 1520.00
1457, 1520.00
1458, 1522.00
1459, 1522.00
1460, 1522.00
1461, 1523.00
1462, 1523.00
1463, 1524.00
1464, 1524.00
1465, 1524.00
1466, 1525.00
1467, 1526.00
1468, 1527.00
1469, 1527.00
1470, 1529.00
1471, 1530.00
1472, 1531.00
1473, 1531.00
1474, 1532.00
1475, 1532.00
1476, 1534.00
1477, 1535.00
1478, 1536.00
1479, 1537.00
1480, 1538.00
1481, 1539.00
1482, 1539.00
1483, 1540.00
1484, 1541.00
1485, 1542.00
1486, 1543.00
1487, 1543.00
1488, 1545.00
1489, 1545.00
1490, 1545.00
1491, 1547.00
1492, 1549.00
1493, 1548.00
1494, 1549.00
1495, 1552.00
1496, 1552.00
1497, 1552.00
1498, 1555.00
1499, 1555.00
1500, 1556.00
1501, 1556.00
1502, 1558.00
1503, 1558.00
1504, 1560.00
1505, 1560.00
1506, 1562.00
1507, 1563.00
1508, 1564.00
1509, 1565.00
1510, 1566.00
1511, 1566.00
1512, 1567.00
1513, 1569.00
1514, 1569.00
1515, 1570.00
1516, 1573.00
1517, 1573.00
1518, 1575.00
1519, 1575.00
1520, 1577.00
1521, 1578.00
1522, 1578.00
1523, 1579.00
1524, 1581.00
1525, 1582.00
1526, 1583.00
1527, 1585.00
1528, 1584.00
1529, 1587.00
1530, 1589.00
1531, 1588.00
1532, 1589.00
1533, 1591.00
1534, 1592.00
1535, 1594.00
1536, 1595.00
1537, 1597.00
1538, 1597.00
1539, 1599.00
1540, 1601.00
1541, 1600.00
1542, 1602.00
1543, 1603.00
1544, 1605.00
1545, 1605.00
1546, 1607.00
1547, 1608.00
1548, 1609.00
1549, 1610.00
1550, 1611.00
1551, 1613.00
1552, 1614.00
1553, 1615.00
1554, 1616.00
1555, 1618.00
1556, 1618.00
1557, 1620.00
1558, 1620.00
1559, 1623.00
1560, 1623.00
1561, 1625.00
1562, 1625.00
1563, 1628.00
1564, 1629.00
1565, 1629.00
1566, 1631.00
1567, 1632.00
1568, 1634.00
1569, 1636.00
1570, 1638.00
1571, 1638.00
1572, 1639.00
1573, 1640.00
1574, 1642.00
1575, 1643.00
1576, 1644.00
1577, 1646.00
1578, 1646.00
1579, 1649.00
1580, 1650.00
1581, 1650.00
1582, 1651.00
1583, 1653.00
1584, 1653.00
1585, 1655.00
1586, 1656.00
1587, 1657.00
1588, 1658.00
1589, 1659.00
1590, 1660.00
1591, 1661.00
1592, 1663.00
1593, 1663.00
1594, 1664.00
1595, 1664.00
1596, 1667.00
1597, 1668.00
1598, 1669.00
1599, 1670.00
1600, 1672.00
1601, 1673.00
1602, 1675.00
1603, 1675.00
1604, 1676.00
1605, 1678.00
1606, 1679.00
1607, 1680.00
1608, 1682.00
1609, 1683.00
1610, 1684.00
1611, 1687.00
1612, 1687.00
1613, 1688.00
1614, 1691.00
1615, 1692.00
1616, 1693.00
1617, 1696.00
1618, 1697.00
1619, 1698.00
1620, 1700.00
1621, 1701.00
1622, 1702.00
1623, 1704.00
1624, 1705.00
1625, 1707.00
1626, 1708.00
1627, 1710.00
1628, 1711.00
1629, 1713.00
1630, 1714.00
1631, 1715.00
1632, 1716.00
1633, 1718.00
1634, 1719.00
1635, 1720.00
1636, 1721.00
1637, 1722.00
1638, 1723.00
1639, 1725.00
1640, 1726.00
1641, 1727.00
1642, 1730.00
1643, 1730.00
1644, 1731.00
1645, 1733.00
1646, 1733.00
1647, 1735.00
1648, 1736.00
1649, 1737.00
1650, 1740.00

1750, 2178.00
1751, 2178.00
1752, 2178.00
1753, 2178.00
1754, 2177.00
1755, 2178.00
1756, 2177.00
1757, 2179.00
1758, 2177.00
1759, 2177.00
1760, 2178.00
1761, 2179.00
1762, 2177.00
1763, 2179.00
1764, 2178.00
1765, 2177.00
1766, 2177.00
1767, 2178.00
1768, 2176.00
1769, 2177.00
1770, 2176.00
1771, 2176.00
1772, 2175.00
1773, 2176.00
1774, 2176.00
1775, 2175.00
1776, 2174.00
1777, 2173.00
1778, 2170.00
1779, 2171.00
1780, 2172.00
1781, 2171.00
1782, 2173.00
1783, 2170.00
1784, 2170.00
1785, 2170.00
1786, 2170.00
1787, 2167.00
1788, 2166.00
1789, 2167.00
1790, 2167.00
1791, 2167.00
1792, 2165.00
1793, 2165.00
1794, 2166.00
1795, 2164.00
1796, 2164.00
1797, 2165.00
1798, 2162.00
1799, 2162.00
1800, 2163.00
1801, 2162.00
1802, 2162.00
1803, 2162.00
1804, 2161.00
1805, 2160.00
1806, 2160.00
1807, 2161.00
1808, 2161.00
1809, 2159.00
1810, 2159.00
1811, 2158.00
1812, 2157.00
1813, 2155.00
1814, 2157.00
1815, 2155.00
1816, 2155.00
1817, 2154.00
1818, 2155.00
1819, 2152.00
1820, 2154.00
1821, 2149.00
1822, 2150.00
1823, 2150.00
1824, 2148.00
1825, 2149.00
1826, 2145.00
1827, 2145.00
1828, 2143.00
1829, 2142.00
1830, 2142.00
1831, 2138.00
1832, 2137.00
1833, 2137.00
1834, 2136.00
1835, 2134.00
1836, 2131.00
1837, 2131.00
1838, 2128.00
1839, 2126.00
1840, 2125.00
1841, 2123.00
1842, 2121.00
1843, 2119.00
1844, 2116.00
1845, 2115.00
1846, 2113.00
1847, 2112.00
1848, 2109.00
1849, 2107.00
1850, 2103.00
1851, 2101.00
1852, 2099.00
1853, 2100.00
1854, 2094.00
1855, 2094.00
1856, 2090.00
1857, 2091.00
1858, 2086.00
1859, 2084.00
1860, 2084.00
1861, 2081.00
1862, 2079.00
1863, 2077.00
1864, 2075.00
1865, 2073.00
1866, 2072.00
1867, 2070.00
1868, 2069.00
1869, 2069.00
1870, 2066.00
1871, 2065.00
1872, 2064.00
1873, 2063.00
1874, 2062.00
1875, 2060.00
1876, 2058.00
1877, 2057.00
1878, 2057.00
1879, 2057.00
1880, 2056.00
1881, 2055.00
1882, 2056.00
1883, 2053.00
1884, 2054.00
1885, 2051.00
1886, 2050.00
1887, 2051.00
1888, 2052.00
1889, 2051.00
1890, 2050.00
1891, 2050.00
1892, 2049.00
1893, 2046.00
1894, 2049.00
1895, 2051.00
1896, 2046.00
1897, 2045.00
1898, 2047.00
1899, 2045.00
1900, 2046.00
1901, 2046.00
1902, 2044.00
1903, 2046.00
1904, 2042.00
1905, 2046.00
1906, 2044.00
1907, 2042.00
1908, 2044.00
1909, 2043.00
1910, 2044.00
1911, 2041.00
1912, 2040.00
1913, 2042.00
1914, 2041.00
1915, 2045.00
1916, 2042.00
1917, 2041.00
1918, 2042.00
1919, 2042.00
1920, 2041.00
1921, 2043.00
1922, 2041.00
1923, 2041.00
1924, 2041.00
1925, 2041.00
1926, 2040.00
1927, 2041.00
1928, 2040.00
1929, 2041.00
1930, 2041.00
1931, 2039.00
1932, 2042.00
1933, 2042.00
1934, 2039.00
1935, 2041.00
1936, 2041.00
1937, 2042.00
1938, 2040.00
1939, 2041.00
1940, 2041.00
1941, 2042.00
1942, 2043.00
1943, 2041.00
1944, 2044.00
1945, 2044.00
1946, 2043.00
1947, 2041.00
1948, 2045.00
1949, 2043.00
1950, 2045.00
1951, 2046.00
1952, 2045.00
1953, 2046.00
1954, 2046.00
1955, 2045.00
1956, 2045.00
1957, 2046.00
1958, 2047.00
1959, 2047.00
1960, 2049.00
1961, 2048.00
1962, 2049.00
1963, 2049.00
1964, 2050.00
1965, 2050.00
1966, 2050.00
1967, 2052.00
1968, 2051.00
1969, 2051.00
1970, 2052.00
1971, 2053.00
1972, 2054.00
1973, 2052.00
1974, 2056.00
1975, 2053.00
1976, 2056.00
1977, 2056.00
1978, 2058.00
1979, 2057.00
1980, 2056.00
1981, 2058.00
1982, 2058.00
1983, 2058.00
1984, 2059.00
1985, 2060.00
1986, 2059.00
1987, 2062.00
1988, 2061.00
1989, 2064.00
1990, 2063.00
1991, 2064.00
1992, 2064.00
1993, 2064.00
1994, 2064.00
1995, 2064.00
1996, 2066.00
1997, 2066.00
1998, 2067.00
1999, 2068.00
2000, 2070.00
2001, 2069.00
2002, 2068.00
2003, 2070.00
2004, 2070.00
2005, 2068.00
2006, 2073.00
2007, 2069.00
2008, 2070.00
2009, 2072.00
2010, 2073.00
2011, 2071.00
2012, 2073.00
2013, 2075.00
2014, 2073.00
2015, 2075.00
2016, 2077.00
2017, 2077.00
2018, 2077.00
2019, 2078.00
2020, 2078.00
2021, 2078.00
2022, 2079.00
2023, 2081.00
2024, 2080.00
2025, 2079.00
2026, 2081.00
2027, 2081.00
2028, 2083.00
2029, 2082.00
2030, 2082.00
2031, 2084.00
2032, 2085.00
2033, 2086.00
2034, 2086.00
2035, 2087.00
2036, 2087.00
2037, 2087.00
2038, 2089.00
2039, 2091.00
2040, 2088.00
2041, 2090.00
2042, 2092.00
2043, 2090.00
2044, 2092.00
2045, 2092.00
2046, 2093.00
2047, 2096.00
2048, 2096.00
2049, 2096.00
2050, 2096.00
2051, 2098.00
2052, 2098.00
2053, 2100.00
2054, 2100.00
2055, 2100.00
2056, 2103.00
2057, 2103.00
2058, 2103.00
2059, 2105.00
2060, 2104.00
2061, 2105.00
2062, 2108.00
2063, 2107.00
2064, 2108.00
2065, 2108.00
2066, 2109.00
2067, 2111.00
2068, 2113.00
2069, 2112.00
2070, 2114.00
2071, 2113.00
2072, 2115.00
2073, 2113.00
2074, 2115.00
2075, 2116.00
2076, 2118.00
2077, 2120.00
2078, 2118.00
2079, 2120.00
2080, 2121.00
2081, 2121.00
2082, 2124.00
2083, 2122.00
2084, 2123.00
2085, 2125.00
2086, 2125.00
2087, 2124.00
2088, 2125.00
2089, 2127.00
2090, 2127.00
2091, 2129.00
2092, 2129.00
2093, 2130.00
2094, 2130.00
2095, 2130.00
2096, 2130.00
2097, 2130.00
2098, 2131.00
2099, 2132.00
2100, 2132.00
2101, 2133.00
2102, 2132.00
2103, 2133.00
2104, 2135.00
2105, 2135.00
2106, 2136.00
2107, 2135.00
2108, 2138.00
2109, 2137.00
2110, 2137.00
2111, 2137.00
2112, 2136.00
2113, 2136.00
2114, 2138.00
2115, 2140.00
2116, 2140.00
2117, 2139.00
2118, 2140.00
2119, 2139.00
2120, 2141.00
2121, 2141.00
2122, 2140.00
2123, 2140.00
2124, 2141.00
2125, 2141.00
2126, 2142.00
2127, 2143.00
2128, 2144.00
2129, 2144.00
2130, 2145.00
2131, 2143.00
2132, 2146.00
2133, 2144.00
2134, 2143.00
2135, 2146.00
2136, 2145.00
2137, 2146.00
2138, 2145.00
2139, 2147.00
2140, 2146.00
2141, 2148.00
2142, 2147.00
2143, 2148.00
2144, 2147.00
2145, 2149.00
2146, 2147.00
2147, 2150.00
2148, 2148.00
2149, 2148.00
2150, 2149.00
