FW version: 24
Log Version: 3.0.3

General Info:
       Command/Macro Performed,            Timestamp,             Device ID, COM Port, UART/I2C, Test Name, Host Major, Host Minor, Host Revision, Host Git Commit
            Single_measurement,  2023_06_30_11_20_41,       Insight2_F4_xxx,    USB-C,      USB,          ,          0,          1,             1,      4031237645

Show Spectrometer Status:
l0_version, f4_version, battery_perc, battery_mVolt, accelerometer_temp, accelerometer_x, accelerometer_y, accelerometer_z, compass_temp, compass_x, compass_y, compass_z, lamp_0, lamp_1, gain_0, gain_1
        17,         24,           94,          2076,               6192,           65244,             224,           18564,            0,     65534,     65525,     65532,   3276,   3276,      1,      1

Temperature Statistic Info:
NTC AVG [°C], NTC2 AVG [°C]
      39.352,        38.997

Statistic Info:
M1:  num,      min,      max,   median,      AVG,      STD,M2:  num,      min,      max,   median,      AVG,      STD
     301,  1937.00,  2223.00,  1996.00,  2030.99,  89.3836,     401,  2529.00,  2704.00,  2603.00,  2606.29,  56.2712,

Measurements:
Wavelength, Data Amplitude
1350, 1988.00
1351, 1988.00
1352, 1986.00
1353, 1986.00
1354, 1985.00
1355, 1983.00
1356, 1983.00
1357, 1982.00
1358, 1982.00
1359, 1981.00
1360, 1979.00
1361, 1976.00
1362, 1977.00
1363, 1975.00
1364, 1972.00
1365, 1972.00
1366, 1971.00
1367, 1969.00
1368, 1968.00
1369, 1966.00
1370, 1966.00
1371, 1963.00
1372, 1962.00
1373, 1960.00
1374, 1960.00
1375, 1958.00
1376, 1957.00
1377, 1955.00
1378, 1954.00
1379, 1953.00
1380, 1953.00
1381, 1951.00
1382, 1952.00
1383, 1949.00
1384, 1949.00
1385, 1947.00
1386, 1946.00
1387, 1947.00
1388, 1945.00
1389, 1945.00
1390, 1945.00
1391, 1944.00
1392, 1944.00
1393, 1943.00
1394, 1941.00
1395, 1942.00
1396, 1942.00
1397, 1941.00
1398, 1940.00
1399, 1941.00
1400, 1941.00
1401, 1941.00
1402, 1940.00
1403, 1939.00
1404, 1939.00
1405, 1939.00
1406, 1938.00
1407, 1937.00
1408, 1939.00
1409, 1938.00
1410, 1937.00
1411, 1938.00
1412, 1937.00
1413, 1937.00
1414, 1938.00
1415, 1938.00
1416, 1937.00
1417, 1937.00
1418, 1937.00
1419, 1937.00
1420, 1937.00
1421, 1937.00
1422, 1937.00
1423, 1937.00
1424, 1937.00
1425, 1937.00
1426, 1938.00
1427, 1938.00
1428, 1938.00
1429, 1938.00
1430, 1939.00
1431, 1938.00
1432, 1938.00
1433, 1940.00
1434, 1940.00
1435, 1941.00
1436, 1940.00
1437, 1940.00
1438, 1941.00
1439, 1941.00
1440, 1943.00
1441, 1942.00
1442, 1943.00
1443, 1944.00
1444, 1944.00
1445, 1944.00
1446, 1944.00
1447, 1945.00
1448, 1946.00
1449, 1946.00
1450, 1947.00
1451, 1946.00
1452, 1948.00
1453, 1947.00
1454, 1949.00
1455, 1951.00
1456, 1951.00
1457, 1952.00
1458, 1953.00
1459, 1953.00
1460, 1953.00
1461, 1954.00
1462, 1955.00
1463, 1956.00
1464, 1956.00
1465, 1957.00
1466, 1959.00
1467, 1960.00
1468, 1960.00
1469, 1961.00
1470, 1963.00
1471, 1962.00
1472, 1965.00
1473, 1966.00
1474, 1965.00
1475, 1968.00
1476, 1968.00
1477, 1969.00
1478, 1970.00
1479, 1972.00
1480, 1972.00
1481, 1973.00
1482, 1974.00
1483, 1975.00
1484, 1977.00
1485, 1979.00
1486, 1979.00
1487, 1980.00
1488, 1982.00
1489, 1983.00
1490, 1984.00
1491, 1985.00
1492, 1986.00
1493, 1988.00
1494, 1988.00
1495, 1990.00
1496, 1991.00
1497, 1993.00
1498, 1994.00
1499, 1994.00
1500, 1996.00
1501, 1997.00
1502, 1998.00
1503, 1999.00
1504, 1999.00
1505, 2001.00
1506, 2003.00
1507, 2004.00
1508, 2004.00
1509, 2006.00
1510, 2008.00
1511, 2009.00
1512, 2011.00
1513, 2012.00
1514, 2014.00
1515, 2014.00
1516, 2017.00
1517, 2017.00
1518, 2018.00
1519, 2019.00
1520, 2021.00
1521, 2023.00
1522, 2023.00
1523, 2024.00
1524, 2027.00
1525, 2029.00
1526, 2029.00
1527, 2030.00
1528, 2032.00
1529, 2034.00
1530, 2035.00
1531, 2036.00
1532, 2037.00
1533, 2040.00
1534, 2040.00
1535, 2043.00
1536, 2043.00
1537, 2045.00
1538, 2046.00
1539, 2048.00
1540, 2051.00
1541, 2051.00
1542, 2053.00
1543, 2054.00
1544, 2056.00
1545, 2058.00
1546, 2058.00
1547, 2060.00
1548, 2062.00
1549, 2063.00
1550, 2064.00
1551, 2067.00
1552, 2067.00
1553, 2069.00
1554, 2072.00
1555, 2073.00
1556, 2075.00
1557, 2075.00
1558, 2076.00
1559, 2079.00
1560, 2081.00
1561, 2082.00
1562, 2084.00
1563, 2085.00
1564, 2087.00
1565, 2088.00
1566, 2092.00
1567, 2092.00
1568, 2094.00
1569, 2095.00
1570, 2097.00
1571, 2098.00
1572, 2101.00
1573, 2103.00
1574, 2104.00
1575, 2105.00
1576, 2106.00
1577, 2107.00
1578, 2109.00
1579, 2111.00
1580, 2113.00
1581, 2114.00
1582, 2116.00
1583, 2116.00
1584, 2118.00
1585, 2119.00
1586, 2121.00
1587, 2122.00
1588, 2123.00
1589, 2125.00
1590, 2127.00
1591, 2128.00
1592, 2130.00
1593, 2130.00
1594, 2132.00
1595, 2133.00
1596, 2135.00
1597, 2137.00
1598, 2138.00
1599, 2139.00
1600, 2142.00
1601, 2143.00
1602, 2143.00
1603, 2146.00
1604, 2147.00
1605, 2148.00
1606, 2150.00
1607, 2152.00
1608, 2153.00
1609, 2156.00
1610, 2158.00
1611, 2159.00
1612, 2161.00
1613, 2162.00
1614, 2164.00
1615, 2167.00
1616, 2168.00
1617, 2171.00
1618, 2172.00
1619, 2173.00
1620, 2176.00
1621, 2177.00
1622, 2178.00
1623, 2181.00
1624, 2181.00
1625, 2184.00
1626, 2186.00
1627, 2187.00
1628, 2190.00
1629, 2191.00
1630, 2192.00
1631, 2195.00
1632, 2196.00
1633, 2198.00
1634, 2200.00
1635, 2200.00
1636, 2203.00
1637, 2204.00
1638, 2205.00
1639, 2206.00
1640, 2207.00
1641, 2209.00
1642, 2211.00
1643, 2213.00
1644, 2214.00
1645, 2215.00
1646, 2217.00
1647, 2218.00
1648, 2220.00
1649, 2222.00
1650, 2223.00

1750, 2704.00
1751, 2701.00
1752, 2699.00
1753, 2701.00
1754, 2701.00
1755, 2701.00
1756, 2701.00
1757, 2701.00
1758, 2701.00
1759, 2699.00
1760, 2700.00
1761, 2701.00
1762, 2699.00
1763, 2701.00
1764, 2700.00
1765, 2699.00
1766, 2700.00
1767, 2699.00
1768, 2698.00
1769, 2697.00
1770, 2697.00
1771, 2698.00
1772, 2697.00
1773, 2698.00
1774, 2696.00
1775, 2696.00
1776, 2694.00
1777, 2696.00
1778, 2694.00
1779, 2694.00
1780, 2693.00
1781, 2693.00
1782, 2692.00
1783, 2691.00
1784, 2690.00
1785, 2691.00
1786, 2689.00
1787, 2689.00
1788, 2687.00
1789, 2685.00
1790, 2687.00
1791, 2688.00
1792, 2685.00
1793, 2687.00
1794, 2685.00
1795, 2684.00
1796, 2684.00
1797, 2684.00
1798, 2683.00
1799, 2682.00
1800, 2682.00
1801, 2681.00
1802, 2681.00
1803, 2681.00
1804, 2681.00
1805, 2680.00
1806, 2679.00
1807, 2679.00
1808, 2678.00
1809, 2675.00
1810, 2677.00
1811, 2676.00
1812, 2676.00
1813, 2675.00
1814, 2674.00
1815, 2673.00
1816, 2673.00
1817, 2672.00
1818, 2670.00
1819, 2669.00
1820, 2669.00
1821, 2667.00
1822, 2667.00
1823, 2666.00
1824, 2664.00
1825, 2663.00
1826, 2661.00
1827, 2659.00
1828, 2658.00
1829, 2656.00
1830, 2654.00
1831, 2651.00
1832, 2651.00
1833, 2651.00
1834, 2647.00
1835, 2645.00
1836, 2643.00
1837, 2640.00
1838, 2638.00
1839, 2638.00
1840, 2635.00
1841, 2632.00
1842, 2630.00
1843, 2626.00
1844, 2625.00
1845, 2620.00
1846, 2619.00
1847, 2617.00
1848, 2615.00
1849, 2612.00
1850, 2608.00
1851, 2605.00
1852, 2603.00
1853, 2603.00
1854, 2597.00
1855, 2595.00
1856, 2593.00
1857, 2590.00
1858, 2587.00
1859, 2585.00
1860, 2581.00
1861, 2578.00
1862, 2575.00
1863, 2575.00
1864, 2572.00
1865, 2572.00
1866, 2570.00
1867, 2567.00
1868, 2567.00
1869, 2564.00
1870, 2563.00
1871, 2561.00
1872, 2558.00
1873, 2559.00
1874, 2556.00
1875, 2553.00
1876, 2553.00
1877, 2553.00
1878, 2553.00
1879, 2551.00
1880, 2551.00
1881, 2550.00
1882, 2547.00
1883, 2546.00
1884, 2546.00
1885, 2546.00
1886, 2545.00
1887, 2544.00
1888, 2542.00
1889, 2544.00
1890, 2543.00
1891, 2543.00
1892, 2539.00
1893, 2540.00
1894, 2540.00
1895, 2540.00
1896, 2536.00
1897, 2537.00
1898, 2535.00
1899, 2536.00
1900, 2538.00
1901, 2536.00
1902, 2538.00
1903, 2536.00
1904, 2535.00
1905, 2534.00
1906, 2533.00
1907, 2534.00
1908, 2535.00
1909, 2535.00
1910, 2534.00
1911, 2534.00
1912, 2534.00
1913, 2532.00
1914, 2534.00
1915, 2533.00
1916, 2533.00
1917, 2534.00
1918, 2531.00
1919, 2532.00
1920, 2534.00
1921, 2532.00
1922, 2532.00
1923, 2529.00
1924, 2531.00
1925, 2532.00
1926, 2534.00
1927, 2532.00
1928, 2532.00
1929, 2531.00
1930, 2533.00
1931, 2534.00
1932, 2533.00
1933, 2532.00
1934, 2531.00
1935, 2532.00
1936, 2534.00
1937, 2533.00
1938, 2534.00
1939, 2532.00
1940, 2535.00
1941, 2533.00
1942, 2533.00
1943, 2535.00
1944, 2533.00
1945, 2537.00
1946, 2534.00
1947, 2534.00
1948, 2536.00
1949, 2535.00
1950, 2537.00
1951, 2536.00
1952, 2537.00
1953, 2535.00
1954, 2535.00
1955, 2537.00
1956, 2538.00
1957, 2540.00
1958, 2539.00
1959, 2541.00
1960, 2540.00
1961, 2539.00
1962, 2541.00
1963, 2542.00
1964, 2540.00
1965, 2544.00
1966, 2542.00
1967, 2545.00
1968, 2547.00
1969, 2545.00
1970, 2547.00
1971, 2546.00
1972, 2546.00
1973, 2546.00
1974, 2547.00
1975, 2547.00
1976, 2549.00
1977, 2552.00
1978, 2550.00
1979, 2550.00
1980, 2551.00
1981, 2551.00
1982, 2552.00
1983, 2553.00
1984, 2553.00
1985, 2554.00
1986, 2555.00
1987, 2557.00
1988, 2556.00
1989, 2557.00
1990, 2555.00
1991, 2559.00
1992, 2559.00
1993, 2559.00
1994, 2561.00
1995, 2560.00
1996, 2560.00
1997, 2562.00
1998, 2562.00
1999, 2563.00
2000, 2562.00
2001, 2565.00
2002, 2566.00
2003, 2565.00
2004, 2566.00
2005, 2569.00
2006, 2568.00
2007, 2569.00
2008, 2570.00
2009, 2570.00
2010, 2570.00
2011, 2569.00
2012, 2571.00
2013, 2573.00
2014, 2573.00
2015, 2573.00
2016, 2573.00
2017, 2574.00
2018, 2575.00
2019, 2577.00
2020, 2576.00
2021, 2578.00
2022, 2578.00
2023, 2578.00
2024, 2578.00
2025, 2581.00
2026, 2578.00
2027, 2582.00
2028, 2582.00
2029, 2581.00
2030, 2584.00
2031, 2583.00
2032, 2585.00
2033, 2586.00
2034, 2587.00
2035, 2586.00
2036, 2585.00
2037, 2588.00
2038, 2589.00
2039, 2591.00
2040, 2592.00
2041, 2591.00
2042, 2593.00
2043, 2594.00
2044, 2595.00
2045, 2594.00
2046, 2595.00
2047, 2598.00
2048, 2597.00
2049, 2599.00
2050, 2598.00
2051, 2601.00
2052, 2601.00
2053, 2603.00
2054, 2602.00
2055, 2605.00
2056, 2605.00
2057, 2606.00
2058, 2605.00
2059, 2607.00
2060, 2607.00
2061, 2609.00
2062, 2611.00
2063, 2612.00
2064, 2614.00
2065, 2614.00
2066, 2617.00
2067, 2615.00
2068, 2615.00
2069, 2617.00
2070, 2619.00
2071, 2619.00
2072, 2621.00
2073, 2619.00
2074, 2621.00
2075, 2623.00
2076, 2624.00
2077, 2626.00
2078, 2625.00
2079, 2626.00
2080, 2629.00
2081, 2628.00
2082, 2629.00
2083, 2631.00
2084, 2631.00
2085, 2632.00
2086, 2632.00
2087, 2633.00
2088, 2632.00
2089, 2636.00
2090, 2636.00
2091, 2637.00
2092, 2636.00
2093, 2638.00
2094, 2639.00
2095, 2638.00
2096, 2638.00
2097, 2639.00
2098, 2640.00
2099, 2643.00
2100, 2641.00
2101, 2642.00
2102, 2643.00
2103, 2644.00
2104, 2643.00
2105, 2646.00
2106, 2644.00
2107, 2645.00
2108, 2646.00
2109, 2644.00
2110, 2648.00
2111, 2647.00
2112, 2647.00
2113, 2647.00
2114, 2649.00
2115, 2649.00
2116, 2651.00
2117, 2649.00
2118, 2651.00
2119, 2648.00
2120, 2651.00
2121, 2651.00
2122, 2652.00
2123, 2653.00
2124, 2653.00
2125, 2653.00
2126, 2653.00
2127, 2655.00
2128, 2654.00
2129, 2654.00
2130, 2657.00
2131, 2657.00
2132, 2657.00
2133, 2657.00
2134, 2656.00
2135, 2655.00
2136, 2657.00
2137, 2659.00
2138, 2660.00
2139, 2659.00
2140, 2659.00
2141, 2658.00
2142, 2658.00
2143, 2658.00
2144, 2658.00
2145, 2660.00
2146, 2660.00
2147, 2661.00
2148, 2661.00
2149, 2661.00
2150, 2660.00
