FW version: 24
Log Version: 3.0.3

General Info:
       Command/Macro Performed,            Timestamp,             Device ID, COM Port, UART/I2C, Test Name, Host Major, Host Minor, Host Revision, Host Git Commit
            Single_measurement,  2023_06_30_11_19_24,       Insight2_F4_xxx,    USB-C,      USB,          ,          0,          1,             1,      4031237645

Show Spectrometer Status:
l0_version, f4_version, battery_perc, battery_mVolt, accelerometer_temp, accelerometer_x, accelerometer_y, accelerometer_z, compass_temp, compass_x, compass_y, compass_z, lamp_0, lamp_1, gain_0, gain_1
        17,         24,           94,          2075,               6128,           65304,              92,           18480,            0,     65337,     65375,     18484,   3276,   3276,      0,      0

Temperature Statistic Info:
NTC AVG [°C], NTC2 AVG [°C]
      38.768,        38.508

Statistic Info:
M1:  num,      min,      max,   median,      AVG,      STD,M2:  num,      min,      max,   median,      AVG,      STD
     301,   669.00,   768.00,   689.00,   701.56,  30.7366,     401,   875.00,   935.00,   900.00,   901.79,  19.4527,

Measurements:
Wavelength, Data Amplitude
1350, 687.00
1351, 687.00
1352, 686.00
1353, 687.00
1354, 686.00
1355, 686.00
1356, 685.00
1357, 685.00
1358, 685.00
1359, 684.00
1360, 684.00
1361, 684.00
1362, 683.00
1363, 682.00
1364, 682.00
1365, 682.00
1366, 681.00
1367, 681.00
1368, 681.00
1369, 680.00
1370, 679.00
1371, 679.00
1372, 678.00
1373, 677.00
1374, 677.00
1375, 677.00
1376, 677.00
1377, 676.00
1378, 675.00
1379, 675.00
1380, 675.00
1381, 675.00
1382, 674.00
1383, 674.00
1384, 674.00
1385, 673.00
1386, 673.00
1387, 673.00
1388, 672.00
1389, 672.00
1390, 672.00
1391, 672.00
1392, 672.00
1393, 672.00
1394, 671.00
1395, 672.00
1396, 671.00
1397, 671.00
1398, 671.00
1399, 670.00
1400, 670.00
1401, 670.00
1402, 670.00
1403, 670.00
1404, 670.00
1405, 670.00
1406, 669.00
1407, 670.00
1408, 670.00
1409, 669.00
1410, 670.00
1411, 669.00
1412, 669.00
1413, 669.00
1414, 669.00
1415, 669.00
1416, 669.00
1417, 670.00
1418, 669.00
1419, 669.00
1420, 669.00
1421, 669.00
1422, 669.00
1423, 670.00
1424, 670.00
1425, 669.00
1426, 669.00
1427, 669.00
1428, 670.00
1429, 669.00
1430, 669.00
1431, 670.00
1432, 670.00
1433, 669.00
1434, 670.00
1435, 670.00
1436, 670.00
1437, 670.00
1438, 670.00
1439, 671.00
1440, 671.00
1441, 671.00
1442, 671.00
1443, 672.00
1444, 672.00
1445, 671.00
1446, 672.00
1447, 672.00
1448, 672.00
1449, 672.00
1450, 673.00
1451, 673.00
1452, 673.00
1453, 673.00
1454, 673.00
1455, 673.00
1456, 674.00
1457, 673.00
1458, 675.00
1459, 674.00
1460, 675.00
1461, 675.00
1462, 675.00
1463, 676.00
1464, 676.00
1465, 676.00
1466, 677.00
1467, 677.00
1468, 677.00
1469, 678.00
1470, 678.00
1471, 678.00
1472, 679.00
1473, 679.00
1474, 679.00
1475, 679.00
1476, 680.00
1477, 680.00
1478, 681.00
1479, 681.00
1480, 681.00
1481, 682.00
1482, 682.00
1483, 683.00
1484, 683.00
1485, 683.00
1486, 683.00
1487, 684.00
1488, 685.00
1489, 685.00
1490, 685.00
1491, 686.00
1492, 686.00
1493, 687.00
1494, 687.00
1495, 687.00
1496, 688.00
1497, 688.00
1498, 688.00
1499, 689.00
1500, 689.00
1501, 689.00
1502, 690.00
1503, 690.00
1504, 691.00
1505, 692.00
1506, 692.00
1507, 692.00
1508, 693.00
1509, 693.00
1510, 694.00
1511, 693.00
1512, 695.00
1513, 695.00
1514, 695.00
1515, 696.00
1516, 696.00
1517, 697.00
1518, 697.00
1519, 697.00
1520, 698.00
1521, 698.00
1522, 699.00
1523, 700.00
1524, 700.00
1525, 700.00
1526, 701.00
1527, 702.00
1528, 702.00
1529, 703.00
1530, 703.00
1531, 704.00
1532, 704.00
1533, 705.00
1534, 705.00
1535, 705.00
1536, 706.00
1537, 706.00
1538, 707.00
1539, 708.00
1540, 708.00
1541, 708.00
1542, 709.00
1543, 710.00
1544, 710.00
1545, 710.00
1546, 711.00
1547, 712.00
1548, 712.00
1549, 713.00
1550, 713.00
1551, 714.00
1552, 714.00
1553, 714.00
1554, 715.00
1555, 716.00
1556, 716.00
1557, 717.00
1558, 718.00
1559, 718.00
1560, 719.00
1561, 719.00
1562, 719.00
1563, 720.00
1564, 720.00
1565, 721.00
1566, 722.00
1567, 723.00
1568, 723.00
1569, 724.00
1570, 724.00
1571, 725.00
1572, 726.00
1573, 725.00
1574, 726.00
1575, 727.00
1576, 727.00
1577, 728.00
1578, 728.00
1579, 729.00
1580, 729.00
1581, 730.00
1582, 730.00
1583, 731.00
1584, 731.00
1585, 732.00
1586, 732.00
1587, 733.00
1588, 733.00
1589, 734.00
1590, 734.00
1591, 735.00
1592, 735.00
1593, 736.00
1594, 736.00
1595, 737.00
1596, 737.00
1597, 738.00
1598, 738.00
1599, 739.00
1600, 739.00
1601, 739.00
1602, 740.00
1603, 741.00
1604, 742.00
1605, 742.00
1606, 743.00
1607, 744.00
1608, 744.00
1609, 744.00
1610, 745.00
1611, 745.00
1612, 746.00
1613, 747.00
1614, 747.00
1615, 748.00
1616, 748.00
1617, 750.00
1618, 750.00
1619, 750.00
1620, 751.00
1621, 751.00
1622, 752.00
1623, 753.00
1624, 754.00
1625, 754.00
1626, 755.00
1627, 756.00
1628, 756.00
1629, 757.00
1630, 757.00
1631, 758.00
1632, 759.00
1633, 759.00
1634, 759.00
1635, 760.00
1636, 761.00
1637, 761.00
1638, 762.00
1639, 762.00
1640, 763.00
1641, 763.00
1642, 764.00
1643, 764.00
1644, 765.00
1645, 765.00
1646, 766.00
1647, 766.00
1648, 767.00
1649, 768.00
1650, 767.00

1750, 935.00
1751, 935.00
1752, 935.00
1753, 935.00
1754, 935.00
1755, 935.00
1756, 934.00
1757, 934.00
1758, 935.00
1759, 935.00
1760, 935.00
1761, 935.00
1762, 934.00
1763, 934.00
1764, 934.00
1765, 934.00
1766, 934.00
1767, 934.00
1768, 934.00
1769, 934.00
1770, 933.00
1771, 934.00
1772, 934.00
1773, 933.00
1774, 933.00
1775, 933.00
1776, 933.00
1777, 933.00
1778, 932.00
1779, 932.00
1780, 932.00
1781, 932.00
1782, 932.00
1783, 931.00
1784, 931.00
1785, 930.00
1786, 930.00
1787, 931.00
1788, 930.00
1789, 930.00
1790, 930.00
1791, 930.00
1792, 929.00
1793, 929.00
1794, 928.00
1795, 928.00
1796, 929.00
1797, 929.00
1798, 928.00
1799, 928.00
1800, 928.00
1801, 929.00
1802, 927.00
1803, 928.00
1804, 928.00
1805, 927.00
1806, 927.00
1807, 927.00
1808, 927.00
1809, 927.00
1810, 926.00
1811, 926.00
1812, 925.00
1813, 926.00
1814, 925.00
1815, 925.00
1816, 925.00
1817, 924.00
1818, 924.00
1819, 924.00
1820, 923.00
1821, 923.00
1822, 923.00
1823, 922.00
1824, 922.00
1825, 921.00
1826, 921.00
1827, 921.00
1828, 920.00
1829, 919.00
1830, 919.00
1831, 918.00
1832, 918.00
1833, 917.00
1834, 916.00
1835, 915.00
1836, 915.00
1837, 915.00
1838, 913.00
1839, 913.00
1840, 911.00
1841, 911.00
1842, 910.00
1843, 909.00
1844, 907.00
1845, 906.00
1846, 907.00
1847, 906.00
1848, 905.00
1849, 904.00
1850, 902.00
1851, 902.00
1852, 901.00
1853, 900.00
1854, 898.00
1855, 898.00
1856, 896.00
1857, 897.00
1858, 895.00
1859, 895.00
1860, 894.00
1861, 893.00
1862, 892.00
1863, 892.00
1864, 891.00
1865, 890.00
1866, 889.00
1867, 889.00
1868, 888.00
1869, 887.00
1870, 887.00
1871, 886.00
1872, 885.00
1873, 885.00
1874, 885.00
1875, 885.00
1876, 884.00
1877, 883.00
1878, 883.00
1879, 883.00
1880, 883.00
1881, 882.00
1882, 882.00
1883, 882.00
1884, 881.00
1885, 881.00
1886, 881.00
1887, 881.00
1888, 880.00
1889, 880.00
1890, 879.00
1891, 879.00
1892, 880.00
1893, 879.00
1894, 880.00
1895, 879.00
1896, 878.00
1897, 878.00
1898, 878.00
1899, 878.00
1900, 878.00
1901, 877.00
1902, 878.00
1903, 878.00
1904, 878.00
1905, 877.00
1906, 877.00
1907, 877.00
1908, 877.00
1909, 877.00
1910, 877.00
1911, 877.00
1912, 877.00
1913, 876.00
1914, 876.00
1915, 876.00
1916, 877.00
1917, 876.00
1918, 876.00
1919, 876.00
1920, 877.00
1921, 876.00
1922, 876.00
1923, 876.00
1924, 876.00
1925, 876.00
1926, 875.00
1927, 877.00
1928, 876.00
1929, 876.00
1930, 877.00
1931, 876.00
1932, 876.00
1933, 876.00
1934, 876.00
1935, 877.00
1936, 876.00
1937, 875.00
1938, 877.00
1939, 877.00
1940, 877.00
1941, 877.00
1942, 877.00
1943, 877.00
1944, 876.00
1945, 878.00
1946, 877.00
1947, 877.00
1948, 877.00
1949, 877.00
1950, 877.00
1951, 877.00
1952, 877.00
1953, 878.00
1954, 877.00
1955, 878.00
1956, 878.00
1957, 878.00
1958, 878.00
1959, 879.00
1960, 879.00
1961, 879.00
1962, 879.00
1963, 880.00
1964, 880.00
1965, 880.00
1966, 880.00
1967, 880.00
1968, 880.00
1969, 880.00
1970, 881.00
1971, 880.00
1972, 881.00
1973, 882.00
1974, 882.00
1975, 882.00
1976, 882.00
1977, 882.00
1978, 882.00
1979, 883.00
1980, 882.00
1981, 883.00
1982, 884.00
1983, 884.00
1984, 884.00
1985, 883.00
1986, 884.00
1987, 885.00
1988, 885.00
1989, 885.00
1990, 885.00
1991, 885.00
1992, 886.00
1993, 886.00
1994, 886.00
1995, 886.00
1996, 887.00
1997, 887.00
1998, 886.00
1999, 887.00
2000, 887.00
2001, 887.00
2002, 888.00
2003, 888.00
2004, 888.00
2005, 889.00
2006, 888.00
2007, 889.00
2008, 888.00
2009, 889.00
2010, 889.00
2011, 889.00
2012, 890.00
2013, 891.00
2014, 890.00
2015, 890.00
2016, 890.00
2017, 890.00
2018, 891.00
2019, 892.00
2020, 891.00
2021, 892.00
2022, 892.00
2023, 892.00
2024, 892.00
2025, 893.00
2026, 892.00
2027, 892.00
2028, 894.00
2029, 893.00
2030, 894.00
2031, 894.00
2032, 894.00
2033, 894.00
2034, 894.00
2035, 895.00
2036, 895.00
2037, 895.00
2038, 895.00
2039, 895.00
2040, 896.00
2041, 897.00
2042, 896.00
2043, 897.00
2044, 896.00
2045, 897.00
2046, 898.00
2047, 898.00
2048, 899.00
2049, 899.00
2050, 899.00
2051, 900.00
2052, 900.00
2053, 899.00
2054, 900.00
2055, 901.00
2056, 901.00
2057, 901.00
2058, 902.00
2059, 902.00
2060, 902.00
2061, 903.00
2062, 904.00
2063, 903.00
2064, 904.00
2065, 904.00
2066, 905.00
2067, 905.00
2068, 905.00
2069, 905.00
2070, 905.00
2071, 906.00
2072, 906.00
2073, 906.00
2074, 907.00
2075, 907.00
2076, 908.00
2077, 908.00
2078, 908.00
2079, 909.00
2080, 909.00
2081, 911.00
2082, 910.00
2083, 910.00
2084, 910.00
2085, 911.00
2086, 910.00
2087, 911.00
2088, 910.00
2089, 911.00
2090, 912.00
2091, 912.00
2092, 912.00
2093, 913.00
2094, 913.00
2095, 913.00
2096, 912.00
2097, 914.00
2098, 914.00
2099, 914.00
2100, 914.00
2101, 914.00
2102, 914.00
2103, 914.00
2104, 914.00
2105, 915.00
2106, 915.00
2107, 915.00
2108, 916.00
2109, 916.00
2110, 915.00
2111, 916.00
2112, 916.00
2113, 915.00
2114, 916.00
2115, 916.00
2116, 916.00
2117, 917.00
2118, 917.00
2119, 917.00
2120, 917.00
2121, 917.00
2122, 917.00
2123, 917.00
2124, 917.00
2125, 918.00
2126, 918.00
2127, 918.00
2128, 918.00
2129, 918.00
2130, 919.00
2131, 918.00
2132, 919.00
2133, 919.00
2134, 919.00
2135, 919.00
2136, 919.00
2137, 919.00
2138, 920.00
2139, 920.00
2140, 920.00
2141, 920.00
2142, 920.00
2143, 919.00
2144, 920.00
2145, 920.00
2146, 921.00
2147, 920.00
2148, 920.00
2149, 920.00
2150, 920.00
