FW version: 24
Log Version: 3.0.3

General Info:
       Command/Macro Performed,            Timestamp,             Device ID, COM Port, UART/I2C, Test Name, Host Major, Host Minor, Host Revision, Host Git Commit
            Single_measurement,  2023_07_04_10_48_02,       Insight2_F4_xxx,    USB-C,      USB,          ,          0,          1,             1,      4031237645

Show Spectrometer Status:
l0_version, f4_version, battery_perc, battery_mVolt, accelerometer_temp, accelerometer_x, accelerometer_y, accelerometer_z, compass_temp, compass_x, compass_y, compass_z, lamp_0, lamp_1, gain_0, gain_1
        17,         24,            3,          1793,               5072,           64724,            1548,           19040,            0,     65501,     65421,     19065,   2866,   2866,      1,      1

Temperature Statistic Info:
NTC AVG [°C], NTC2 AVG [°C]
      34.679,        34.312

Statistic Info:
M1:  num,      min,      max,   median,      AVG,      STD,M2:  num,      min,      max,   median,      AVG,      STD
     301,  1279.00,  1474.00,  1319.00,  1342.96,  60.0346,     401,  1743.00,  1857.00,  1789.00,  1792.34,  36.8069,

Measurements:
Wavelength, Data Amplitude
1350, 1315.00
1351, 1314.00
1352, 1313.00
1353, 1313.00
1354, 1312.00
1355, 1312.00
1356, 1312.00
1357, 1311.00
1358, 1310.00
1359, 1309.00
1360, 1309.00
1361, 1308.00
1362, 1306.00
1363, 1307.00
1364, 1305.00
1365, 1304.00
1366, 1302.00
1367, 1302.00
1368, 1302.00
1369, 1300.00
1370, 1299.00
1371, 1298.00
1372, 1297.00
1373, 1297.00
1374, 1295.00
1375, 1295.00
1376, 1294.00
1377, 1292.00
1378, 1292.00
1379, 1292.00
1380, 1290.00
1381, 1292.00
1382, 1290.00
1383, 1288.00
1384, 1288.00
1385, 1288.00
1386, 1288.00
1387, 1287.00
1388, 1286.00
1389, 1286.00
1390, 1284.00
1391, 1285.00
1392, 1286.00
1393, 1285.00
1394, 1284.00
1395, 1283.00
1396, 1284.00
1397, 1283.00
1398, 1282.00
1399, 1282.00
1400, 1283.00
1401, 1282.00
1402, 1281.00
1403, 1281.00
1404, 1281.00
1405, 1282.00
1406, 1282.00
1407, 1282.00
1408, 1281.00
1409, 1281.00
1410, 1281.00
1411, 1281.00
1412, 1281.00
1413, 1280.00
1414, 1280.00
1415, 1280.00
1416, 1280.00
1417, 1280.00
1418, 1280.00
1419, 1279.00
1420, 1280.00
1421, 1280.00
1422, 1280.00
1423, 1280.00
1424, 1280.00
1425, 1279.00
1426, 1280.00
1427, 1279.00
1428, 1281.00
1429, 1280.00
1430, 1281.00
1431, 1281.00
1432, 1280.00
1433, 1282.00
1434, 1282.00
1435, 1282.00
1436, 1282.00
1437, 1283.00
1438, 1282.00
1439, 1283.00
1440, 1283.00
1441, 1283.00
1442, 1283.00
1443, 1284.00
1444, 1285.00
1445, 1284.00
1446, 1285.00
1447, 1285.00
1448, 1285.00
1449, 1285.00
1450, 1286.00
1451, 1286.00
1452, 1288.00
1453, 1287.00
1454, 1288.00
1455, 1288.00
1456, 1288.00
1457, 1288.00
1458, 1290.00
1459, 1290.00
1460, 1290.00
1461, 1291.00
1462, 1291.00
1463, 1291.00
1464, 1292.00
1465, 1293.00
1466, 1295.00
1467, 1295.00
1468, 1296.00
1469, 1295.00
1470, 1297.00
1471, 1297.00
1472, 1297.00
1473, 1298.00
1474, 1298.00
1475, 1300.00
1476, 1301.00
1477, 1300.00
1478, 1302.00
1479, 1302.00
1480, 1303.00
1481, 1304.00
1482, 1305.00
1483, 1305.00
1484, 1306.00
1485, 1306.00
1486, 1307.00
1487, 1309.00
1488, 1309.00
1489, 1310.00
1490, 1311.00
1491, 1312.00
1492, 1312.00
1493, 1313.00
1494, 1314.00
1495, 1315.00
1496, 1316.00
1497, 1317.00
1498, 1317.00
1499, 1318.00
1500, 1320.00
1501, 1319.00
1502, 1320.00
1503, 1321.00
1504, 1322.00
1505, 1324.00
1506, 1324.00
1507, 1325.00
1508, 1326.00
1509, 1327.00
1510, 1327.00
1511, 1329.00
1512, 1329.00
1513, 1330.00
1514, 1331.00
1515, 1332.00
1516, 1333.00
1517, 1334.00
1518, 1335.00
1519, 1335.00
1520, 1337.00
1521, 1338.00
1522, 1338.00
1523, 1339.00
1524, 1341.00
1525, 1342.00
1526, 1342.00
1527, 1343.00
1528, 1344.00
1529, 1345.00
1530, 1346.00
1531, 1347.00
1532, 1347.00
1533, 1349.00
1534, 1351.00
1535, 1351.00
1536, 1352.00
1537, 1354.00
1538, 1354.00
1539, 1355.00
1540, 1356.00
1541, 1358.00
1542, 1357.00
1543, 1359.00
1544, 1359.00
1545, 1360.00
1546, 1361.00
1547, 1362.00
1548, 1363.00
1549, 1365.00
1550, 1365.00
1551, 1367.00
1552, 1367.00
1553, 1369.00
1554, 1369.00
1555, 1371.00
1556, 1372.00
1557, 1372.00
1558, 1374.00
1559, 1374.00
1560, 1375.00
1561, 1378.00
1562, 1378.00
1563, 1379.00
1564, 1381.00
1565, 1381.00
1566, 1382.00
1567, 1383.00
1568, 1384.00
1569, 1386.00
1570, 1386.00
1571, 1388.00
1572, 1389.00
1573, 1390.00
1574, 1390.00
1575, 1391.00
1576, 1392.00
1577, 1395.00
1578, 1395.00
1579, 1396.00
1580, 1397.00
1581, 1398.00
1582, 1399.00
1583, 1399.00
1584, 1400.00
1585, 1401.00
1586, 1402.00
1587, 1403.00
1588, 1405.00
1589, 1406.00
1590, 1406.00
1591, 1408.00
1592, 1408.00
1593, 1410.00
1594, 1410.00
1595, 1411.00
1596, 1412.00
1597, 1413.00
1598, 1415.00
1599, 1415.00
1600, 1416.00
1601, 1417.00
1602, 1418.00
1603, 1419.00
1604, 1421.00
1605, 1422.00
1606, 1422.00
1607, 1424.00
1608, 1425.00
1609, 1426.00
1610, 1427.00
1611, 1428.00
1612, 1430.00
1613, 1431.00
1614, 1433.00
1615, 1434.00
1616, 1435.00
1617, 1437.00
1618, 1437.00
1619, 1439.00
1620, 1439.00
1621, 1441.00
1622, 1442.00
1623, 1444.00
1624, 1445.00
1625, 1447.00
1626, 1448.00
1627, 1448.00
1628, 1450.00
1629, 1451.00
1630, 1452.00
1631, 1453.00
1632, 1454.00
1633, 1455.00
1634, 1457.00
1635, 1457.00
1636, 1459.00
1637, 1459.00
1638, 1461.00
1639, 1462.00
1640, 1463.00
1641, 1464.00
1642, 1465.00
1643, 1466.00
1644, 1467.00
1645, 1468.00
1646, 1469.00
1647, 1470.00
1648, 1471.00
1649, 1471.00
1650, 1474.00

1750, 1853.00
1751, 1854.00
1752, 1854.00
1753, 1855.00
1754, 1855.00
1755, 1854.00
1756, 1856.00
1757, 1854.00
1758, 1855.00
1759, 1856.00
1760, 1854.00
1761, 1857.00
1762, 1854.00
1763, 1853.00
1764, 1855.00
1765, 1852.00
1766, 1855.00
1767, 1855.00
1768, 1854.00
1769, 1855.00
1770, 1853.00
1771, 1852.00
1772, 1850.00
1773, 1851.00
1774, 1852.00
1775, 1852.00
1776, 1850.00
1777, 1851.00
1778, 1851.00
1779, 1850.00
1780, 1850.00
1781, 1851.00
1782, 1849.00
1783, 1848.00
1784, 1849.00
1785, 1849.00
1786, 1849.00
1787, 1847.00
1788, 1847.00
1789, 1847.00
1790, 1846.00
1791, 1848.00
1792, 1846.00
1793, 1845.00
1794, 1846.00
1795, 1844.00
1796, 1844.00
1797, 1845.00
1798, 1844.00
1799, 1845.00
1800, 1842.00
1801, 1840.00
1802, 1842.00
1803, 1842.00
1804, 1843.00
1805, 1840.00
1806, 1842.00
1807, 1840.00
1808, 1841.00
1809, 1840.00
1810, 1839.00
1811, 1840.00
1812, 1840.00
1813, 1839.00
1814, 1838.00
1815, 1839.00
1816, 1836.00
1817, 1836.00
1818, 1834.00
1819, 1835.00
1820, 1834.00
1821, 1833.00
1822, 1833.00
1823, 1831.00
1824, 1833.00
1825, 1832.00
1826, 1829.00
1827, 1830.00
1828, 1829.00
1829, 1828.00
1830, 1826.00
1831, 1826.00
1832, 1823.00
1833, 1822.00
1834, 1822.00
1835, 1819.00
1836, 1818.00
1837, 1817.00
1838, 1815.00
1839, 1814.00
1840, 1814.00
1841, 1812.00
1842, 1810.00
1843, 1807.00
1844, 1805.00
1845, 1805.00
1846, 1803.00
1847, 1801.00
1848, 1801.00
1849, 1797.00
1850, 1797.00
1851, 1795.00
1852, 1791.00
1853, 1791.00
1854, 1791.00
1855, 1786.00
1856, 1786.00
1857, 1783.00
1858, 1784.00
1859, 1781.00
1860, 1779.00
1861, 1777.00
1862, 1776.00
1863, 1774.00
1864, 1772.00
1865, 1772.00
1866, 1771.00
1867, 1769.00
1868, 1767.00
1869, 1767.00
1870, 1765.00
1871, 1765.00
1872, 1762.00
1873, 1762.00
1874, 1762.00
1875, 1761.00
1876, 1761.00
1877, 1758.00
1878, 1759.00
1879, 1758.00
1880, 1757.00
1881, 1756.00
1882, 1755.00
1883, 1754.00
1884, 1755.00
1885, 1754.00
1886, 1754.00
1887, 1752.00
1888, 1751.00
1889, 1752.00
1890, 1750.00
1891, 1751.00
1892, 1752.00
1893, 1748.00
1894, 1751.00
1895, 1749.00
1896, 1749.00
1897, 1749.00
1898, 1748.00
1899, 1749.00
1900, 1748.00
1901, 1747.00
1902, 1748.00
1903, 1748.00
1904, 1747.00
1905, 1747.00
1906, 1748.00
1907, 1745.00
1908, 1746.00
1909, 1746.00
1910, 1748.00
1911, 1746.00
1912, 1745.00
1913, 1746.00
1914, 1746.00
1915, 1745.00
1916, 1744.00
1917, 1745.00
1918, 1744.00
1919, 1744.00
1920, 1746.00
1921, 1745.00
1922, 1744.00
1923, 1744.00
1924, 1743.00
1925, 1744.00
1926, 1744.00
1927, 1745.00
1928, 1744.00
1929, 1744.00
1930, 1746.00
1931, 1745.00
1932, 1745.00
1933, 1744.00
1934, 1744.00
1935, 1746.00
1936, 1745.00
1937, 1746.00
1938, 1745.00
1939, 1745.00
1940, 1745.00
1941, 1745.00
1942, 1747.00
1943, 1745.00
1944, 1747.00
1945, 1747.00
1946, 1747.00
1947, 1745.00
1948, 1747.00
1949, 1746.00
1950, 1746.00
1951, 1748.00
1952, 1747.00
1953, 1747.00
1954, 1748.00
1955, 1748.00
1956, 1748.00
1957, 1746.00
1958, 1748.00
1959, 1749.00
1960, 1748.00
1961, 1750.00
1962, 1751.00
1963, 1751.00
1964, 1749.00
1965, 1751.00
1966, 1750.00
1967, 1752.00
1968, 1753.00
1969, 1751.00
1970, 1753.00
1971, 1753.00
1972, 1752.00
1973, 1754.00
1974, 1753.00
1975, 1754.00
1976, 1754.00
1977, 1755.00
1978, 1755.00
1979, 1756.00
1980, 1756.00
1981, 1756.00
1982, 1758.00
1983, 1756.00
1984, 1759.00
1985, 1758.00
1986, 1759.00
1987, 1759.00
1988, 1761.00
1989, 1759.00
1990, 1758.00
1991, 1759.00
1992, 1760.00
1993, 1761.00
1994, 1761.00
1995, 1761.00
1996, 1762.00
1997, 1762.00
1998, 1763.00
1999, 1763.00
2000, 1763.00
2001, 1763.00
2002, 1763.00
2003, 1765.00
2004, 1765.00
2005, 1764.00
2006, 1766.00
2007, 1768.00
2008, 1767.00
2009, 1766.00
2010, 1767.00
2011, 1768.00
2012, 1769.00
2013, 1769.00
2014, 1768.00
2015, 1768.00
2016, 1768.00
2017, 1768.00
2018, 1769.00
2019, 1769.00
2020, 1772.00
2021, 1772.00
2022, 1773.00
2023, 1772.00
2024, 1773.00
2025, 1773.00
2026, 1774.00
2027, 1775.00
2028, 1775.00
2029, 1775.00
2030, 1775.00
2031, 1775.00
2032, 1777.00
2033, 1777.00
2034, 1778.00
2035, 1778.00
2036, 1779.00
2037, 1779.00
2038, 1780.00
2039, 1781.00
2040, 1780.00
2041, 1781.00
2042, 1781.00
2043, 1782.00
2044, 1783.00
2045, 1782.00
2046, 1784.00
2047, 1783.00
2048, 1785.00
2049, 1785.00
2050, 1785.00
2051, 1787.00
2052, 1787.00
2053, 1788.00
2054, 1788.00
2055, 1789.00
2056, 1789.00
2057, 1791.00
2058, 1791.00
2059, 1791.00
2060, 1791.00
2061, 1793.00
2062, 1794.00
2063, 1794.00
2064, 1793.00
2065, 1796.00
2066, 1797.00
2067, 1796.00
2068, 1798.00
2069, 1799.00
2070, 1798.00
2071, 1798.00
2072, 1800.00
2073, 1800.00
2074, 1801.00
2075, 1801.00
2076, 1801.00
2077, 1804.00
2078, 1805.00
2079, 1803.00
2080, 1806.00
2081, 1806.00
2082, 1805.00
2083, 1806.00
2084, 1807.00
2085, 1807.00
2086, 1808.00
2087, 1808.00
2088, 1809.00
2089, 1808.00
2090, 1809.00
2091, 1809.00
2092, 1809.00
2093, 1811.00
2094, 1812.00
2095, 1815.00
2096, 1812.00
2097, 1813.00
2098, 1814.00
2099, 1813.00
2100, 1813.00
2101, 1814.00
2102, 1814.00
2103, 1816.00
2104, 1815.00
2105, 1816.00
2106, 1816.00
2107, 1816.00
2108, 1817.00
2109, 1817.00
2110, 1815.00
2111, 1816.00
2112, 1819.00
2113, 1819.00
2114, 1819.00
2115, 1819.00
2116, 1820.00
2117, 1819.00
2118, 1820.00
2119, 1819.00
2120, 1819.00
2121, 1821.00
2122, 1819.00
2123, 1821.00
2124, 1822.00
2125, 1821.00
2126, 1821.00
2127, 1822.00
2128, 1823.00
2129, 1823.00
2130, 1823.00
2131, 1822.00
2132, 1823.00
2133, 1823.00
2134, 1824.00
2135, 1823.00
2136, 1825.00
2137, 1824.00
2138, 1825.00
2139, 1825.00
2140, 1826.00
2141, 1825.00
2142, 1824.00
2143, 1825.00
2144, 1826.00
2145, 1827.00
2146, 1827.00
2147, 1827.00
2148, 1826.00
2149, 1828.00
2150, 1827.00
