FW version: 24
Log Version: 3.0.3

General Info:
       Command/Macro Performed,            Timestamp,             Device ID, COM Port, UART/I2C, Test Name, Host Major, Host Minor, Host Revision, Host Git Commit
            Single_measurement,  2023_07_04_10_48_22,       Insight2_F4_xxx,    USB-C,      USB,          ,          0,          1,             1,      4031237645

Show Spectrometer Status:
l0_version, f4_version, battery_perc, battery_mVolt, accelerometer_temp, accelerometer_x, accelerometer_y, accelerometer_z, compass_temp, compass_x, compass_y, compass_z, lamp_0, lamp_1, gain_0, gain_1
        17,         24,            4,          1791,               5104,           64716,            1616,           18968,            0,     65485,     65492,     19070,   3276,   3276,      1,      1

Temperature Statistic Info:
NTC AVG [°C], NTC2 AVG [°C]
      34.846,        34.482

Statistic Info:
M1:  num,      min,      max,   median,      AVG,      STD,M2:  num,      min,      max,   median,      AVG,      STD
     301,  1644.00,  1885.00,  1692.00,  1723.09,  74.6597,     401,  2164.00,  2304.00,  2219.00,  2223.84,  45.4448,

Measurements:
Wavelength, Data Amplitude
1350, 1691.00
1351, 1690.00
1352, 1689.00
1353, 1688.00
1354, 1687.00
1355, 1686.00
1356, 1686.00
1357, 1685.00
1358, 1684.00
1359, 1682.00
1360, 1681.00
1361, 1680.00
1362, 1681.00
1363, 1679.00
1364, 1677.00
1365, 1677.00
1366, 1675.00
1367, 1675.00
1368, 1674.00
1369, 1670.00
1370, 1672.00
1371, 1668.00
1372, 1668.00
1373, 1666.00
1374, 1666.00
1375, 1665.00
1376, 1663.00
1377, 1663.00
1378, 1661.00
1379, 1661.00
1380, 1659.00
1381, 1659.00
1382, 1658.00
1383, 1657.00
1384, 1657.00
1385, 1655.00
1386, 1654.00
1387, 1654.00
1388, 1654.00
1389, 1653.00
1390, 1653.00
1391, 1651.00
1392, 1651.00
1393, 1651.00
1394, 1650.00
1395, 1650.00
1396, 1650.00
1397, 1648.00
1398, 1649.00
1399, 1647.00
1400, 1648.00
1401, 1647.00
1402, 1648.00
1403, 1647.00
1404, 1647.00
1405, 1647.00
1406, 1647.00
1407, 1647.00
1408, 1645.00
1409, 1646.00
1410, 1646.00
1411, 1645.00
1412, 1646.00
1413, 1645.00
1414, 1645.00
1415, 1645.00
1416, 1645.00
1417, 1645.00
1418, 1645.00
1419, 1645.00
1420, 1644.00
1421, 1644.00
1422, 1644.00
1423, 1646.00
1424, 1644.00
1425, 1645.00
1426, 1644.00
1427, 1645.00
1428, 1645.00
1429, 1645.00
1430, 1646.00
1431, 1646.00
1432, 1645.00
1433, 1646.00
1434, 1647.00
1435, 1646.00
1436, 1646.00
1437, 1647.00
1438, 1649.00
1439, 1649.00
1440, 1649.00
1441, 1649.00
1442, 1649.00
1443, 1649.00
1444, 1650.00
1445, 1649.00
1446, 1650.00
1447, 1651.00
1448, 1651.00
1449, 1653.00
1450, 1652.00
1451, 1652.00
1452, 1654.00
1453, 1654.00
1454, 1654.00
1455, 1655.00
1456, 1655.00
1457, 1656.00
1458, 1656.00
1459, 1657.00
1460, 1658.00
1461, 1658.00
1462, 1658.00
1463, 1659.00
1464, 1660.00
1465, 1661.00
1466, 1662.00
1467, 1662.00
1468, 1663.00
1469, 1662.00
1470, 1665.00
1471, 1664.00
1472, 1666.00
1473, 1666.00
1474, 1667.00
1475, 1669.00
1476, 1669.00
1477, 1670.00
1478, 1671.00
1479, 1672.00
1480, 1672.00
1481, 1674.00
1482, 1674.00
1483, 1675.00
1484, 1676.00
1485, 1677.00
1486, 1678.00
1487, 1680.00
1488, 1680.00
1489, 1682.00
1490, 1682.00
1491, 1684.00
1492, 1684.00
1493, 1685.00
1494, 1686.00
1495, 1687.00
1496, 1688.00
1497, 1689.00
1498, 1690.00
1499, 1691.00
1500, 1692.00
1501, 1693.00
1502, 1695.00
1503, 1696.00
1504, 1696.00
1505, 1698.00
1506, 1699.00
1507, 1699.00
1508, 1701.00
1509, 1701.00
1510, 1703.00
1511, 1704.00
1512, 1705.00
1513, 1706.00
1514, 1708.00
1515, 1708.00
1516, 1710.00
1517, 1711.00
1518, 1711.00
1519, 1713.00
1520, 1715.00
1521, 1715.00
1522, 1717.00
1523, 1718.00
1524, 1719.00
1525, 1719.00
1526, 1721.00
1527, 1723.00
1528, 1723.00
1529, 1725.00
1530, 1727.00
1531, 1727.00
1532, 1728.00
1533, 1731.00
1534, 1730.00
1535, 1733.00
1536, 1733.00
1537, 1734.00
1538, 1736.00
1539, 1737.00
1540, 1739.00
1541, 1739.00
1542, 1741.00
1543, 1742.00
1544, 1744.00
1545, 1745.00
1546, 1745.00
1547, 1746.00
1548, 1748.00
1549, 1748.00
1550, 1750.00
1551, 1751.00
1552, 1753.00
1553, 1754.00
1554, 1755.00
1555, 1758.00
1556, 1758.00
1557, 1760.00
1558, 1761.00
1559, 1763.00
1560, 1763.00
1561, 1765.00
1562, 1766.00
1563, 1767.00
1564, 1769.00
1565, 1770.00
1566, 1772.00
1567, 1772.00
1568, 1774.00
1569, 1775.00
1570, 1778.00
1571, 1778.00
1572, 1779.00
1573, 1781.00
1574, 1782.00
1575, 1783.00
1576, 1786.00
1577, 1787.00
1578, 1788.00
1579, 1789.00
1580, 1791.00
1581, 1791.00
1582, 1793.00
1583, 1793.00
1584, 1795.00
1585, 1797.00
1586, 1798.00
1587, 1799.00
1588, 1799.00
1589, 1801.00
1590, 1802.00
1591, 1804.00
1592, 1804.00
1593, 1806.00
1594, 1808.00
1595, 1807.00
1596, 1809.00
1597, 1811.00
1598, 1812.00
1599, 1814.00
1600, 1815.00
1601, 1816.00
1602, 1817.00
1603, 1819.00
1604, 1819.00
1605, 1822.00
1606, 1823.00
1607, 1825.00
1608, 1826.00
1609, 1829.00
1610, 1828.00
1611, 1830.00
1612, 1833.00
1613, 1833.00
1614, 1834.00
1615, 1837.00
1616, 1836.00
1617, 1839.00
1618, 1842.00
1619, 1843.00
1620, 1844.00
1621, 1845.00
1622, 1847.00
1623, 1848.00
1624, 1851.00
1625, 1853.00
1626, 1853.00
1627, 1855.00
1628, 1856.00
1629, 1858.00
1630, 1859.00
1631, 1861.00
1632, 1862.00
1633, 1862.00
1634, 1865.00
1635, 1866.00
1636, 1867.00
1637, 1867.00
1638, 1869.00
1639, 1871.00
1640, 1872.00
1641, 1874.00
1642, 1874.00
1643, 1875.00
1644, 1878.00
1645, 1880.00
1646, 1879.00
1647, 1880.00
1648, 1882.00
1649, 1883.00
1650, 1885.00

1750, 2304.00
1751, 2303.00
1752, 2300.00
1753, 2302.00
1754, 2301.00
1755, 2303.00
1756, 2303.00
1757, 2301.00
1758, 2304.00
1759, 2302.00
1760, 2301.00
1761, 2301.00
1762, 2301.00
1763, 2302.00
1764, 2301.00
1765, 2300.00
1766, 2301.00
1767, 2303.00
1768, 2299.00
1769, 2301.00
1770, 2300.00
1771, 2299.00
1772, 2299.00
1773, 2299.00
1774, 2301.00
1775, 2299.00
1776, 2298.00
1777, 2297.00
1778, 2297.00
1779, 2298.00
1780, 2297.00
1781, 2296.00
1782, 2297.00
1783, 2295.00
1784, 2296.00
1785, 2295.00
1786, 2295.00
1787, 2293.00
1788, 2292.00
1789, 2293.00
1790, 2292.00
1791, 2293.00
1792, 2290.00
1793, 2291.00
1794, 2290.00
1795, 2290.00
1796, 2289.00
1797, 2289.00
1798, 2287.00
1799, 2287.00
1800, 2287.00
1801, 2286.00
1802, 2286.00
1803, 2285.00
1804, 2285.00
1805, 2284.00
1806, 2284.00
1807, 2284.00
1808, 2283.00
1809, 2283.00
1810, 2283.00
1811, 2281.00
1812, 2279.00
1813, 2280.00
1814, 2279.00
1815, 2280.00
1816, 2280.00
1817, 2280.00
1818, 2277.00
1819, 2277.00
1820, 2276.00
1821, 2275.00
1822, 2274.00
1823, 2275.00
1824, 2273.00
1825, 2272.00
1826, 2269.00
1827, 2271.00
1828, 2268.00
1829, 2267.00
1830, 2266.00
1831, 2265.00
1832, 2262.00
1833, 2262.00
1834, 2259.00
1835, 2259.00
1836, 2257.00
1837, 2255.00
1838, 2253.00
1839, 2251.00
1840, 2249.00
1841, 2249.00
1842, 2245.00
1843, 2242.00
1844, 2242.00
1845, 2239.00
1846, 2237.00
1847, 2235.00
1848, 2234.00
1849, 2231.00
1850, 2228.00
1851, 2228.00
1852, 2224.00
1853, 2223.00
1854, 2220.00
1855, 2218.00
1856, 2217.00
1857, 2213.00
1858, 2211.00
1859, 2210.00
1860, 2208.00
1861, 2205.00
1862, 2203.00
1863, 2203.00
1864, 2201.00
1865, 2198.00
1866, 2198.00
1867, 2196.00
1868, 2193.00
1869, 2194.00
1870, 2191.00
1871, 2190.00
1872, 2188.00
1873, 2188.00
1874, 2187.00
1875, 2185.00
1876, 2184.00
1877, 2181.00
1878, 2182.00
1879, 2181.00
1880, 2181.00
1881, 2180.00
1882, 2179.00
1883, 2176.00
1884, 2178.00
1885, 2176.00
1886, 2178.00
1887, 2176.00
1888, 2175.00
1889, 2175.00
1890, 2175.00
1891, 2173.00
1892, 2175.00
1893, 2173.00
1894, 2171.00
1895, 2173.00
1896, 2172.00
1897, 2172.00
1898, 2171.00
1899, 2171.00
1900, 2168.00
1901, 2171.00
1902, 2170.00
1903, 2169.00
1904, 2169.00
1905, 2169.00
1906, 2167.00
1907, 2166.00
1908, 2168.00
1909, 2168.00
1910, 2165.00
1911, 2167.00
1912, 2166.00
1913, 2166.00
1914, 2165.00
1915, 2166.00
1916, 2167.00
1917, 2166.00
1918, 2164.00
1919, 2165.00
1920, 2165.00
1921, 2165.00
1922, 2167.00
1923, 2165.00
1924, 2165.00
1925, 2165.00
1926, 2165.00
1927, 2165.00
1928, 2166.00
1929, 2165.00
1930, 2164.00
1931, 2167.00
1932, 2165.00
1933, 2165.00
1934, 2166.00
1935, 2164.00
1936, 2165.00
1937, 2167.00
1938, 2165.00
1939, 2165.00
1940, 2165.00
1941, 2167.00
1942, 2166.00
1943, 2165.00
1944, 2168.00
1945, 2167.00
1946, 2165.00
1947, 2169.00
1948, 2166.00
1949, 2166.00
1950, 2167.00
1951, 2167.00
1952, 2168.00
1953, 2168.00
1954, 2168.00
1955, 2169.00
1956, 2171.00
1957, 2169.00
1958, 2170.00
1959, 2170.00
1960, 2172.00
1961, 2171.00
1962, 2171.00
1963, 2172.00
1964, 2175.00
1965, 2172.00
1966, 2173.00
1967, 2172.00
1968, 2175.00
1969, 2176.00
1970, 2174.00
1971, 2174.00
1972, 2175.00
1973, 2175.00
1974, 2177.00
1975, 2178.00
1976, 2178.00
1977, 2177.00
1978, 2178.00
1979, 2178.00
1980, 2179.00
1981, 2180.00
1982, 2181.00
1983, 2180.00
1984, 2180.00
1985, 2181.00
1986, 2182.00
1987, 2181.00
1988, 2184.00
1989, 2184.00
1990, 2183.00
1991, 2185.00
1992, 2184.00
1993, 2185.00
1994, 2185.00
1995, 2186.00
1996, 2186.00
1997, 2187.00
1998, 2188.00
1999, 2187.00
2000, 2188.00
2001, 2189.00
2002, 2189.00
2003, 2188.00
2004, 2191.00
2005, 2190.00
2006, 2189.00
2007, 2191.00
2008, 2192.00
2009, 2193.00
2010, 2191.00
2011, 2193.00
2012, 2195.00
2013, 2194.00
2014, 2195.00
2015, 2194.00
2016, 2195.00
2017, 2195.00
2018, 2196.00
2019, 2198.00
2020, 2197.00
2021, 2196.00
2022, 2199.00
2023, 2199.00
2024, 2199.00
2025, 2201.00
2026, 2202.00
2027, 2201.00
2028, 2203.00
2029, 2202.00
2030, 2202.00
2031, 2203.00
2032, 2204.00
2033, 2205.00
2034, 2205.00
2035, 2206.00
2036, 2206.00
2037, 2208.00
2038, 2209.00
2039, 2208.00
2040, 2207.00
2041, 2210.00
2042, 2209.00
2043, 2210.00
2044, 2209.00
2045, 2212.00
2046, 2212.00
2047, 2214.00
2048, 2215.00
2049, 2214.00
2050, 2215.00
2051, 2216.00
2052, 2217.00
2053, 2217.00
2054, 2219.00
2055, 2219.00
2056, 2219.00
2057, 2221.00
2058, 2221.00
2059, 2222.00
2060, 2224.00
2061, 2223.00
2062, 2227.00
2063, 2225.00
2064, 2225.00
2065, 2227.00
2066, 2227.00
2067, 2228.00
2068, 2229.00
2069, 2230.00
2070, 2231.00
2071, 2231.00
2072, 2231.00
2073, 2233.00
2074, 2233.00
2075, 2234.00
2076, 2233.00
2077, 2237.00
2078, 2236.00
2079, 2237.00
2080, 2237.00
2081, 2238.00
2082, 2239.00
2083, 2241.00
2084, 2240.00
2085, 2240.00
2086, 2241.00
2087, 2242.00
2088, 2243.00
2089, 2243.00
2090, 2242.00
2091, 2246.00
2092, 2245.00
2093, 2246.00
2094, 2246.00
2095, 2248.00
2096, 2248.00
2097, 2248.00
2098, 2249.00
2099, 2249.00
2100, 2249.00
2101, 2249.00
2102, 2250.00
2103, 2252.00
2104, 2251.00
2105, 2251.00
2106, 2252.00
2107, 2251.00
2108, 2253.00
2109, 2253.00
2110, 2254.00
2111, 2253.00
2112, 2254.00
2113, 2253.00
2114, 2255.00
2115, 2256.00
2116, 2255.00
2117, 2257.00
2118, 2256.00
2119, 2256.00
2120, 2257.00
2121, 2257.00
2122, 2258.00
2123, 2256.00
2124, 2259.00
2125, 2259.00
2126, 2259.00
2127, 2259.00
2128, 2260.00
2129, 2259.00
2130, 2260.00
2131, 2261.00
2132, 2261.00
2133, 2259.00
2134, 2261.00
2135, 2261.00
2136, 2262.00
2137, 2261.00
2138, 2264.00
2139, 2263.00
2140, 2263.00
2141, 2263.00
2142, 2263.00
2143, 2264.00
2144, 2263.00
2145, 2264.00
2146, 2264.00
2147, 2262.00
2148, 2265.00
2149, 2265.00
2150, 2265.00
