FW version: 24
Log Version: 3.0.3

General Info:
       Command/Macro Performed,            Timestamp,             Device ID, COM Port, UART/I2C, Test Name, Host Major, Host Minor, Host Revision, Host Git Commit
            Single_measurement,  2023_07_11_12_13_28,       Insight2_F4_xxx,    USB-C,      USB,          ,          0,          1,             1,      4031237645

Show Spectrometer Status:
l0_version, f4_version, battery_perc, battery_mVolt, accelerometer_temp, accelerometer_x, accelerometer_y, accelerometer_z, compass_temp, compass_x, compass_y, compass_z, lamp_0, lamp_1, gain_0, gain_1
        17,         24,           53,          1920,               7104,           64724,            1444,           18828,            0,     65501,     65508,     18925,   2047,   2047,      1,      1

Temperature Statistic Info:
NTC AVG [°C], NTC2 AVG [°C]
      42.644,        42.373

Statistic Info:
M1:  num,      min,      max,   median,      AVG,      STD,M2:  num,      min,      max,   median,      AVG,      STD
     301,   718.00,   827.00,   746.00,   756.24,  34.8465,     401,  1125.00,  1190.00,  1159.00,  1158.53,  22.6623,

Measurements:
Wavelength, Data Amplitude
1350, 728.00
1351, 729.00
1352, 729.00
1353, 728.00
1354, 729.00
1355, 727.00
1356, 728.00
1357, 727.00
1358, 727.00
1359, 726.00
1360, 726.00
1361, 726.00
1362, 726.00
1363, 727.00
1364, 726.00
1365, 726.00
1366, 725.00
1367, 726.00
1368, 725.00
1369, 724.00
1370, 725.00
1371, 725.00
1372, 723.00
1373, 723.00
1374, 723.00
1375, 723.00
1376, 722.00
1377, 722.00
1378, 721.00
1379, 722.00
1380, 721.00
1381, 722.00
1382, 721.00
1383, 722.00
1384, 720.00
1385, 722.00
1386, 720.00
1387, 720.00
1388, 720.00
1389, 720.00
1390, 719.00
1391, 719.00
1392, 721.00
1393, 721.00
1394, 720.00
1395, 719.00
1396, 719.00
1397, 719.00
1398, 720.00
1399, 720.00
1400, 719.00
1401, 720.00
1402, 720.00
1403, 719.00
1404, 719.00
1405, 719.00
1406, 720.00
1407, 720.00
1408, 718.00
1409, 719.00
1410, 720.00
1411, 719.00
1412, 720.00
1413, 719.00
1414, 719.00
1415, 719.00
1416, 719.00
1417, 720.00
1418, 718.00
1419, 719.00
1420, 720.00
1421, 720.00
1422, 719.00
1423, 720.00
1424, 720.00
1425, 720.00
1426, 720.00
1427, 720.00
1428, 720.00
1429, 722.00
1430, 721.00
1431, 722.00
1432, 721.00
1433, 721.00
1434, 721.00
1435, 722.00
1436, 722.00
1437, 722.00
1438, 723.00
1439, 723.00
1440, 723.00
1441, 723.00
1442, 723.00
1443, 723.00
1444, 723.00
1445, 724.00
1446, 725.00
1447, 725.00
1448, 725.00
1449, 725.00
1450, 726.00
1451, 726.00
1452, 725.00
1453, 727.00
1454, 726.00
1455, 727.00
1456, 727.00
1457, 727.00
1458, 728.00
1459, 728.00
1460, 729.00
1461, 728.00
1462, 730.00
1463, 730.00
1464, 730.00
1465, 730.00
1466, 729.00
1467, 731.00
1468, 731.00
1469, 732.00
1470, 732.00
1471, 732.00
1472, 732.00
1473, 733.00
1474, 733.00
1475, 735.00
1476, 733.00
1477, 735.00
1478, 735.00
1479, 736.00
1480, 737.00
1481, 736.00
1482, 738.00
1483, 738.00
1484, 738.00
1485, 739.00
1486, 740.00
1487, 740.00
1488, 740.00
1489, 739.00
1490, 741.00
1491, 741.00
1492, 743.00
1493, 742.00
1494, 743.00
1495, 744.00
1496, 744.00
1497, 745.00
1498, 745.00
1499, 746.00
1500, 746.00
1501, 746.00
1502, 748.00
1503, 746.00
1504, 749.00
1505, 748.00
1506, 749.00
1507, 750.00
1508, 750.00
1509, 751.00
1510, 750.00
1511, 751.00
1512, 752.00
1513, 752.00
1514, 753.00
1515, 754.00
1516, 754.00
1517, 755.00
1518, 756.00
1519, 756.00
1520, 756.00
1521, 756.00
1522, 757.00
1523, 757.00
1524, 758.00
1525, 758.00
1526, 758.00
1527, 759.00
1528, 761.00
1529, 761.00
1530, 761.00
1531, 762.00
1532, 762.00
1533, 762.00
1534, 763.00
1535, 764.00
1536, 764.00
1537, 766.00
1538, 766.00
1539, 766.00
1540, 766.00
1541, 766.00
1542, 768.00
1543, 768.00
1544, 768.00
1545, 769.00
1546, 771.00
1547, 771.00
1548, 771.00
1549, 771.00
1550, 772.00
1551, 773.00
1552, 773.00
1553, 774.00
1554, 775.00
1555, 775.00
1556, 776.00
1557, 776.00
1558, 776.00
1559, 777.00
1560, 778.00
1561, 778.00
1562, 779.00
1563, 778.00
1564, 780.00
1565, 781.00
1566, 781.00
1567, 780.00
1568, 783.00
1569, 782.00
1570, 783.00
1571, 784.00
1572, 784.00
1573, 785.00
1574, 786.00
1575, 786.00
1576, 786.00
1577, 786.00
1578, 787.00
1579, 787.00
1580, 788.00
1581, 789.00
1582, 789.00
1583, 789.00
1584, 790.00
1585, 792.00
1586, 792.00
1587, 792.00
1588, 792.00
1589, 794.00
1590, 794.00
1591, 793.00
1592, 795.00
1593, 795.00
1594, 795.00
1595, 796.00
1596, 796.00
1597, 797.00
1598, 798.00
1599, 797.00
1600, 799.00
1601, 800.00
1602, 800.00
1603, 800.00
1604, 801.00
1605, 801.00
1606, 802.00
1607, 803.00
1608, 803.00
1609, 804.00
1610, 804.00
1611, 806.00
1612, 806.00
1613, 806.00
1614, 807.00
1615, 809.00
1616, 809.00
1617, 809.00
1618, 810.00
1619, 811.00
1620, 811.00
1621, 812.00
1622, 813.00
1623, 813.00
1624, 814.00
1625, 815.00
1626, 816.00
1627, 816.00
1628, 817.00
1629, 816.00
1630, 818.00
1631, 818.00
1632, 819.00
1633, 820.00
1634, 820.00
1635, 820.00
1636, 821.00
1637, 821.00
1638, 821.00
1639, 822.00
1640, 823.00
1641, 824.00
1642, 823.00
1643, 824.00
1644, 824.00
1645, 825.00
1646, 826.00
1647, 826.00
1648, 827.00
1649, 826.00
1650, 827.00

1750, 1187.00
1751, 1187.00
1752, 1187.00
1753, 1189.00
1754, 1188.00
1755, 1189.00
1756, 1187.00
1757, 1188.00
1758, 1189.00
1759, 1189.00
1760, 1188.00
1761, 1189.00
1762, 1188.00
1763, 1189.00
1764, 1187.00
1765, 1189.00
1766, 1186.00
1767, 1187.00
1768, 1189.00
1769, 1189.00
1770, 1187.00
1771, 1188.00
1772, 1187.00
1773, 1188.00
1774, 1187.00
1775, 1187.00
1776, 1186.00
1777, 1186.00
1778, 1187.00
1779, 1187.00
1780, 1184.00
1781, 1186.00
1782, 1186.00
1783, 1184.00
1784, 1184.00
1785, 1184.00
1786, 1184.00
1787, 1184.00
1788, 1185.00
1789, 1185.00
1790, 1185.00
1791, 1183.00
1792, 1185.00
1793, 1182.00
1794, 1183.00
1795, 1183.00
1796, 1182.00
1797, 1183.00
1798, 1183.00
1799, 1181.00
1800, 1180.00
1801, 1180.00
1802, 1180.00
1803, 1183.00
1804, 1182.00
1805, 1182.00
1806, 1179.00
1807, 1180.00
1808, 1181.00
1809, 1180.00
1810, 1179.00
1811, 1179.00
1812, 1181.00
1813, 1180.00
1814, 1179.00
1815, 1178.00
1816, 1178.00
1817, 1180.00
1818, 1177.00
1819, 1178.00
1820, 1179.00
1821, 1177.00
1822, 1178.00
1823, 1178.00
1824, 1178.00
1825, 1178.00
1826, 1175.00
1827, 1174.00
1828, 1175.00
1829, 1175.00
1830, 1173.00
1831, 1172.00
1832, 1173.00
1833, 1173.00
1834, 1170.00
1835, 1168.00
1836, 1167.00
1837, 1169.00
1838, 1168.00
1839, 1166.00
1840, 1167.00
1841, 1165.00
1842, 1162.00
1843, 1163.00
1844, 1163.00
1845, 1161.00
1846, 1161.00
1847, 1160.00
1848, 1159.00
1849, 1157.00
1850, 1158.00
1851, 1155.00
1852, 1156.00
1853, 1154.00
1854, 1152.00
1855, 1152.00
1856, 1150.00
1857, 1150.00
1858, 1149.00
1859, 1147.00
1860, 1145.00
1861, 1145.00
1862, 1143.00
1863, 1143.00
1864, 1144.00
1865, 1140.00
1866, 1140.00
1867, 1142.00
1868, 1139.00
1869, 1139.00
1870, 1139.00
1871, 1137.00
1872, 1136.00
1873, 1138.00
1874, 1136.00
1875, 1135.00
1876, 1134.00
1877, 1133.00
1878, 1134.00
1879, 1134.00
1880, 1133.00
1881, 1131.00
1882, 1133.00
1883, 1131.00
1884, 1130.00
1885, 1130.00
1886, 1132.00
1887, 1131.00
1888, 1130.00
1889, 1129.00
1890, 1130.00
1891, 1129.00
1892, 1129.00
1893, 1128.00
1894, 1128.00
1895, 1131.00
1896, 1128.00
1897, 1126.00
1898, 1128.00
1899, 1129.00
1900, 1127.00
1901, 1126.00
1902, 1125.00
1903, 1126.00
1904, 1127.00
1905, 1126.00
1906, 1127.00
1907, 1126.00
1908, 1126.00
1909, 1128.00
1910, 1126.00
1911, 1129.00
1912, 1125.00
1913, 1127.00
1914, 1127.00
1915, 1126.00
1916, 1127.00
1917, 1125.00
1918, 1125.00
1919, 1127.00
1920, 1129.00
1921, 1126.00
1922, 1126.00
1923, 1127.00
1924, 1125.00
1925, 1126.00
1926, 1125.00
1927, 1127.00
1928, 1126.00
1929, 1127.00
1930, 1127.00
1931, 1128.00
1932, 1127.00
1933, 1126.00
1934, 1127.00
1935, 1125.00
1936, 1129.00
1937, 1127.00
1938, 1126.00
1939, 1127.00
1940, 1128.00
1941, 1126.00
1942, 1126.00
1943, 1127.00
1944, 1127.00
1945, 1129.00
1946, 1127.00
1947, 1127.00
1948, 1128.00
1949, 1129.00
1950, 1128.00
1951, 1129.00
1952, 1129.00
1953, 1131.00
1954, 1129.00
1955, 1131.00
1956, 1130.00
1957, 1130.00
1958, 1130.00
1959, 1132.00
1960, 1131.00
1961, 1131.00
1962, 1133.00
1963, 1132.00
1964, 1132.00
1965, 1132.00
1966, 1133.00
1967, 1132.00
1968, 1134.00
1969, 1133.00
1970, 1137.00
1971, 1134.00
1972, 1135.00
1973, 1134.00
1974, 1137.00
1975, 1135.00
1976, 1135.00
1977, 1136.00
1978, 1138.00
1979, 1137.00
1980, 1137.00
1981, 1137.00
1982, 1138.00
1983, 1138.00
1984, 1138.00
1985, 1139.00
1986, 1138.00
1987, 1140.00
1988, 1140.00
1989, 1142.00
1990, 1141.00
1991, 1140.00
1992, 1142.00
1993, 1141.00
1994, 1141.00
1995, 1142.00
1996, 1142.00
1997, 1142.00
1998, 1145.00
1999, 1143.00
2000, 1143.00
2001, 1145.00
2002, 1146.00
2003, 1145.00
2004, 1143.00
2005, 1144.00
2006, 1147.00
2007, 1146.00
2008, 1145.00
2009, 1146.00
2010, 1145.00
2011, 1147.00
2012, 1147.00
2013, 1148.00
2014, 1148.00
2015, 1148.00
2016, 1149.00
2017, 1149.00
2018, 1149.00
2019, 1149.00
2020, 1150.00
2021, 1150.00
2022, 1151.00
2023, 1149.00
2024, 1151.00
2025, 1151.00
2026, 1149.00
2027, 1153.00
2028, 1151.00
2029, 1152.00
2030, 1154.00
2031, 1153.00
2032, 1154.00
2033, 1154.00
2034, 1153.00
2035, 1154.00
2036, 1155.00
2037, 1156.00
2038, 1156.00
2039, 1156.00
2040, 1155.00
2041, 1156.00
2042, 1158.00
2043, 1158.00
2044, 1159.00
2045, 1159.00
2046, 1159.00
2047, 1159.00
2048, 1159.00
2049, 1160.00
2050, 1159.00
2051, 1162.00
2052, 1162.00
2053, 1161.00
2054, 1162.00
2055, 1162.00
2056, 1164.00
2057, 1163.00
2058, 1165.00
2059, 1165.00
2060, 1166.00
2061, 1166.00
2062, 1165.00
2063, 1166.00
2064, 1166.00
2065, 1169.00
2066, 1170.00
2067, 1169.00
2068, 1168.00
2069, 1170.00
2070, 1169.00
2071, 1171.00
2072, 1173.00
2073, 1170.00
2074, 1171.00
2075, 1171.00
2076, 1173.00
2077, 1172.00
2078, 1173.00
2079, 1173.00
2080, 1173.00
2081, 1173.00
2082, 1175.00
2083, 1174.00
2084, 1175.00
2085, 1175.00
2086, 1176.00
2087, 1178.00
2088, 1178.00
2089, 1177.00
2090, 1177.00
2091, 1178.00
2092, 1179.00
2093, 1178.00
2094, 1178.00
2095, 1179.00
2096, 1180.00
2097, 1179.00
2098, 1180.00
2099, 1179.00
2100, 1180.00
2101, 1180.00
2102, 1181.00
2103, 1181.00
2104, 1181.00
2105, 1181.00
2106, 1182.00
2107, 1182.00
2108, 1183.00
2109, 1183.00
2110, 1183.00
2111, 1183.00
2112, 1183.00
2113, 1182.00
2114, 1183.00
2115, 1183.00
2116, 1185.00
2117, 1184.00
2118, 1183.00
2119, 1184.00
2120, 1185.00
2121, 1183.00
2122, 1185.00
2123, 1185.00
2124, 1186.00
2125, 1186.00
2126, 1186.00
2127, 1187.00
2128, 1185.00
2129, 1186.00
2130, 1185.00
2131, 1189.00
2132, 1187.00
2133, 1186.00
2134, 1186.00
2135, 1187.00
2136, 1187.00
2137, 1186.00
2138, 1188.00
2139, 1188.00
2140, 1189.00
2141, 1189.00
2142, 1190.00
2143, 1188.00
2144, 1188.00
2145, 1189.00
2146, 1190.00
2147, 1188.00
2148, 1188.00
2149, 1188.00
2150, 1189.00
