FW version: 24
Log Version: 3.0.3

General Info:
       Command/Macro Performed,            Timestamp,             Device ID, COM Port, UART/I2C, Test Name, Host Major, Host Minor, Host Revision, Host Git Commit
            Single_measurement,  2023_07_11_12_13_09,       Insight2_F4_xxx,    USB-C,      USB,          ,          0,          1,             1,      4031237645

Show Spectrometer Status:
l0_version, f4_version, battery_perc, battery_mVolt, accelerometer_temp, accelerometer_x, accelerometer_y, accelerometer_z, compass_temp, compass_x, compass_y, compass_z, lamp_0, lamp_1, gain_0, gain_1
        17,         24,           53,          1915,               7104,           64712,            1424,           18828,            0,     65503,     65521,     18926,   3276,   3276,      0,      0

Temperature Statistic Info:
NTC AVG [°C], NTC2 AVG [°C]
      42.614,        42.283

Statistic Info:
M1:  num,      min,      max,   median,      AVG,      STD,M2:  num,      min,      max,   median,      AVG,      STD
     301,   621.00,   705.00,   640.00,   649.08,  26.4787,     401,   857.00,   906.00,   881.00,   880.84,  16.5678,

Measurements:
Wavelength, Data Amplitude
1350, 631.00
1351, 632.00
1352, 631.00
1353, 631.00
1354, 631.00
1355, 630.00
1356, 631.00
1357, 630.00
1358, 630.00
1359, 630.00
1360, 630.00
1361, 629.00
1362, 629.00
1363, 629.00
1364, 628.00
1365, 629.00
1366, 628.00
1367, 628.00
1368, 627.00
1369, 627.00
1370, 627.00
1371, 626.00
1372, 626.00
1373, 626.00
1374, 626.00
1375, 625.00
1376, 625.00
1377, 624.00
1378, 624.00
1379, 624.00
1380, 624.00
1381, 624.00
1382, 624.00
1383, 624.00
1384, 624.00
1385, 623.00
1386, 623.00
1387, 623.00
1388, 622.00
1389, 622.00
1390, 623.00
1391, 622.00
1392, 622.00
1393, 622.00
1394, 622.00
1395, 621.00
1396, 622.00
1397, 622.00
1398, 621.00
1399, 622.00
1400, 622.00
1401, 621.00
1402, 622.00
1403, 622.00
1404, 621.00
1405, 621.00
1406, 621.00
1407, 621.00
1408, 621.00
1409, 621.00
1410, 621.00
1411, 621.00
1412, 621.00
1413, 621.00
1414, 621.00
1415, 621.00
1416, 621.00
1417, 621.00
1418, 621.00
1419, 621.00
1420, 622.00
1421, 621.00
1422, 622.00
1423, 622.00
1424, 621.00
1425, 622.00
1426, 622.00
1427, 621.00
1428, 621.00
1429, 622.00
1430, 622.00
1431, 622.00
1432, 622.00
1433, 622.00
1434, 622.00
1435, 623.00
1436, 623.00
1437, 623.00
1438, 623.00
1439, 623.00
1440, 624.00
1441, 624.00
1442, 624.00
1443, 624.00
1444, 625.00
1445, 624.00
1446, 624.00
1447, 625.00
1448, 625.00
1449, 625.00
1450, 626.00
1451, 625.00
1452, 626.00
1453, 626.00
1454, 626.00
1455, 626.00
1456, 627.00
1457, 627.00
1458, 627.00
1459, 627.00
1460, 628.00
1461, 628.00
1462, 628.00
1463, 628.00
1464, 628.00
1465, 628.00
1466, 629.00
1467, 630.00
1468, 629.00
1469, 630.00
1470, 630.00
1471, 631.00
1472, 631.00
1473, 631.00
1474, 631.00
1475, 631.00
1476, 632.00
1477, 632.00
1478, 633.00
1479, 633.00
1480, 633.00
1481, 634.00
1482, 634.00
1483, 634.00
1484, 635.00
1485, 635.00
1486, 635.00
1487, 636.00
1488, 636.00
1489, 637.00
1490, 637.00
1491, 637.00
1492, 637.00
1493, 638.00
1494, 638.00
1495, 639.00
1496, 639.00
1497, 639.00
1498, 640.00
1499, 640.00
1500, 640.00
1501, 640.00
1502, 640.00
1503, 641.00
1504, 641.00
1505, 642.00
1506, 642.00
1507, 643.00
1508, 643.00
1509, 643.00
1510, 643.00
1511, 644.00
1512, 644.00
1513, 644.00
1514, 645.00
1515, 645.00
1516, 646.00
1517, 646.00
1518, 646.00
1519, 647.00
1520, 647.00
1521, 647.00
1522, 648.00
1523, 648.00
1524, 649.00
1525, 649.00
1526, 649.00
1527, 650.00
1528, 651.00
1529, 651.00
1530, 652.00
1531, 652.00
1532, 653.00
1533, 653.00
1534, 653.00
1535, 653.00
1536, 654.00
1537, 654.00
1538, 655.00
1539, 655.00
1540, 655.00
1541, 655.00
1542, 656.00
1543, 656.00
1544, 657.00
1545, 658.00
1546, 658.00
1547, 659.00
1548, 659.00
1549, 659.00
1550, 660.00
1551, 660.00
1552, 661.00
1553, 661.00
1554, 661.00
1555, 662.00
1556, 662.00
1557, 663.00
1558, 664.00
1559, 664.00
1560, 664.00
1561, 664.00
1562, 665.00
1563, 665.00
1564, 666.00
1565, 666.00
1566, 667.00
1567, 667.00
1568, 668.00
1569, 668.00
1570, 669.00
1571, 670.00
1572, 670.00
1573, 670.00
1574, 671.00
1575, 672.00
1576, 672.00
1577, 672.00
1578, 673.00
1579, 673.00
1580, 674.00
1581, 674.00
1582, 674.00
1583, 675.00
1584, 675.00
1585, 676.00
1586, 676.00
1587, 676.00
1588, 677.00
1589, 677.00
1590, 677.00
1591, 678.00
1592, 679.00
1593, 679.00
1594, 680.00
1595, 679.00
1596, 680.00
1597, 680.00
1598, 680.00
1599, 681.00
1600, 681.00
1601, 682.00
1602, 682.00
1603, 683.00
1604, 683.00
1605, 683.00
1606, 684.00
1607, 684.00
1608, 685.00
1609, 686.00
1610, 686.00
1611, 687.00
1612, 687.00
1613, 688.00
1614, 688.00
1615, 688.00
1616, 689.00
1617, 690.00
1618, 690.00
1619, 691.00
1620, 692.00
1621, 692.00
1622, 692.00
1623, 693.00
1624, 693.00
1625, 694.00
1626, 695.00
1627, 695.00
1628, 695.00
1629, 696.00
1630, 697.00
1631, 697.00
1632, 698.00
1633, 698.00
1634, 698.00
1635, 699.00
1636, 699.00
1637, 700.00
1638, 700.00
1639, 700.00
1640, 701.00
1641, 701.00
1642, 702.00
1643, 702.00
1644, 703.00
1645, 703.00
1646, 703.00
1647, 704.00
1648, 705.00
1649, 705.00
1650, 705.00

1750, 905.00
1751, 905.00
1752, 905.00
1753, 905.00
1754, 905.00
1755, 905.00
1756, 905.00
1757, 905.00
1758, 906.00
1759, 905.00
1760, 905.00
1761, 905.00
1762, 905.00
1763, 905.00
1764, 905.00
1765, 905.00
1766, 904.00
1767, 905.00
1768, 905.00
1769, 905.00
1770, 904.00
1771, 904.00
1772, 904.00
1773, 904.00
1774, 903.00
1775, 904.00
1776, 904.00
1777, 903.00
1778, 904.00
1779, 903.00
1780, 903.00
1781, 903.00
1782, 903.00
1783, 902.00
1784, 902.00
1785, 903.00
1786, 902.00
1787, 902.00
1788, 901.00
1789, 902.00
1790, 901.00
1791, 901.00
1792, 901.00
1793, 900.00
1794, 901.00
1795, 901.00
1796, 900.00
1797, 899.00
1798, 900.00
1799, 900.00
1800, 899.00
1801, 900.00
1802, 899.00
1803, 900.00
1804, 900.00
1805, 899.00
1806, 899.00
1807, 899.00
1808, 900.00
1809, 899.00
1810, 899.00
1811, 899.00
1812, 898.00
1813, 898.00
1814, 899.00
1815, 897.00
1816, 898.00
1817, 898.00
1818, 897.00
1819, 897.00
1820, 897.00
1821, 896.00
1822, 897.00
1823, 895.00
1824, 895.00
1825, 895.00
1826, 894.00
1827, 894.00
1828, 895.00
1829, 893.00
1830, 893.00
1831, 893.00
1832, 892.00
1833, 892.00
1834, 891.00
1835, 890.00
1836, 890.00
1837, 889.00
1838, 890.00
1839, 889.00
1840, 887.00
1841, 887.00
1842, 887.00
1843, 886.00
1844, 886.00
1845, 885.00
1846, 884.00
1847, 882.00
1848, 882.00
1849, 881.00
1850, 881.00
1851, 879.00
1852, 879.00
1853, 879.00
1854, 877.00
1855, 877.00
1856, 876.00
1857, 875.00
1858, 874.00
1859, 874.00
1860, 873.00
1861, 872.00
1862, 871.00
1863, 871.00
1864, 870.00
1865, 870.00
1866, 869.00
1867, 869.00
1868, 868.00
1869, 867.00
1870, 866.00
1871, 866.00
1872, 866.00
1873, 865.00
1874, 865.00
1875, 865.00
1876, 864.00
1877, 864.00
1878, 863.00
1879, 863.00
1880, 862.00
1881, 862.00
1882, 862.00
1883, 861.00
1884, 862.00
1885, 862.00
1886, 861.00
1887, 861.00
1888, 861.00
1889, 860.00
1890, 861.00
1891, 860.00
1892, 860.00
1893, 860.00
1894, 859.00
1895, 859.00
1896, 859.00
1897, 859.00
1898, 859.00
1899, 859.00
1900, 858.00
1901, 859.00
1902, 858.00
1903, 858.00
1904, 858.00
1905, 859.00
1906, 858.00
1907, 858.00
1908, 858.00
1909, 858.00
1910, 858.00
1911, 858.00
1912, 858.00
1913, 857.00
1914, 857.00
1915, 857.00
1916, 858.00
1917, 858.00
1918, 858.00
1919, 858.00
1920, 857.00
1921, 857.00
1922, 858.00
1923, 857.00
1924, 857.00
1925, 857.00
1926, 858.00
1927, 858.00
1928, 857.00
1929, 858.00
1930, 858.00
1931, 857.00
1932, 858.00
1933, 857.00
1934, 857.00
1935, 858.00
1936, 858.00
1937, 858.00
1938, 858.00
1939, 859.00
1940, 858.00
1941, 858.00
1942, 858.00
1943, 859.00
1944, 858.00
1945, 858.00
1946, 859.00
1947, 859.00
1948, 859.00
1949, 859.00
1950, 860.00
1951, 859.00
1952, 859.00
1953, 860.00
1954, 860.00
1955, 860.00
1956, 860.00
1957, 859.00
1958, 860.00
1959, 861.00
1960, 861.00
1961, 861.00
1962, 861.00
1963, 862.00
1964, 862.00
1965, 861.00
1966, 863.00
1967, 862.00
1968, 862.00
1969, 863.00
1970, 863.00
1971, 862.00
1972, 863.00
1973, 863.00
1974, 864.00
1975, 863.00
1976, 864.00
1977, 864.00
1978, 865.00
1979, 865.00
1980, 865.00
1981, 865.00
1982, 865.00
1983, 866.00
1984, 866.00
1985, 866.00
1986, 866.00
1987, 867.00
1988, 867.00
1989, 867.00
1990, 867.00
1991, 867.00
1992, 867.00
1993, 868.00
1994, 868.00
1995, 868.00
1996, 869.00
1997, 869.00
1998, 869.00
1999, 869.00
2000, 869.00
2001, 869.00
2002, 869.00
2003, 870.00
2004, 870.00
2005, 870.00
2006, 870.00
2007, 871.00
2008, 871.00
2009, 871.00
2010, 872.00
2011, 872.00
2012, 872.00
2013, 871.00
2014, 873.00
2015, 872.00
2016, 872.00
2017, 873.00
2018, 874.00
2019, 873.00
2020, 874.00
2021, 874.00
2022, 874.00
2023, 874.00
2024, 874.00
2025, 874.00
2026, 875.00
2027, 875.00
2028, 876.00
2029, 875.00
2030, 876.00
2031, 876.00
2032, 876.00
2033, 876.00
2034, 877.00
2035, 877.00
2036, 877.00
2037, 878.00
2038, 878.00
2039, 878.00
2040, 878.00
2041, 878.00
2042, 880.00
2043, 879.00
2044, 879.00
2045, 880.00
2046, 880.00
2047, 881.00
2048, 880.00
2049, 881.00
2050, 882.00
2051, 882.00
2052, 882.00
2053, 882.00
2054, 883.00
2055, 883.00
2056, 883.00
2057, 883.00
2058, 883.00
2059, 884.00
2060, 884.00
2061, 885.00
2062, 885.00
2063, 886.00
2064, 886.00
2065, 887.00
2066, 886.00
2067, 887.00
2068, 887.00
2069, 888.00
2070, 887.00
2071, 889.00
2072, 888.00
2073, 889.00
2074, 888.00
2075, 889.00
2076, 889.00
2077, 890.00
2078, 890.00
2079, 891.00
2080, 890.00
2081, 890.00
2082, 891.00
2083, 891.00
2084, 892.00
2085, 891.00
2086, 892.00
2087, 892.00
2088, 892.00
2089, 893.00
2090, 893.00
2091, 893.00
2092, 893.00
2093, 894.00
2094, 894.00
2095, 894.00
2096, 894.00
2097, 894.00
2098, 894.00
2099, 895.00
2100, 895.00
2101, 895.00
2102, 895.00
2103, 895.00
2104, 895.00
2105, 895.00
2106, 895.00
2107, 896.00
2108, 896.00
2109, 895.00
2110, 896.00
2111, 896.00
2112, 897.00
2113, 897.00
2114, 897.00
2115, 897.00
2116, 897.00
2117, 898.00
2118, 897.00
2119, 897.00
2120, 897.00
2121, 898.00
2122, 897.00
2123, 898.00
2124, 897.00
2125, 898.00
2126, 899.00
2127, 898.00
2128, 898.00
2129, 898.00
2130, 898.00
2131, 898.00
2132, 899.00
2133, 899.00
2134, 899.00
2135, 899.00
2136, 899.00
2137, 900.00
2138, 900.00
2139, 899.00
2140, 899.00
2141, 900.00
2142, 900.00
2143, 900.00
2144, 900.00
2145, 899.00
2146, 901.00
2147, 900.00
2148, 901.00
2149, 901.00
2150, 901.00
