FW version: 24
Log Version: 3.0.3

General Info:
       Command/Macro Performed,            Timestamp,             Device ID, COM Port, UART/I2C, Test Name, Host Major, Host Minor, Host Revision, Host Git Commit
            Single_measurement,  2023_07_11_12_14_27,       Insight2_F4_xxx,    USB-C,      USB,          ,          0,          1,             1,      4031237645

Show Spectrometer Status:
l0_version, f4_version, battery_perc, battery_mVolt, accelerometer_temp, accelerometer_x, accelerometer_y, accelerometer_z, compass_temp, compass_x, compass_y, compass_z, lamp_0, lamp_1, gain_0, gain_1
        17,         24,           53,          1917,               7104,           64692,            1432,           18736,            0,     65469,     65528,     18802,   3276,   3276,      1,      1

Temperature Statistic Info:
NTC AVG [°C], NTC2 AVG [°C]
      42.971,        42.614

Statistic Info:
M1:  num,      min,      max,   median,      AVG,      STD,M2:  num,      min,      max,   median,      AVG,      STD
     301,  1799.00,  2045.00,  1855.00,  1882.07,  77.0884,     401,  2480.00,  2623.00,  2551.00,  2550.48,  48.1155,

Measurements:
Wavelength, Data Amplitude
1350, 1830.00
1351, 1829.00
1352, 1831.00
1353, 1829.00
1354, 1829.00
1355, 1829.00
1356, 1827.00
1357, 1827.00
1358, 1825.00
1359, 1824.00
1360, 1825.00
1361, 1824.00
1362, 1824.00
1363, 1823.00
1364, 1821.00
1365, 1821.00
1366, 1819.00
1367, 1819.00
1368, 1819.00
1369, 1817.00
1370, 1817.00
1371, 1816.00
1372, 1815.00
1373, 1812.00
1374, 1814.00
1375, 1812.00
1376, 1812.00
1377, 1811.00
1378, 1810.00
1379, 1809.00
1380, 1808.00
1381, 1808.00
1382, 1808.00
1383, 1808.00
1384, 1806.00
1385, 1804.00
1386, 1806.00
1387, 1805.00
1388, 1804.00
1389, 1804.00
1390, 1803.00
1391, 1803.00
1392, 1804.00
1393, 1803.00
1394, 1803.00
1395, 1801.00
1396, 1802.00
1397, 1803.00
1398, 1803.00
1399, 1803.00
1400, 1801.00
1401, 1801.00
1402, 1802.00
1403, 1801.00
1404, 1801.00
1405, 1802.00
1406, 1801.00
1407, 1800.00
1408, 1799.00
1409, 1801.00
1410, 1801.00
1411, 1801.00
1412, 1801.00
1413, 1800.00
1414, 1801.00
1415, 1802.00
1416, 1800.00
1417, 1801.00
1418, 1801.00
1419, 1800.00
1420, 1800.00
1421, 1801.00
1422, 1801.00
1423, 1801.00
1424, 1803.00
1425, 1802.00
1426, 1802.00
1427, 1803.00
1428, 1803.00
1429, 1803.00
1430, 1804.00
1431, 1803.00
1432, 1804.00
1433, 1805.00
1434, 1804.00
1435, 1804.00
1436, 1805.00
1437, 1806.00
1438, 1805.00
1439, 1807.00
1440, 1809.00
1441, 1808.00
1442, 1809.00
1443, 1809.00
1444, 1811.00
1445, 1810.00
1446, 1810.00
1447, 1811.00
1448, 1811.00
1449, 1812.00
1450, 1812.00
1451, 1813.00
1452, 1815.00
1453, 1815.00
1454, 1815.00
1455, 1817.00
1456, 1816.00
1457, 1817.00
1458, 1817.00
1459, 1819.00
1460, 1818.00
1461, 1821.00
1462, 1822.00
1463, 1822.00
1464, 1822.00
1465, 1822.00
1466, 1824.00
1467, 1825.00
1468, 1825.00
1469, 1826.00
1470, 1828.00
1471, 1828.00
1472, 1829.00
1473, 1830.00
1474, 1830.00
1475, 1832.00
1476, 1832.00
1477, 1834.00
1478, 1834.00
1479, 1836.00
1480, 1836.00
1481, 1839.00
1482, 1838.00
1483, 1840.00
1484, 1840.00
1485, 1842.00
1486, 1842.00
1487, 1843.00
1488, 1845.00
1489, 1846.00
1490, 1847.00
1491, 1847.00
1492, 1847.00
1493, 1849.00
1494, 1851.00
1495, 1851.00
1496, 1852.00
1497, 1853.00
1498, 1855.00
1499, 1855.00
1500, 1855.00
1501, 1857.00
1502, 1858.00
1503, 1859.00
1504, 1860.00
1505, 1862.00
1506, 1862.00
1507, 1863.00
1508, 1865.00
1509, 1865.00
1510, 1866.00
1511, 1867.00
1512, 1868.00
1513, 1869.00
1514, 1870.00
1515, 1872.00
1516, 1874.00
1517, 1875.00
1518, 1875.00
1519, 1877.00
1520, 1877.00
1521, 1878.00
1522, 1880.00
1523, 1881.00
1524, 1882.00
1525, 1883.00
1526, 1885.00
1527, 1886.00
1528, 1886.00
1529, 1887.00
1530, 1889.00
1531, 1890.00
1532, 1891.00
1533, 1893.00
1534, 1893.00
1535, 1895.00
1536, 1897.00
1537, 1897.00
1538, 1899.00
1539, 1899.00
1540, 1901.00
1541, 1902.00
1542, 1902.00
1543, 1904.00
1544, 1906.00
1545, 1907.00
1546, 1909.00
1547, 1909.00
1548, 1910.00
1549, 1912.00
1550, 1913.00
1551, 1915.00
1552, 1915.00
1553, 1918.00
1554, 1919.00
1555, 1919.00
1556, 1922.00
1557, 1923.00
1558, 1923.00
1559, 1925.00
1560, 1926.00
1561, 1928.00
1562, 1930.00
1563, 1930.00
1564, 1932.00
1565, 1933.00
1566, 1935.00
1567, 1936.00
1568, 1937.00
1569, 1939.00
1570, 1941.00
1571, 1942.00
1572, 1942.00
1573, 1945.00
1574, 1946.00
1575, 1947.00
1576, 1948.00
1577, 1950.00
1578, 1950.00
1579, 1950.00
1580, 1953.00
1581, 1954.00
1582, 1955.00
1583, 1957.00
1584, 1957.00
1585, 1958.00
1586, 1959.00
1587, 1961.00
1588, 1962.00
1589, 1964.00
1590, 1964.00
1591, 1966.00
1592, 1967.00
1593, 1967.00
1594, 1968.00
1595, 1969.00
1596, 1970.00
1597, 1973.00
1598, 1973.00
1599, 1975.00
1600, 1976.00
1601, 1978.00
1602, 1978.00
1603, 1980.00
1604, 1980.00
1605, 1982.00
1606, 1983.00
1607, 1986.00
1608, 1987.00
1609, 1988.00
1610, 1989.00
1611, 1991.00
1612, 1993.00
1613, 1995.00
1614, 1996.00
1615, 1997.00
1616, 1999.00
1617, 2001.00
1618, 2002.00
1619, 2003.00
1620, 2006.00
1621, 2007.00
1622, 2008.00
1623, 2009.00
1624, 2011.00
1625, 2013.00
1626, 2015.00
1627, 2015.00
1628, 2018.00
1629, 2018.00
1630, 2020.00
1631, 2021.00
1632, 2022.00
1633, 2023.00
1634, 2026.00
1635, 2027.00
1636, 2029.00
1637, 2029.00
1638, 2032.00
1639, 2031.00
1640, 2034.00
1641, 2034.00
1642, 2035.00
1643, 2036.00
1644, 2037.00
1645, 2040.00
1646, 2041.00
1647, 2042.00
1648, 2043.00
1649, 2045.00
1650, 2045.00

1750, 2622.00
1751, 2621.00
1752, 2619.00
1753, 2620.00
1754, 2623.00
1755, 2623.00
1756, 2621.00
1757, 2621.00
1758, 2622.00
1759, 2620.00
1760, 2621.00
1761, 2622.00
1762, 2623.00
1763, 2620.00
1764, 2622.00
1765, 2620.00
1766, 2619.00
1767, 2620.00
1768, 2620.00
1769, 2620.00
1770, 2619.00
1771, 2619.00
1772, 2620.00
1773, 2617.00
1774, 2617.00
1775, 2617.00
1776, 2616.00
1777, 2617.00
1778, 2617.00
1779, 2614.00
1780, 2614.00
1781, 2614.00
1782, 2612.00
1783, 2612.00
1784, 2613.00
1785, 2612.00
1786, 2610.00
1787, 2611.00
1788, 2611.00
1789, 2612.00
1790, 2612.00
1791, 2609.00
1792, 2611.00
1793, 2609.00
1794, 2608.00
1795, 2606.00
1796, 2608.00
1797, 2607.00
1798, 2608.00
1799, 2606.00
1800, 2606.00
1801, 2605.00
1802, 2603.00
1803, 2603.00
1804, 2604.00
1805, 2603.00
1806, 2607.00
1807, 2602.00
1808, 2602.00
1809, 2601.00
1810, 2603.00
1811, 2600.00
1812, 2603.00
1813, 2599.00
1814, 2599.00
1815, 2600.00
1816, 2596.00
1817, 2600.00
1818, 2598.00
1819, 2596.00
1820, 2597.00
1821, 2596.00
1822, 2594.00
1823, 2593.00
1824, 2592.00
1825, 2593.00
1826, 2590.00
1827, 2587.00
1828, 2589.00
1829, 2588.00
1830, 2585.00
1831, 2584.00
1832, 2584.00
1833, 2583.00
1834, 2579.00
1835, 2578.00
1836, 2576.00
1837, 2576.00
1838, 2572.00
1839, 2572.00
1840, 2570.00
1841, 2569.00
1842, 2566.00
1843, 2564.00
1844, 2563.00
1845, 2559.00
1846, 2556.00
1847, 2556.00
1848, 2553.00
1849, 2550.00
1850, 2551.00
1851, 2547.00
1852, 2545.00
1853, 2543.00
1854, 2539.00
1855, 2537.00
1856, 2534.00
1857, 2533.00
1858, 2531.00
1859, 2530.00
1860, 2527.00
1861, 2523.00
1862, 2523.00
1863, 2519.00
1864, 2518.00
1865, 2517.00
1866, 2514.00
1867, 2514.00
1868, 2511.00
1869, 2510.00
1870, 2509.00
1871, 2507.00
1872, 2506.00
1873, 2504.00
1874, 2504.00
1875, 2503.00
1876, 2501.00
1877, 2501.00
1878, 2501.00
1879, 2497.00
1880, 2495.00
1881, 2495.00
1882, 2498.00
1883, 2496.00
1884, 2493.00
1885, 2494.00
1886, 2494.00
1887, 2491.00
1888, 2492.00
1889, 2493.00
1890, 2491.00
1891, 2491.00
1892, 2489.00
1893, 2488.00
1894, 2490.00
1895, 2489.00
1896, 2487.00
1897, 2487.00
1898, 2487.00
1899, 2486.00
1900, 2486.00
1901, 2486.00
1902, 2485.00
1903, 2483.00
1904, 2486.00
1905, 2483.00
1906, 2485.00
1907, 2486.00
1908, 2483.00
1909, 2485.00
1910, 2483.00
1911, 2483.00
1912, 2484.00
1913, 2483.00
1914, 2485.00
1915, 2482.00
1916, 2483.00
1917, 2483.00
1918, 2480.00
1919, 2482.00
1920, 2482.00
1921, 2483.00
1922, 2485.00
1923, 2483.00
1924, 2483.00
1925, 2482.00
1926, 2481.00
1927, 2482.00
1928, 2484.00
1929, 2483.00
1930, 2484.00
1931, 2481.00
1932, 2483.00
1933, 2483.00
1934, 2485.00
1935, 2483.00
1936, 2482.00
1937, 2483.00
1938, 2487.00
1939, 2486.00
1940, 2484.00
1941, 2483.00
1942, 2485.00
1943, 2485.00
1944, 2483.00
1945, 2486.00
1946, 2485.00
1947, 2488.00
1948, 2486.00
1949, 2487.00
1950, 2487.00
1951, 2488.00
1952, 2488.00
1953, 2489.00
1954, 2489.00
1955, 2489.00
1956, 2490.00
1957, 2491.00
1958, 2491.00
1959, 2492.00
1960, 2493.00
1961, 2492.00
1962, 2493.00
1963, 2495.00
1964, 2493.00
1965, 2495.00
1966, 2495.00
1967, 2496.00
1968, 2497.00
1969, 2497.00
1970, 2499.00
1971, 2498.00
1972, 2500.00
1973, 2501.00
1974, 2502.00
1975, 2502.00
1976, 2502.00
1977, 2503.00
1978, 2503.00
1979, 2503.00
1980, 2505.00
1981, 2506.00
1982, 2504.00
1983, 2506.00
1984, 2508.00
1985, 2509.00
1986, 2509.00
1987, 2509.00
1988, 2509.00
1989, 2511.00
1990, 2512.00
1991, 2511.00
1992, 2513.00
1993, 2512.00
1994, 2513.00
1995, 2515.00
1996, 2514.00
1997, 2515.00
1998, 2515.00
1999, 2515.00
2000, 2516.00
2001, 2517.00
2002, 2522.00
2003, 2522.00
2004, 2518.00
2005, 2520.00
2006, 2523.00
2007, 2520.00
2008, 2523.00
2009, 2522.00
2010, 2521.00
2011, 2524.00
2012, 2525.00
2013, 2523.00
2014, 2527.00
2015, 2527.00
2016, 2526.00
2017, 2528.00
2018, 2529.00
2019, 2531.00
2020, 2531.00
2021, 2531.00
2022, 2531.00
2023, 2532.00
2024, 2534.00
2025, 2531.00
2026, 2533.00
2027, 2533.00
2028, 2536.00
2029, 2535.00
2030, 2537.00
2031, 2537.00
2032, 2535.00
2033, 2539.00
2034, 2539.00
2035, 2539.00
2036, 2541.00
2037, 2543.00
2038, 2544.00
2039, 2544.00
2040, 2544.00
2041, 2544.00
2042, 2546.00
2043, 2545.00
2044, 2546.00
2045, 2545.00
2046, 2549.00
2047, 2551.00
2048, 2550.00
2049, 2552.00
2050, 2552.00
2051, 2550.00
2052, 2555.00
2053, 2555.00
2054, 2557.00
2055, 2557.00
2056, 2557.00
2057, 2559.00
2058, 2561.00
2059, 2560.00
2060, 2560.00
2061, 2563.00
2062, 2563.00
2063, 2564.00
2064, 2564.00
2065, 2565.00
2066, 2566.00
2067, 2569.00
2068, 2567.00
2069, 2570.00
2070, 2572.00
2071, 2572.00
2072, 2572.00
2073, 2575.00
2074, 2573.00
2075, 2574.00
2076, 2573.00
2077, 2577.00
2078, 2576.00
2079, 2578.00
2080, 2578.00
2081, 2579.00
2082, 2580.00
2083, 2581.00
2084, 2581.00
2085, 2582.00
2086, 2582.00
2087, 2585.00
2088, 2584.00
2089, 2585.00
2090, 2585.00
2091, 2588.00
2092, 2585.00
2093, 2588.00
2094, 2589.00
2095, 2588.00
2096, 2587.00
2097, 2589.00
2098, 2590.00
2099, 2590.00
2100, 2592.00
2101, 2592.00
2102, 2591.00
2103, 2592.00
2104, 2592.00
2105, 2594.00
2106, 2594.00
2107, 2594.00
2108, 2595.00
2109, 2595.00
2110, 2595.00
2111, 2596.00
2112, 2595.00
2113, 2596.00
2114, 2598.00
2115, 2598.00
2116, 2597.00
2117, 2598.00
2118, 2597.00
2119, 2598.00
2120, 2599.00
2121, 2599.00
2122, 2598.00
2123, 2599.00
2124, 2601.00
2125, 2601.00
2126, 2600.00
2127, 2602.00
2128, 2601.00
2129, 2602.00
2130, 2604.00
2131, 2603.00
2132, 2602.00
2133, 2604.00
2134, 2604.00
2135, 2604.00
2136, 2603.00
2137, 2604.00
2138, 2604.00
2139, 2604.00
2140, 2605.00
2141, 2606.00
2142, 2607.00
2143, 2605.00
2144, 2607.00
2145, 2605.00
2146, 2605.00
2147, 2608.00
2148, 2608.00
2149, 2605.00
2150, 2607.00
