FW version: 24
Log Version: 3.0.3

General Info:
       Command/Macro Performed,            Timestamp,             Device ID, COM Port, UART/I2C, Test Name, Host Major, Host Minor, Host Revision, Host Git Commit
            Single_measurement,  2023_07_11_12_14_18,       Insight2_F4_xxx,    USB-C,      USB,          ,          0,          1,             1,      4031237645

Show Spectrometer Status:
l0_version, f4_version, battery_perc, battery_mVolt, accelerometer_temp, accelerometer_x, accelerometer_y, accelerometer_z, compass_temp, compass_x, compass_y, compass_z, lamp_0, lamp_1, gain_0, gain_1
        17,         24,           53,          1916,               7120,           64712,            1392,           18796,            0,     65497,     65401,     18796,   3276,   3276,      1,      1

Temperature Statistic Info:
NTC AVG [°C], NTC2 AVG [°C]
      42.942,        42.614

Statistic Info:
M1:  num,      min,      max,   median,      AVG,      STD,M2:  num,      min,      max,   median,      AVG,      STD
     301,  1800.00,  2046.00,  1857.00,  1882.70,  77.0212,     401,  2481.00,  2625.00,  2552.00,  2551.00,  48.2476,

Measurements:
Wavelength, Data Amplitude
1350, 1831.00
1351, 1829.00
1352, 1830.00
1353, 1830.00
1354, 1829.00
1355, 1828.00
1356, 1830.00
1357, 1828.00
1358, 1827.00
1359, 1826.00
1360, 1827.00
1361, 1825.00
1362, 1825.00
1363, 1824.00
1364, 1823.00
1365, 1822.00
1366, 1821.00
1367, 1822.00
1368, 1820.00
1369, 1819.00
1370, 1817.00
1371, 1816.00
1372, 1816.00
1373, 1815.00
1374, 1814.00
1375, 1813.00
1376, 1813.00
1377, 1811.00
1378, 1810.00
1379, 1810.00
1380, 1809.00
1381, 1809.00
1382, 1809.00
1383, 1807.00
1384, 1806.00
1385, 1806.00
1386, 1805.00
1387, 1807.00
1388, 1805.00
1389, 1805.00
1390, 1805.00
1391, 1804.00
1392, 1804.00
1393, 1804.00
1394, 1803.00
1395, 1803.00
1396, 1804.00
1397, 1803.00
1398, 1804.00
1399, 1802.00
1400, 1802.00
1401, 1801.00
1402, 1802.00
1403, 1801.00
1404, 1802.00
1405, 1802.00
1406, 1802.00
1407, 1802.00
1408, 1801.00
1409, 1802.00
1410, 1801.00
1411, 1801.00
1412, 1802.00
1413, 1800.00
1414, 1802.00
1415, 1802.00
1416, 1801.00
1417, 1803.00
1418, 1801.00
1419, 1801.00
1420, 1802.00
1421, 1801.00
1422, 1802.00
1423, 1802.00
1424, 1802.00
1425, 1802.00
1426, 1802.00
1427, 1803.00
1428, 1803.00
1429, 1803.00
1430, 1804.00
1431, 1805.00
1432, 1805.00
1433, 1804.00
1434, 1805.00
1435, 1806.00
1436, 1806.00
1437, 1807.00
1438, 1808.00
1439, 1808.00
1440, 1808.00
1441, 1809.00
1442, 1809.00
1443, 1810.00
1444, 1810.00
1445, 1810.00
1446, 1812.00
1447, 1812.00
1448, 1813.00
1449, 1813.00
1450, 1813.00
1451, 1813.00
1452, 1814.00
1453, 1816.00
1454, 1816.00
1455, 1816.00
1456, 1816.00
1457, 1817.00
1458, 1819.00
1459, 1820.00
1460, 1821.00
1461, 1821.00
1462, 1821.00
1463, 1823.00
1464, 1823.00
1465, 1823.00
1466, 1824.00
1467, 1826.00
1468, 1827.00
1469, 1826.00
1470, 1828.00
1471, 1829.00
1472, 1830.00
1473, 1830.00
1474, 1832.00
1475, 1834.00
1476, 1834.00
1477, 1833.00
1478, 1835.00
1479, 1835.00
1480, 1836.00
1481, 1838.00
1482, 1840.00
1483, 1839.00
1484, 1841.00
1485, 1842.00
1486, 1843.00
1487, 1843.00
1488, 1844.00
1489, 1845.00
1490, 1848.00
1491, 1848.00
1492, 1848.00
1493, 1849.00
1494, 1851.00
1495, 1852.00
1496, 1853.00
1497, 1854.00
1498, 1855.00
1499, 1856.00
1500, 1858.00
1501, 1857.00
1502, 1859.00
1503, 1859.00
1504, 1861.00
1505, 1862.00
1506, 1863.00
1507, 1865.00
1508, 1865.00
1509, 1865.00
1510, 1867.00
1511, 1869.00
1512, 1869.00
1513, 1870.00
1514, 1871.00
1515, 1873.00
1516, 1873.00
1517, 1875.00
1518, 1876.00
1519, 1877.00
1520, 1877.00
1521, 1879.00
1522, 1880.00
1523, 1881.00
1524, 1883.00
1525, 1884.00
1526, 1884.00
1527, 1885.00
1528, 1888.00
1529, 1888.00
1530, 1889.00
1531, 1890.00
1532, 1891.00
1533, 1893.00
1534, 1893.00
1535, 1896.00
1536, 1896.00
1537, 1898.00
1538, 1899.00
1539, 1901.00
1540, 1901.00
1541, 1903.00
1542, 1904.00
1543, 1905.00
1544, 1906.00
1545, 1907.00
1546, 1909.00
1547, 1910.00
1548, 1911.00
1549, 1913.00
1550, 1913.00
1551, 1915.00
1552, 1917.00
1553, 1918.00
1554, 1919.00
1555, 1919.00
1556, 1923.00
1557, 1923.00
1558, 1924.00
1559, 1926.00
1560, 1927.00
1561, 1929.00
1562, 1929.00
1563, 1931.00
1564, 1932.00
1565, 1934.00
1566, 1935.00
1567, 1937.00
1568, 1937.00
1569, 1939.00
1570, 1941.00
1571, 1943.00
1572, 1944.00
1573, 1943.00
1574, 1946.00
1575, 1948.00
1576, 1949.00
1577, 1949.00
1578, 1951.00
1579, 1951.00
1580, 1953.00
1581, 1954.00
1582, 1955.00
1583, 1957.00
1584, 1958.00
1585, 1960.00
1586, 1959.00
1587, 1962.00
1588, 1962.00
1589, 1964.00
1590, 1965.00
1591, 1966.00
1592, 1968.00
1593, 1967.00
1594, 1969.00
1595, 1970.00
1596, 1971.00
1597, 1973.00
1598, 1974.00
1599, 1975.00
1600, 1976.00
1601, 1978.00
1602, 1980.00
1603, 1980.00
1604, 1981.00
1605, 1983.00
1606, 1985.00
1607, 1986.00
1608, 1988.00
1609, 1989.00
1610, 1990.00
1611, 1991.00
1612, 1994.00
1613, 1995.00
1614, 1996.00
1615, 1998.00
1616, 1999.00
1617, 2002.00
1618, 2002.00
1619, 2005.00
1620, 2005.00
1621, 2007.00
1622, 2010.00
1623, 2011.00
1624, 2012.00
1625, 2014.00
1626, 2015.00
1627, 2016.00
1628, 2019.00
1629, 2019.00
1630, 2021.00
1631, 2022.00
1632, 2023.00
1633, 2024.00
1634, 2025.00
1635, 2027.00
1636, 2029.00
1637, 2029.00
1638, 2031.00
1639, 2033.00
1640, 2034.00
1641, 2034.00
1642, 2035.00
1643, 2038.00
1644, 2039.00
1645, 2040.00
1646, 2040.00
1647, 2043.00
1648, 2044.00
1649, 2045.00
1650, 2046.00

1750, 2621.00
1751, 2625.00
1752, 2623.00
1753, 2621.00
1754, 2622.00
1755, 2622.00
1756, 2624.00
1757, 2623.00
1758, 2624.00
1759, 2623.00
1760, 2621.00
1761, 2621.00
1762, 2621.00
1763, 2620.00
1764, 2622.00
1765, 2619.00
1766, 2620.00
1767, 2621.00
1768, 2623.00
1769, 2619.00
1770, 2619.00
1771, 2621.00
1772, 2621.00
1773, 2617.00
1774, 2618.00
1775, 2617.00
1776, 2618.00
1777, 2616.00
1778, 2617.00
1779, 2614.00
1780, 2615.00
1781, 2613.00
1782, 2616.00
1783, 2613.00
1784, 2613.00
1785, 2613.00
1786, 2611.00
1787, 2613.00
1788, 2611.00
1789, 2611.00
1790, 2609.00
1791, 2610.00
1792, 2611.00
1793, 2610.00
1794, 2608.00
1795, 2610.00
1796, 2608.00
1797, 2608.00
1798, 2608.00
1799, 2606.00
1800, 2606.00
1801, 2607.00
1802, 2606.00
1803, 2605.00
1804, 2606.00
1805, 2603.00
1806, 2603.00
1807, 2604.00
1808, 2604.00
1809, 2603.00
1810, 2605.00
1811, 2602.00
1812, 2601.00
1813, 2602.00
1814, 2599.00
1815, 2600.00
1816, 2600.00
1817, 2599.00
1818, 2600.00
1819, 2597.00
1820, 2598.00
1821, 2597.00
1822, 2595.00
1823, 2595.00
1824, 2590.00
1825, 2592.00
1826, 2592.00
1827, 2590.00
1828, 2589.00
1829, 2587.00
1830, 2586.00
1831, 2585.00
1832, 2583.00
1833, 2582.00
1834, 2582.00
1835, 2580.00
1836, 2578.00
1837, 2577.00
1838, 2573.00
1839, 2572.00
1840, 2572.00
1841, 2568.00
1842, 2567.00
1843, 2563.00
1844, 2563.00
1845, 2562.00
1846, 2559.00
1847, 2556.00
1848, 2555.00
1849, 2551.00
1850, 2551.00
1851, 2547.00
1852, 2546.00
1853, 2543.00
1854, 2540.00
1855, 2537.00
1856, 2535.00
1857, 2536.00
1858, 2532.00
1859, 2529.00
1860, 2528.00
1861, 2526.00
1862, 2523.00
1863, 2520.00
1864, 2519.00
1865, 2517.00
1866, 2517.00
1867, 2514.00
1868, 2513.00
1869, 2511.00
1870, 2510.00
1871, 2507.00
1872, 2506.00
1873, 2505.00
1874, 2504.00
1875, 2502.00
1876, 2503.00
1877, 2500.00
1878, 2501.00
1879, 2498.00
1880, 2496.00
1881, 2497.00
1882, 2498.00
1883, 2495.00
1884, 2493.00
1885, 2494.00
1886, 2491.00
1887, 2493.00
1888, 2492.00
1889, 2492.00
1890, 2492.00
1891, 2490.00
1892, 2490.00
1893, 2489.00
1894, 2488.00
1895, 2488.00
1896, 2487.00
1897, 2487.00
1898, 2490.00
1899, 2488.00
1900, 2485.00
1901, 2485.00
1902, 2483.00
1903, 2486.00
1904, 2483.00
1905, 2484.00
1906, 2484.00
1907, 2486.00
1908, 2485.00
1909, 2484.00
1910, 2484.00
1911, 2484.00
1912, 2483.00
1913, 2483.00
1914, 2483.00
1915, 2482.00
1916, 2482.00
1917, 2482.00
1918, 2482.00
1919, 2483.00
1920, 2483.00
1921, 2483.00
1922, 2485.00
1923, 2483.00
1924, 2481.00
1925, 2483.00
1926, 2482.00
1927, 2481.00
1928, 2484.00
1929, 2484.00
1930, 2482.00
1931, 2483.00
1932, 2483.00
1933, 2483.00
1934, 2484.00
1935, 2486.00
1936, 2483.00
1937, 2486.00
1938, 2486.00
1939, 2484.00
1940, 2485.00
1941, 2486.00
1942, 2486.00
1943, 2485.00
1944, 2486.00
1945, 2485.00
1946, 2488.00
1947, 2487.00
1948, 2488.00
1949, 2488.00
1950, 2488.00
1951, 2488.00
1952, 2488.00
1953, 2489.00
1954, 2489.00
1955, 2490.00
1956, 2491.00
1957, 2490.00
1958, 2491.00
1959, 2491.00
1960, 2494.00
1961, 2492.00
1962, 2495.00
1963, 2495.00
1964, 2495.00
1965, 2494.00
1966, 2495.00
1967, 2495.00
1968, 2497.00
1969, 2499.00
1970, 2499.00
1971, 2498.00
1972, 2501.00
1973, 2500.00
1974, 2501.00
1975, 2501.00
1976, 2502.00
1977, 2505.00
1978, 2503.00
1979, 2503.00
1980, 2505.00
1981, 2506.00
1982, 2506.00
1983, 2507.00
1984, 2510.00
1985, 2509.00
1986, 2509.00
1987, 2511.00
1988, 2513.00
1989, 2510.00
1990, 2513.00
1991, 2512.00
1992, 2513.00
1993, 2512.00
1994, 2514.00
1995, 2515.00
1996, 2515.00
1997, 2517.00
1998, 2518.00
1999, 2517.00
2000, 2517.00
2001, 2519.00
2002, 2517.00
2003, 2519.00
2004, 2521.00
2005, 2521.00
2006, 2522.00
2007, 2521.00
2008, 2525.00
2009, 2522.00
2010, 2525.00
2011, 2525.00
2012, 2527.00
2013, 2526.00
2014, 2527.00
2015, 2530.00
2016, 2528.00
2017, 2531.00
2018, 2527.00
2019, 2529.00
2020, 2531.00
2021, 2530.00
2022, 2529.00
2023, 2532.00
2024, 2534.00
2025, 2534.00
2026, 2535.00
2027, 2535.00
2028, 2536.00
2029, 2536.00
2030, 2536.00
2031, 2537.00
2032, 2539.00
2033, 2537.00
2034, 2539.00
2035, 2541.00
2036, 2541.00
2037, 2540.00
2038, 2542.00
2039, 2542.00
2040, 2544.00
2041, 2545.00
2042, 2546.00
2043, 2545.00
2044, 2545.00
2045, 2547.00
2046, 2548.00
2047, 2550.00
2048, 2552.00
2049, 2552.00
2050, 2551.00
2051, 2553.00
2052, 2554.00
2053, 2555.00
2054, 2556.00
2055, 2555.00
2056, 2558.00
2057, 2557.00
2058, 2560.00
2059, 2560.00
2060, 2562.00
2061, 2563.00
2062, 2563.00
2063, 2564.00
2064, 2566.00
2065, 2567.00
2066, 2566.00
2067, 2569.00
2068, 2570.00
2069, 2569.00
2070, 2572.00
2071, 2571.00
2072, 2572.00
2073, 2574.00
2074, 2575.00
2075, 2574.00
2076, 2576.00
2077, 2577.00
2078, 2576.00
2079, 2580.00
2080, 2578.00
2081, 2580.00
2082, 2579.00
2083, 2579.00
2084, 2582.00
2085, 2584.00
2086, 2581.00
2087, 2584.00
2088, 2583.00
2089, 2585.00
2090, 2588.00
2091, 2588.00
2092, 2587.00
2093, 2588.00
2094, 2588.00
2095, 2588.00
2096, 2591.00
2097, 2589.00
2098, 2589.00
2099, 2591.00
2100, 2591.00
2101, 2592.00
2102, 2592.00
2103, 2593.00
2104, 2594.00
2105, 2594.00
2106, 2594.00
2107, 2594.00
2108, 2596.00
2109, 2593.00
2110, 2596.00
2111, 2598.00
2112, 2597.00
2113, 2595.00
2114, 2598.00
2115, 2597.00
2116, 2597.00
2117, 2600.00
2118, 2600.00
2119, 2599.00
2120, 2600.00
2121, 2600.00
2122, 2601.00
2123, 2599.00
2124, 2601.00
2125, 2602.00
2126, 2600.00
2127, 2603.00
2128, 2602.00
2129, 2604.00
2130, 2601.00
2131, 2604.00
2132, 2604.00
2133, 2604.00
2134, 2605.00
2135, 2605.00
2136, 2603.00
2137, 2605.00
2138, 2603.00
2139, 2607.00
2140, 2605.00
2141, 2605.00
2142, 2607.00
2143, 2607.00
2144, 2605.00
2145, 2608.00
2146, 2608.00
2147, 2607.00
2148, 2605.00
2149, 2609.00
2150, 2606.00
