FW version: 24
Log Version: 3.0.3

General Info:
       Command/Macro Performed,            Timestamp,             Device ID, COM Port, UART/I2C, Test Name, Host Major, Host Minor, Host Revision, Host Git Commit
            Single_measurement,  2023_07_11_12_13_48,       Insight2_F4_xxx,    USB-C,      USB,          ,          0,          1,             1,      4031237645

Show Spectrometer Status:
l0_version, f4_version, battery_perc, battery_mVolt, accelerometer_temp, accelerometer_x, accelerometer_y, accelerometer_z, compass_temp, compass_x, compass_y, compass_z, lamp_0, lamp_1, gain_0, gain_1
        17,         24,           53,          1920,               7120,           64720,            1428,           18800,            0,     65495,     65532,     18807,   2457,   2457,      1,      1

Temperature Statistic Info:
NTC AVG [°C], NTC2 AVG [°C]
      42.733,        42.434

Statistic Info:
M1:  num,      min,      max,   median,      AVG,      STD,M2:  num,      min,      max,   median,      AVG,      STD
     301,  1040.00,  1194.00,  1076.00,  1091.08,  48.2341,     401,  1545.00,  1635.00,  1592.00,  1591.42,  30.6480,

Measurements:
Wavelength, Data Amplitude
1350, 1055.00
1351, 1055.00
1352, 1054.00
1353, 1055.00
1354, 1053.00
1355, 1054.00
1356, 1054.00
1357, 1053.00
1358, 1054.00
1359, 1052.00
1360, 1052.00
1361, 1053.00
1362, 1052.00
1363, 1051.00
1364, 1051.00
1365, 1051.00
1366, 1049.00
1367, 1051.00
1368, 1050.00
1369, 1048.00
1370, 1048.00
1371, 1048.00
1372, 1046.00
1373, 1046.00
1374, 1046.00
1375, 1046.00
1376, 1046.00
1377, 1045.00
1378, 1045.00
1379, 1045.00
1380, 1045.00
1381, 1043.00
1382, 1044.00
1383, 1043.00
1384, 1043.00
1385, 1042.00
1386, 1042.00
1387, 1042.00
1388, 1042.00
1389, 1041.00
1390, 1041.00
1391, 1041.00
1392, 1042.00
1393, 1042.00
1394, 1041.00
1395, 1041.00
1396, 1040.00
1397, 1041.00
1398, 1041.00
1399, 1040.00
1400, 1040.00
1401, 1041.00
1402, 1041.00
1403, 1040.00
1404, 1040.00
1405, 1040.00
1406, 1040.00
1407, 1041.00
1408, 1040.00
1409, 1040.00
1410, 1040.00
1411, 1040.00
1412, 1041.00
1413, 1040.00
1414, 1040.00
1415, 1040.00
1416, 1040.00
1417, 1041.00
1418, 1041.00
1419, 1041.00
1420, 1040.00
1421, 1040.00
1422, 1041.00
1423, 1041.00
1424, 1042.00
1425, 1041.00
1426, 1041.00
1427, 1041.00
1428, 1041.00
1429, 1042.00
1430, 1042.00
1431, 1042.00
1432, 1043.00
1433, 1042.00
1434, 1043.00
1435, 1043.00
1436, 1044.00
1437, 1044.00
1438, 1045.00
1439, 1045.00
1440, 1045.00
1441, 1046.00
1442, 1044.00
1443, 1046.00
1444, 1046.00
1445, 1046.00
1446, 1047.00
1447, 1047.00
1448, 1048.00
1449, 1048.00
1450, 1048.00
1451, 1049.00
1452, 1049.00
1453, 1050.00
1454, 1049.00
1455, 1050.00
1456, 1050.00
1457, 1051.00
1458, 1052.00
1459, 1052.00
1460, 1052.00
1461, 1053.00
1462, 1053.00
1463, 1054.00
1464, 1054.00
1465, 1056.00
1466, 1055.00
1467, 1056.00
1468, 1056.00
1469, 1058.00
1470, 1057.00
1471, 1057.00
1472, 1059.00
1473, 1059.00
1474, 1060.00
1475, 1060.00
1476, 1061.00
1477, 1062.00
1478, 1062.00
1479, 1063.00
1480, 1063.00
1481, 1064.00
1482, 1065.00
1483, 1066.00
1484, 1067.00
1485, 1067.00
1486, 1067.00
1487, 1068.00
1488, 1069.00
1489, 1069.00
1490, 1069.00
1491, 1070.00
1492, 1071.00
1493, 1071.00
1494, 1073.00
1495, 1073.00
1496, 1073.00
1497, 1074.00
1498, 1075.00
1499, 1076.00
1500, 1076.00
1501, 1076.00
1502, 1077.00
1503, 1078.00
1504, 1079.00
1505, 1079.00
1506, 1079.00
1507, 1080.00
1508, 1081.00
1509, 1082.00
1510, 1083.00
1511, 1084.00
1512, 1083.00
1513, 1084.00
1514, 1085.00
1515, 1085.00
1516, 1086.00
1517, 1087.00
1518, 1088.00
1519, 1088.00
1520, 1090.00
1521, 1089.00
1522, 1091.00
1523, 1091.00
1524, 1092.00
1525, 1092.00
1526, 1093.00
1527, 1094.00
1528, 1095.00
1529, 1095.00
1530, 1097.00
1531, 1097.00
1532, 1098.00
1533, 1098.00
1534, 1099.00
1535, 1100.00
1536, 1101.00
1537, 1102.00
1538, 1102.00
1539, 1103.00
1540, 1104.00
1541, 1104.00
1542, 1106.00
1543, 1107.00
1544, 1107.00
1545, 1108.00
1546, 1108.00
1547, 1109.00
1548, 1110.00
1549, 1111.00
1550, 1111.00
1551, 1112.00
1552, 1113.00
1553, 1113.00
1554, 1115.00
1555, 1115.00
1556, 1115.00
1557, 1117.00
1558, 1118.00
1559, 1117.00
1560, 1120.00
1561, 1120.00
1562, 1121.00
1563, 1122.00
1564, 1123.00
1565, 1124.00
1566, 1124.00
1567, 1125.00
1568, 1126.00
1569, 1126.00
1570, 1127.00
1571, 1128.00
1572, 1129.00
1573, 1130.00
1574, 1131.00
1575, 1132.00
1576, 1132.00
1577, 1133.00
1578, 1134.00
1579, 1134.00
1580, 1135.00
1581, 1136.00
1582, 1137.00
1583, 1138.00
1584, 1139.00
1585, 1139.00
1586, 1139.00
1587, 1139.00
1588, 1142.00
1589, 1142.00
1590, 1143.00
1591, 1143.00
1592, 1143.00
1593, 1144.00
1594, 1145.00
1595, 1147.00
1596, 1146.00
1597, 1148.00
1598, 1148.00
1599, 1148.00
1600, 1150.00
1601, 1150.00
1602, 1151.00
1603, 1152.00
1604, 1153.00
1605, 1154.00
1606, 1154.00
1607, 1155.00
1608, 1156.00
1609, 1157.00
1610, 1157.00
1611, 1158.00
1612, 1160.00
1613, 1161.00
1614, 1161.00
1615, 1164.00
1616, 1164.00
1617, 1164.00
1618, 1166.00
1619, 1168.00
1620, 1167.00
1621, 1169.00
1622, 1170.00
1623, 1171.00
1624, 1171.00
1625, 1173.00
1626, 1173.00
1627, 1175.00
1628, 1176.00
1629, 1175.00
1630, 1177.00
1631, 1178.00
1632, 1178.00
1633, 1179.00
1634, 1180.00
1635, 1182.00
1636, 1182.00
1637, 1182.00
1638, 1184.00
1639, 1183.00
1640, 1185.00
1641, 1186.00
1642, 1186.00
1643, 1187.00
1644, 1188.00
1645, 1189.00
1646, 1190.00
1647, 1190.00
1648, 1192.00
1649, 1192.00
1650, 1194.00

1750, 1632.00
1751, 1634.00
1752, 1634.00
1753, 1634.00
1754, 1634.00
1755, 1634.00
1756, 1634.00
1757, 1633.00
1758, 1635.00
1759, 1634.00
1760, 1635.00
1761, 1633.00
1762, 1633.00
1763, 1633.00
1764, 1633.00
1765, 1633.00
1766, 1634.00
1767, 1633.00
1768, 1633.00
1769, 1632.00
1770, 1632.00
1771, 1633.00
1772, 1632.00
1773, 1632.00
1774, 1632.00
1775, 1631.00
1776, 1630.00
1777, 1630.00
1778, 1629.00
1779, 1631.00
1780, 1629.00
1781, 1628.00
1782, 1630.00
1783, 1631.00
1784, 1627.00
1785, 1629.00
1786, 1630.00
1787, 1626.00
1788, 1627.00
1789, 1627.00
1790, 1624.00
1791, 1626.00
1792, 1626.00
1793, 1626.00
1794, 1627.00
1795, 1627.00
1796, 1624.00
1797, 1625.00
1798, 1624.00
1799, 1625.00
1800, 1625.00
1801, 1624.00
1802, 1624.00
1803, 1624.00
1804, 1623.00
1805, 1625.00
1806, 1623.00
1807, 1625.00
1808, 1622.00
1809, 1623.00
1810, 1622.00
1811, 1623.00
1812, 1621.00
1813, 1622.00
1814, 1622.00
1815, 1621.00
1816, 1620.00
1817, 1619.00
1818, 1620.00
1819, 1619.00
1820, 1621.00
1821, 1619.00
1822, 1616.00
1823, 1618.00
1824, 1617.00
1825, 1616.00
1826, 1612.00
1827, 1615.00
1828, 1616.00
1829, 1615.00
1830, 1614.00
1831, 1612.00
1832, 1610.00
1833, 1611.00
1834, 1609.00
1835, 1608.00
1836, 1607.00
1837, 1606.00
1838, 1606.00
1839, 1605.00
1840, 1603.00
1841, 1601.00
1842, 1603.00
1843, 1599.00
1844, 1598.00
1845, 1597.00
1846, 1597.00
1847, 1593.00
1848, 1592.00
1849, 1589.00
1850, 1587.00
1851, 1589.00
1852, 1586.00
1853, 1585.00
1854, 1584.00
1855, 1583.00
1856, 1581.00
1857, 1581.00
1858, 1579.00
1859, 1578.00
1860, 1575.00
1861, 1573.00
1862, 1573.00
1863, 1572.00
1864, 1569.00
1865, 1570.00
1866, 1569.00
1867, 1568.00
1868, 1565.00
1869, 1566.00
1870, 1565.00
1871, 1564.00
1872, 1562.00
1873, 1562.00
1874, 1562.00
1875, 1561.00
1876, 1558.00
1877, 1559.00
1878, 1559.00
1879, 1559.00
1880, 1556.00
1881, 1556.00
1882, 1556.00
1883, 1557.00
1884, 1554.00
1885, 1553.00
1886, 1556.00
1887, 1555.00
1888, 1554.00
1889, 1554.00
1890, 1552.00
1891, 1552.00
1892, 1553.00
1893, 1552.00
1894, 1552.00
1895, 1552.00
1896, 1551.00
1897, 1552.00
1898, 1551.00
1899, 1550.00
1900, 1549.00
1901, 1550.00
1902, 1550.00
1903, 1549.00
1904, 1550.00
1905, 1548.00
1906, 1547.00
1907, 1548.00
1908, 1547.00
1909, 1549.00
1910, 1549.00
1911, 1549.00
1912, 1549.00
1913, 1549.00
1914, 1546.00
1915, 1547.00
1916, 1546.00
1917, 1548.00
1918, 1546.00
1919, 1548.00
1920, 1548.00
1921, 1548.00
1922, 1548.00
1923, 1545.00
1924, 1550.00
1925, 1550.00
1926, 1548.00
1927, 1548.00
1928, 1548.00
1929, 1546.00
1930, 1548.00
1931, 1548.00
1932, 1548.00
1933, 1549.00
1934, 1549.00
1935, 1549.00
1936, 1549.00
1937, 1547.00
1938, 1550.00
1939, 1549.00
1940, 1549.00
1941, 1550.00
1942, 1548.00
1943, 1549.00
1944, 1549.00
1945, 1550.00
1946, 1550.00
1947, 1551.00
1948, 1550.00
1949, 1549.00
1950, 1552.00
1951, 1551.00
1952, 1550.00
1953, 1552.00
1954, 1554.00
1955, 1555.00
1956, 1554.00
1957, 1553.00
1958, 1554.00
1959, 1552.00
1960, 1555.00
1961, 1555.00
1962, 1555.00
1963, 1557.00
1964, 1556.00
1965, 1556.00
1966, 1558.00
1967, 1556.00
1968, 1557.00
1969, 1557.00
1970, 1559.00
1971, 1559.00
1972, 1559.00
1973, 1558.00
1974, 1559.00
1975, 1562.00
1976, 1561.00
1977, 1560.00
1978, 1560.00
1979, 1561.00
1980, 1561.00
1981, 1564.00
1982, 1563.00
1983, 1564.00
1984, 1565.00
1985, 1565.00
1986, 1562.00
1987, 1566.00
1988, 1564.00
1989, 1566.00
1990, 1566.00
1991, 1567.00
1992, 1568.00
1993, 1567.00
1994, 1567.00
1995, 1569.00
1996, 1568.00
1997, 1567.00
1998, 1570.00
1999, 1571.00
2000, 1568.00
2001, 1572.00
2002, 1572.00
2003, 1571.00
2004, 1573.00
2005, 1573.00
2006, 1575.00
2007, 1574.00
2008, 1576.00
2009, 1573.00
2010, 1575.00
2011, 1575.00
2012, 1575.00
2013, 1576.00
2014, 1575.00
2015, 1576.00
2016, 1577.00
2017, 1577.00
2018, 1580.00
2019, 1577.00
2020, 1579.00
2021, 1580.00
2022, 1578.00
2023, 1580.00
2024, 1583.00
2025, 1580.00
2026, 1582.00
2027, 1584.00
2028, 1583.00
2029, 1581.00
2030, 1582.00
2031, 1584.00
2032, 1582.00
2033, 1583.00
2034, 1585.00
2035, 1585.00
2036, 1585.00
2037, 1588.00
2038, 1586.00
2039, 1587.00
2040, 1588.00
2041, 1587.00
2042, 1590.00
2043, 1590.00
2044, 1591.00
2045, 1590.00
2046, 1592.00
2047, 1592.00
2048, 1591.00
2049, 1594.00
2050, 1593.00
2051, 1594.00
2052, 1596.00
2053, 1594.00
2054, 1596.00
2055, 1599.00
2056, 1597.00
2057, 1596.00
2058, 1597.00
2059, 1599.00
2060, 1600.00
2061, 1599.00
2062, 1601.00
2063, 1599.00
2064, 1603.00
2065, 1603.00
2066, 1603.00
2067, 1603.00
2068, 1603.00
2069, 1606.00
2070, 1604.00
2071, 1606.00
2072, 1607.00
2073, 1607.00
2074, 1608.00
2075, 1607.00
2076, 1609.00
2077, 1609.00
2078, 1609.00
2079, 1612.00
2080, 1611.00
2081, 1612.00
2082, 1612.00
2083, 1613.00
2084, 1613.00
2085, 1614.00
2086, 1614.00
2087, 1615.00
2088, 1615.00
2089, 1616.00
2090, 1615.00
2091, 1616.00
2092, 1614.00
2093, 1617.00
2094, 1617.00
2095, 1617.00
2096, 1619.00
2097, 1619.00
2098, 1619.00
2099, 1619.00
2100, 1621.00
2101, 1619.00
2102, 1618.00
2103, 1620.00
2104, 1620.00
2105, 1623.00
2106, 1622.00
2107, 1621.00
2108, 1622.00
2109, 1621.00
2110, 1623.00
2111, 1623.00
2112, 1623.00
2113, 1623.00
2114, 1621.00
2115, 1625.00
2116, 1622.00
2117, 1625.00
2118, 1624.00
2119, 1623.00
2120, 1625.00
2121, 1625.00
2122, 1624.00
2123, 1625.00
2124, 1626.00
2125, 1626.00
2126, 1626.00
2127, 1624.00
2128, 1627.00
2129, 1626.00
2130, 1628.00
2131, 1626.00
2132, 1628.00
2133, 1629.00
2134, 1627.00
2135, 1628.00
2136, 1628.00
2137, 1629.00
2138, 1631.00
2139, 1628.00
2140, 1629.00
2141, 1629.00
2142, 1629.00
2143, 1630.00
2144, 1630.00
2145, 1630.00
2146, 1632.00
2147, 1631.00
2148, 1631.00
2149, 1631.00
2150, 1630.00
