FW version: 24
Log Version: 3.0.3

General Info:
       Command/Macro Performed,            Timestamp,             Device ID, COM Port, UART/I2C, Test Name, Host Major, Host Minor, Host Revision, Host Git Commit
            Single_measurement,  2023_06_29_11_58_33,       Insight2_F4_xxx,    USB-C,      USB,          ,          0,          1,             1,      4031237645

Show Spectrometer Status:
l0_version, f4_version, battery_perc, battery_mVolt, accelerometer_temp, accelerometer_x, accelerometer_y, accelerometer_z, compass_temp, compass_x, compass_y, compass_z, lamp_0, lamp_1, gain_0, gain_1
        17,         24,           95,          2077,               5904,             120,           65144,           18432,            0,     65400,     65402,     65523,   2866,   2866,      1,      1

Temperature Statistic Info:
NTC AVG [°C], NTC2 AVG [°C]
      38.070,        37.726

Statistic Info:
M1:  num,      min,      max,   median,      AVG,      STD,M2:  num,      min,      max,   median,      AVG,      STD
     301,  1254.00,  1418.00,  1291.00,  1307.71,  50.6910,     401,  1810.00,  1907.00,  1860.00,  1858.07,  32.7701,

Measurements:
Wavelength, Data Amplitude
1350, 1271.00
1351, 1272.00
1352, 1271.00
1353, 1270.00
1354, 1270.00
1355, 1271.00
1356, 1270.00
1357, 1270.00
1358, 1269.00
1359, 1269.00
1360, 1269.00
1361, 1268.00
1362, 1269.00
1363, 1267.00
1364, 1267.00
1365, 1267.00
1366, 1266.00
1367, 1266.00
1368, 1266.00
1369, 1264.00
1370, 1264.00
1371, 1264.00
1372, 1263.00
1373, 1262.00
1374, 1262.00
1375, 1261.00
1376, 1262.00
1377, 1261.00
1378, 1260.00
1379, 1260.00
1380, 1261.00
1381, 1260.00
1382, 1258.00
1383, 1259.00
1384, 1258.00
1385, 1257.00
1386, 1258.00
1387, 1258.00
1388, 1256.00
1389, 1256.00
1390, 1256.00
1391, 1256.00
1392, 1256.00
1393, 1255.00
1394, 1256.00
1395, 1255.00
1396, 1255.00
1397, 1255.00
1398, 1254.00
1399, 1254.00
1400, 1255.00
1401, 1255.00
1402, 1255.00
1403, 1255.00
1404, 1255.00
1405, 1256.00
1406, 1255.00
1407, 1254.00
1408, 1255.00
1409, 1254.00
1410, 1255.00
1411, 1254.00
1412, 1255.00
1413, 1254.00
1414, 1254.00
1415, 1255.00
1416, 1254.00
1417, 1255.00
1418, 1254.00
1419, 1254.00
1420, 1255.00
1421, 1254.00
1422, 1255.00
1423, 1255.00
1424, 1255.00
1425, 1255.00
1426, 1255.00
1427, 1255.00
1428, 1255.00
1429, 1256.00
1430, 1256.00
1431, 1257.00
1432, 1256.00
1433, 1257.00
1434, 1258.00
1435, 1258.00
1436, 1258.00
1437, 1258.00
1438, 1257.00
1439, 1257.00
1440, 1258.00
1441, 1258.00
1442, 1260.00
1443, 1259.00
1444, 1260.00
1445, 1260.00
1446, 1260.00
1447, 1261.00
1448, 1261.00
1449, 1262.00
1450, 1262.00
1451, 1262.00
1452, 1263.00
1453, 1263.00
1454, 1263.00
1455, 1264.00
1456, 1265.00
1457, 1265.00
1458, 1266.00
1459, 1266.00
1460, 1267.00
1461, 1267.00
1462, 1267.00
1463, 1267.00
1464, 1267.00
1465, 1269.00
1466, 1270.00
1467, 1271.00
1468, 1271.00
1469, 1271.00
1470, 1270.00
1471, 1272.00
1472, 1272.00
1473, 1273.00
1474, 1275.00
1475, 1274.00
1476, 1276.00
1477, 1276.00
1478, 1277.00
1479, 1277.00
1480, 1277.00
1481, 1278.00
1482, 1279.00
1483, 1280.00
1484, 1280.00
1485, 1281.00
1486, 1282.00
1487, 1283.00
1488, 1283.00
1489, 1283.00
1490, 1285.00
1491, 1285.00
1492, 1286.00
1493, 1287.00
1494, 1287.00
1495, 1289.00
1496, 1289.00
1497, 1290.00
1498, 1290.00
1499, 1291.00
1500, 1291.00
1501, 1292.00
1502, 1293.00
1503, 1293.00
1504, 1294.00
1505, 1295.00
1506, 1296.00
1507, 1296.00
1508, 1297.00
1509, 1297.00
1510, 1298.00
1511, 1299.00
1512, 1300.00
1513, 1301.00
1514, 1302.00
1515, 1302.00
1516, 1303.00
1517, 1303.00
1518, 1304.00
1519, 1304.00
1520, 1305.00
1521, 1306.00
1522, 1307.00
1523, 1308.00
1524, 1308.00
1525, 1310.00
1526, 1310.00
1527, 1311.00
1528, 1312.00
1529, 1312.00
1530, 1313.00
1531, 1314.00
1532, 1316.00
1533, 1316.00
1534, 1316.00
1535, 1317.00
1536, 1318.00
1537, 1319.00
1538, 1319.00
1539, 1321.00
1540, 1322.00
1541, 1321.00
1542, 1321.00
1543, 1323.00
1544, 1324.00
1545, 1325.00
1546, 1326.00
1547, 1326.00
1548, 1327.00
1549, 1327.00
1550, 1329.00
1551, 1329.00
1552, 1329.00
1553, 1330.00
1554, 1332.00
1555, 1333.00
1556, 1333.00
1557, 1334.00
1558, 1335.00
1559, 1336.00
1560, 1336.00
1561, 1337.00
1562, 1338.00
1563, 1339.00
1564, 1340.00
1565, 1342.00
1566, 1342.00
1567, 1343.00
1568, 1344.00
1569, 1344.00
1570, 1345.00
1571, 1346.00
1572, 1347.00
1573, 1348.00
1574, 1350.00
1575, 1349.00
1576, 1351.00
1577, 1350.00
1578, 1353.00
1579, 1353.00
1580, 1353.00
1581, 1354.00
1582, 1355.00
1583, 1356.00
1584, 1356.00
1585, 1357.00
1586, 1358.00
1587, 1359.00
1588, 1359.00
1589, 1360.00
1590, 1361.00
1591, 1362.00
1592, 1363.00
1593, 1363.00
1594, 1364.00
1595, 1366.00
1596, 1365.00
1597, 1366.00
1598, 1366.00
1599, 1369.00
1600, 1369.00
1601, 1369.00
1602, 1370.00
1603, 1372.00
1604, 1373.00
1605, 1373.00
1606, 1374.00
1607, 1375.00
1608, 1376.00
1609, 1377.00
1610, 1378.00
1611, 1379.00
1612, 1380.00
1613, 1381.00
1614, 1383.00
1615, 1383.00
1616, 1385.00
1617, 1385.00
1618, 1387.00
1619, 1386.00
1620, 1388.00
1621, 1390.00
1622, 1391.00
1623, 1391.00
1624, 1393.00
1625, 1393.00
1626, 1395.00
1627, 1395.00
1628, 1397.00
1629, 1398.00
1630, 1399.00
1631, 1399.00
1632, 1400.00
1633, 1401.00
1634, 1402.00
1635, 1403.00
1636, 1404.00
1637, 1405.00
1638, 1406.00
1639, 1406.00
1640, 1407.00
1641, 1409.00
1642, 1409.00
1643, 1411.00
1644, 1411.00
1645, 1411.00
1646, 1412.00
1647, 1413.00
1648, 1414.00
1649, 1415.00
1650, 1418.00

1750, 1905.00
1751, 1905.00
1752, 1907.00
1753, 1904.00
1754, 1906.00
1755, 1905.00
1756, 1905.00
1757, 1904.00
1758, 1904.00
1759, 1905.00
1760, 1906.00
1761, 1907.00
1762, 1905.00
1763, 1902.00
1764, 1905.00
1765, 1904.00
1766, 1904.00
1767, 1905.00
1768, 1904.00
1769, 1903.00
1770, 1902.00
1771, 1903.00
1772, 1903.00
1773, 1903.00
1774, 1903.00
1775, 1903.00
1776, 1901.00
1777, 1900.00
1778, 1902.00
1779, 1901.00
1780, 1901.00
1781, 1900.00
1782, 1900.00
1783, 1900.00
1784, 1901.00
1785, 1898.00
1786, 1898.00
1787, 1899.00
1788, 1898.00
1789, 1898.00
1790, 1899.00
1791, 1897.00
1792, 1896.00
1793, 1896.00
1794, 1896.00
1795, 1896.00
1796, 1895.00
1797, 1895.00
1798, 1895.00
1799, 1895.00
1800, 1895.00
1801, 1893.00
1802, 1893.00
1803, 1893.00
1804, 1895.00
1805, 1894.00
1806, 1894.00
1807, 1894.00
1808, 1893.00
1809, 1892.00
1810, 1891.00
1811, 1893.00
1812, 1893.00
1813, 1890.00
1814, 1893.00
1815, 1892.00
1816, 1890.00
1817, 1891.00
1818, 1889.00
1819, 1890.00
1820, 1889.00
1821, 1887.00
1822, 1889.00
1823, 1887.00
1824, 1888.00
1825, 1887.00
1826, 1885.00
1827, 1884.00
1828, 1886.00
1829, 1884.00
1830, 1883.00
1831, 1881.00
1832, 1883.00
1833, 1880.00
1834, 1879.00
1835, 1880.00
1836, 1878.00
1837, 1876.00
1838, 1875.00
1839, 1873.00
1840, 1872.00
1841, 1872.00
1842, 1870.00
1843, 1871.00
1844, 1867.00
1845, 1867.00
1846, 1865.00
1847, 1864.00
1848, 1861.00
1849, 1860.00
1850, 1857.00
1851, 1858.00
1852, 1855.00
1853, 1853.00
1854, 1852.00
1855, 1850.00
1856, 1850.00
1857, 1849.00
1858, 1849.00
1859, 1844.00
1860, 1845.00
1861, 1843.00
1862, 1840.00
1863, 1839.00
1864, 1839.00
1865, 1837.00
1866, 1835.00
1867, 1835.00
1868, 1833.00
1869, 1830.00
1870, 1831.00
1871, 1828.00
1872, 1829.00
1873, 1828.00
1874, 1828.00
1875, 1827.00
1876, 1825.00
1877, 1825.00
1878, 1824.00
1879, 1821.00
1880, 1822.00
1881, 1824.00
1882, 1821.00
1883, 1820.00
1884, 1821.00
1885, 1818.00
1886, 1820.00
1887, 1818.00
1888, 1817.00
1889, 1819.00
1890, 1817.00
1891, 1817.00
1892, 1818.00
1893, 1817.00
1894, 1815.00
1895, 1815.00
1896, 1815.00
1897, 1815.00
1898, 1814.00
1899, 1811.00
1900, 1815.00
1901, 1813.00
1902, 1814.00
1903, 1815.00
1904, 1813.00
1905, 1815.00
1906, 1813.00
1907, 1813.00
1908, 1812.00
1909, 1813.00
1910, 1813.00
1911, 1813.00
1912, 1812.00
1913, 1812.00
1914, 1812.00
1915, 1812.00
1916, 1813.00
1917, 1810.00
1918, 1811.00
1919, 1811.00
1920, 1811.00
1921, 1812.00
1922, 1811.00
1923, 1810.00
1924, 1813.00
1925, 1812.00
1926, 1810.00
1927, 1812.00
1928, 1811.00
1929, 1810.00
1930, 1810.00
1931, 1811.00
1932, 1811.00
1933, 1811.00
1934, 1810.00
1935, 1813.00
1936, 1812.00
1937, 1812.00
1938, 1811.00
1939, 1811.00
1940, 1812.00
1941, 1814.00
1942, 1812.00
1943, 1814.00
1944, 1814.00
1945, 1813.00
1946, 1813.00
1947, 1815.00
1948, 1817.00
1949, 1813.00
1950, 1816.00
1951, 1817.00
1952, 1816.00
1953, 1814.00
1954, 1816.00
1955, 1816.00
1956, 1816.00
1957, 1818.00
1958, 1817.00
1959, 1817.00
1960, 1819.00
1961, 1818.00
1962, 1818.00
1963, 1819.00
1964, 1820.00
1965, 1819.00
1966, 1820.00
1967, 1821.00
1968, 1822.00
1969, 1821.00
1970, 1820.00
1971, 1821.00
1972, 1825.00
1973, 1822.00
1974, 1824.00
1975, 1825.00
1976, 1824.00
1977, 1823.00
1978, 1827.00
1979, 1825.00
1980, 1826.00
1981, 1829.00
1982, 1827.00
1983, 1828.00
1984, 1829.00
1985, 1829.00
1986, 1830.00
1987, 1830.00
1988, 1830.00
1989, 1830.00
1990, 1831.00
1991, 1831.00
1992, 1833.00
1993, 1832.00
1994, 1834.00
1995, 1833.00
1996, 1834.00
1997, 1833.00
1998, 1835.00
1999, 1834.00
2000, 1834.00
2001, 1835.00
2002, 1837.00
2003, 1834.00
2004, 1837.00
2005, 1837.00
2006, 1838.00
2007, 1839.00
2008, 1837.00
2009, 1839.00
2010, 1841.00
2011, 1840.00
2012, 1841.00
2013, 1840.00
2014, 1840.00
2015, 1841.00
2016, 1843.00
2017, 1843.00
2018, 1843.00
2019, 1841.00
2020, 1843.00
2021, 1843.00
2022, 1843.00
2023, 1845.00
2024, 1846.00
2025, 1845.00
2026, 1847.00
2027, 1846.00
2028, 1847.00
2029, 1847.00
2030, 1848.00
2031, 1850.00
2032, 1848.00
2033, 1849.00
2034, 1851.00
2035, 1851.00
2036, 1851.00
2037, 1851.00
2038, 1852.00
2039, 1852.00
2040, 1853.00
2041, 1853.00
2042, 1854.00
2043, 1855.00
2044, 1856.00
2045, 1856.00
2046, 1857.00
2047, 1857.00
2048, 1860.00
2049, 1859.00
2050, 1859.00
2051, 1860.00
2052, 1860.00
2053, 1861.00
2054, 1862.00
2055, 1863.00
2056, 1863.00
2057, 1864.00
2058, 1865.00
2059, 1863.00
2060, 1866.00
2061, 1869.00
2062, 1866.00
2063, 1869.00
2064, 1869.00
2065, 1868.00
2066, 1870.00
2067, 1869.00
2068, 1870.00
2069, 1871.00
2070, 1872.00
2071, 1873.00
2072, 1873.00
2073, 1874.00
2074, 1873.00
2075, 1875.00
2076, 1873.00
2077, 1875.00
2078, 1876.00
2079, 1876.00
2080, 1876.00
2081, 1878.00
2082, 1879.00
2083, 1880.00
2084, 1879.00
2085, 1878.00
2086, 1881.00
2087, 1881.00
2088, 1883.00
2089, 1882.00
2090, 1882.00
2091, 1883.00
2092, 1882.00
2093, 1885.00
2094, 1884.00
2095, 1884.00
2096, 1885.00
2097, 1885.00
2098, 1886.00
2099, 1887.00
2100, 1885.00
2101, 1889.00
2102, 1885.00
2103, 1887.00
2104, 1889.00
2105, 1887.00
2106, 1888.00
2107, 1890.00
2108, 1888.00
2109, 1889.00
2110, 1889.00
2111, 1889.00
2112, 1889.00
2113, 1889.00
2114, 1891.00
2115, 1891.00
2116, 1890.00
2117, 1892.00
2118, 1890.00
2119, 1891.00
2120, 1892.00
2121, 1892.00
2122, 1893.00
2123, 1891.00
2124, 1892.00
2125, 1893.00
2126, 1893.00
2127, 1894.00
2128, 1894.00
2129, 1895.00
2130, 1896.00
2131, 1896.00
2132, 1895.00
2133, 1893.00
2134, 1895.00
2135, 1895.00
2136, 1895.00
2137, 1896.00
2138, 1895.00
2139, 1894.00
2140, 1895.00
2141, 1898.00
2142, 1896.00
2143, 1898.00
2144, 1898.00
2145, 1895.00
2146, 1895.00
2147, 1897.00
2148, 1898.00
2149, 1895.00
2150, 1897.00
