FW version: 24
Log Version: 3.0.3

General Info:
       Command/Macro Performed,            Timestamp,             Device ID, COM Port, UART/I2C, Test Name, Host Major, Host Minor, Host Revision, Host Git Commit
            Single_measurement,  2023_06_29_11_39_14,       Insight2_F4_xxx,    USB-C,      USB,          ,          0,          1,             1,      4031237645

Show Spectrometer Status:
l0_version, f4_version, battery_perc, battery_mVolt, accelerometer_temp, accelerometer_x, accelerometer_y, accelerometer_z, compass_temp, compass_x, compass_y, compass_z, lamp_0, lamp_1, gain_0, gain_1
        17,         24,           95,          2077,               5856,           65416,           65480,           18472,            0,     65452,     65533,     65517,   3276,   3276,      1,      1

Temperature Statistic Info:
NTC AVG [°C], NTC2 AVG [°C]
      37.812,        37.468

Statistic Info:
M1:  num,      min,      max,   median,      AVG,      STD,M2:  num,      min,      max,   median,      AVG,      STD
     301,  1968.00,  2249.00,  2026.00,  2060.85,  87.1890,     401,  2563.00,  2737.00,  2637.00,  2641.02,  56.8206,

Measurements:
Wavelength, Data Amplitude
1350, 2019.00
1351, 2019.00
1352, 2018.00
1353, 2015.00
1354, 2015.00
1355, 2014.00
1356, 2015.00
1357, 2012.00
1358, 2011.00
1359, 2010.00
1360, 2009.00
1361, 2007.00
1362, 2009.00
1363, 2007.00
1364, 2005.00
1365, 2003.00
1366, 2001.00
1367, 2000.00
1368, 1999.00
1369, 1997.00
1370, 1997.00
1371, 1995.00
1372, 1994.00
1373, 1992.00
1374, 1991.00
1375, 1991.00
1376, 1990.00
1377, 1987.00
1378, 1987.00
1379, 1987.00
1380, 1984.00
1381, 1984.00
1382, 1984.00
1383, 1983.00
1384, 1981.00
1385, 1980.00
1386, 1978.00
1387, 1979.00
1388, 1977.00
1389, 1977.00
1390, 1977.00
1391, 1977.00
1392, 1976.00
1393, 1975.00
1394, 1974.00
1395, 1975.00
1396, 1973.00
1397, 1974.00
1398, 1973.00
1399, 1973.00
1400, 1973.00
1401, 1972.00
1402, 1972.00
1403, 1971.00
1404, 1971.00
1405, 1971.00
1406, 1971.00
1407, 1971.00
1408, 1971.00
1409, 1970.00
1410, 1970.00
1411, 1969.00
1412, 1971.00
1413, 1970.00
1414, 1969.00
1415, 1970.00
1416, 1969.00
1417, 1970.00
1418, 1969.00
1419, 1970.00
1420, 1969.00
1421, 1970.00
1422, 1968.00
1423, 1969.00
1424, 1969.00
1425, 1970.00
1426, 1969.00
1427, 1970.00
1428, 1970.00
1429, 1971.00
1430, 1971.00
1431, 1972.00
1432, 1971.00
1433, 1971.00
1434, 1971.00
1435, 1971.00
1436, 1973.00
1437, 1972.00
1438, 1972.00
1439, 1973.00
1440, 1974.00
1441, 1974.00
1442, 1975.00
1443, 1975.00
1444, 1974.00
1445, 1976.00
1446, 1977.00
1447, 1977.00
1448, 1978.00
1449, 1977.00
1450, 1979.00
1451, 1979.00
1452, 1980.00
1453, 1981.00
1454, 1981.00
1455, 1981.00
1456, 1982.00
1457, 1983.00
1458, 1983.00
1459, 1985.00
1460, 1985.00
1461, 1986.00
1462, 1986.00
1463, 1987.00
1464, 1988.00
1465, 1988.00
1466, 1990.00
1467, 1990.00
1468, 1991.00
1469, 1993.00
1470, 1994.00
1471, 1995.00
1472, 1995.00
1473, 1997.00
1474, 1997.00
1475, 1998.00
1476, 1999.00
1477, 2000.00
1478, 2002.00
1479, 2001.00
1480, 2005.00
1481, 2005.00
1482, 2006.00
1483, 2007.00
1484, 2007.00
1485, 2009.00
1486, 2010.00
1487, 2012.00
1488, 2013.00
1489, 2013.00
1490, 2015.00
1491, 2015.00
1492, 2018.00
1493, 2019.00
1494, 2020.00
1495, 2021.00
1496, 2022.00
1497, 2023.00
1498, 2023.00
1499, 2025.00
1500, 2026.00
1501, 2027.00
1502, 2029.00
1503, 2030.00
1504, 2030.00
1505, 2033.00
1506, 2034.00
1507, 2035.00
1508, 2036.00
1509, 2038.00
1510, 2038.00
1511, 2039.00
1512, 2041.00
1513, 2042.00
1514, 2043.00
1515, 2043.00
1516, 2046.00
1517, 2048.00
1518, 2051.00
1519, 2051.00
1520, 2050.00
1521, 2053.00
1522, 2055.00
1523, 2056.00
1524, 2057.00
1525, 2058.00
1526, 2059.00
1527, 2061.00
1528, 2063.00
1529, 2064.00
1530, 2065.00
1531, 2067.00
1532, 2068.00
1533, 2070.00
1534, 2071.00
1535, 2072.00
1536, 2074.00
1537, 2074.00
1538, 2076.00
1539, 2078.00
1540, 2080.00
1541, 2081.00
1542, 2083.00
1543, 2084.00
1544, 2085.00
1545, 2086.00
1546, 2087.00
1547, 2089.00
1548, 2090.00
1549, 2092.00
1550, 2093.00
1551, 2095.00
1552, 2096.00
1553, 2098.00
1554, 2099.00
1555, 2100.00
1556, 2103.00
1557, 2103.00
1558, 2105.00
1559, 2106.00
1560, 2109.00
1561, 2110.00
1562, 2114.00
1563, 2113.00
1564, 2116.00
1565, 2117.00
1566, 2119.00
1567, 2120.00
1568, 2121.00
1569, 2122.00
1570, 2124.00
1571, 2127.00
1572, 2129.00
1573, 2129.00
1574, 2132.00
1575, 2133.00
1576, 2134.00
1577, 2136.00
1578, 2137.00
1579, 2139.00
1580, 2140.00
1581, 2142.00
1582, 2143.00
1583, 2144.00
1584, 2145.00
1585, 2147.00
1586, 2148.00
1587, 2149.00
1588, 2152.00
1589, 2153.00
1590, 2154.00
1591, 2155.00
1592, 2159.00
1593, 2157.00
1594, 2160.00
1595, 2162.00
1596, 2162.00
1597, 2164.00
1598, 2166.00
1599, 2167.00
1600, 2168.00
1601, 2169.00
1602, 2171.00
1603, 2172.00
1604, 2174.00
1605, 2176.00
1606, 2177.00
1607, 2178.00
1608, 2181.00
1609, 2183.00
1610, 2184.00
1611, 2186.00
1612, 2188.00
1613, 2190.00
1614, 2191.00
1615, 2192.00
1616, 2194.00
1617, 2196.00
1618, 2198.00
1619, 2200.00
1620, 2201.00
1621, 2203.00
1622, 2204.00
1623, 2206.00
1624, 2208.00
1625, 2209.00
1626, 2212.00
1627, 2213.00
1628, 2216.00
1629, 2217.00
1630, 2219.00
1631, 2221.00
1632, 2221.00
1633, 2224.00
1634, 2225.00
1635, 2226.00
1636, 2227.00
1637, 2230.00
1638, 2231.00
1639, 2232.00
1640, 2233.00
1641, 2235.00
1642, 2236.00
1643, 2239.00
1644, 2240.00
1645, 2241.00
1646, 2243.00
1647, 2244.00
1648, 2247.00
1649, 2247.00
1650, 2249.00

1750, 2737.00
1751, 2736.00
1752, 2737.00
1753, 2735.00
1754, 2737.00
1755, 2736.00
1756, 2737.00
1757, 2734.00
1758, 2734.00
1759, 2735.00
1760, 2735.00
1761, 2734.00
1762, 2734.00
1763, 2733.00
1764, 2735.00
1765, 2735.00
1766, 2733.00
1767, 2735.00
1768, 2734.00
1769, 2733.00
1770, 2734.00
1771, 2733.00
1772, 2731.00
1773, 2733.00
1774, 2730.00
1775, 2731.00
1776, 2730.00
1777, 2729.00
1778, 2730.00
1779, 2729.00
1780, 2730.00
1781, 2727.00
1782, 2727.00
1783, 2726.00
1784, 2725.00
1785, 2725.00
1786, 2724.00
1787, 2725.00
1788, 2725.00
1789, 2724.00
1790, 2724.00
1791, 2722.00
1792, 2723.00
1793, 2721.00
1794, 2721.00
1795, 2719.00
1796, 2719.00
1797, 2718.00
1798, 2717.00
1799, 2717.00
1800, 2718.00
1801, 2715.00
1802, 2715.00
1803, 2715.00
1804, 2714.00
1805, 2713.00
1806, 2715.00
1807, 2713.00
1808, 2712.00
1809, 2712.00
1810, 2713.00
1811, 2710.00
1812, 2709.00
1813, 2710.00
1814, 2707.00
1815, 2709.00
1816, 2707.00
1817, 2705.00
1818, 2706.00
1819, 2706.00
1820, 2705.00
1821, 2703.00
1822, 2702.00
1823, 2700.00
1824, 2699.00
1825, 2698.00
1826, 2695.00
1827, 2696.00
1828, 2694.00
1829, 2693.00
1830, 2690.00
1831, 2689.00
1832, 2688.00
1833, 2686.00
1834, 2684.00
1835, 2681.00
1836, 2679.00
1837, 2679.00
1838, 2677.00
1839, 2674.00
1840, 2670.00
1841, 2668.00
1842, 2666.00
1843, 2663.00
1844, 2662.00
1845, 2659.00
1846, 2655.00
1847, 2654.00
1848, 2650.00
1849, 2647.00
1850, 2645.00
1851, 2641.00
1852, 2639.00
1853, 2637.00
1854, 2632.00
1855, 2632.00
1856, 2629.00
1857, 2628.00
1858, 2625.00
1859, 2621.00
1860, 2618.00
1861, 2615.00
1862, 2614.00
1863, 2611.00
1864, 2610.00
1865, 2607.00
1866, 2604.00
1867, 2604.00
1868, 2601.00
1869, 2600.00
1870, 2599.00
1871, 2596.00
1872, 2594.00
1873, 2594.00
1874, 2591.00
1875, 2589.00
1876, 2588.00
1877, 2587.00
1878, 2586.00
1879, 2586.00
1880, 2586.00
1881, 2584.00
1882, 2583.00
1883, 2581.00
1884, 2580.00
1885, 2580.00
1886, 2579.00
1887, 2579.00
1888, 2576.00
1889, 2576.00
1890, 2576.00
1891, 2576.00
1892, 2575.00
1893, 2577.00
1894, 2575.00
1895, 2572.00
1896, 2574.00
1897, 2571.00
1898, 2571.00
1899, 2571.00
1900, 2571.00
1901, 2571.00
1902, 2569.00
1903, 2571.00
1904, 2570.00
1905, 2569.00
1906, 2569.00
1907, 2568.00
1908, 2567.00
1909, 2566.00
1910, 2567.00
1911, 2567.00
1912, 2565.00
1913, 2568.00
1914, 2565.00
1915, 2566.00
1916, 2566.00
1917, 2566.00
1918, 2565.00
1919, 2564.00
1920, 2566.00
1921, 2565.00
1922, 2565.00
1923, 2564.00
1924, 2566.00
1925, 2564.00
1926, 2565.00
1927, 2566.00
1928, 2563.00
1929, 2565.00
1930, 2566.00
1931, 2565.00
1932, 2566.00
1933, 2566.00
1934, 2566.00
1935, 2566.00
1936, 2565.00
1937, 2567.00
1938, 2566.00
1939, 2568.00
1940, 2566.00
1941, 2568.00
1942, 2566.00
1943, 2568.00
1944, 2569.00
1945, 2571.00
1946, 2567.00
1947, 2568.00
1948, 2569.00
1949, 2568.00
1950, 2570.00
1951, 2571.00
1952, 2570.00
1953, 2573.00
1954, 2572.00
1955, 2572.00
1956, 2573.00
1957, 2573.00
1958, 2572.00
1959, 2574.00
1960, 2573.00
1961, 2572.00
1962, 2577.00
1963, 2576.00
1964, 2576.00
1965, 2577.00
1966, 2577.00
1967, 2579.00
1968, 2578.00
1969, 2576.00
1970, 2579.00
1971, 2579.00
1972, 2583.00
1973, 2582.00
1974, 2582.00
1975, 2581.00
1976, 2582.00
1977, 2583.00
1978, 2584.00
1979, 2584.00
1980, 2585.00
1981, 2584.00
1982, 2588.00
1983, 2587.00
1984, 2587.00
1985, 2587.00
1986, 2591.00
1987, 2588.00
1988, 2592.00
1989, 2591.00
1990, 2590.00
1991, 2592.00
1992, 2593.00
1993, 2592.00
1994, 2594.00
1995, 2595.00
1996, 2595.00
1997, 2595.00
1998, 2598.00
1999, 2597.00
2000, 2599.00
2001, 2599.00
2002, 2601.00
2003, 2597.00
2004, 2602.00
2005, 2601.00
2006, 2601.00
2007, 2601.00
2008, 2603.00
2009, 2604.00
2010, 2604.00
2011, 2606.00
2012, 2605.00
2013, 2605.00
2014, 2606.00
2015, 2605.00
2016, 2608.00
2017, 2609.00
2018, 2610.00
2019, 2611.00
2020, 2610.00
2021, 2611.00
2022, 2611.00
2023, 2613.00
2024, 2613.00
2025, 2615.00
2026, 2614.00
2027, 2616.00
2028, 2616.00
2029, 2616.00
2030, 2619.00
2031, 2617.00
2032, 2618.00
2033, 2620.00
2034, 2619.00
2035, 2622.00
2036, 2623.00
2037, 2621.00
2038, 2624.00
2039, 2624.00
2040, 2625.00
2041, 2626.00
2042, 2627.00
2043, 2628.00
2044, 2628.00
2045, 2630.00
2046, 2631.00
2047, 2630.00
2048, 2631.00
2049, 2632.00
2050, 2633.00
2051, 2635.00
2052, 2635.00
2053, 2637.00
2054, 2637.00
2055, 2639.00
2056, 2640.00
2057, 2638.00
2058, 2643.00
2059, 2643.00
2060, 2644.00
2061, 2644.00
2062, 2646.00
2063, 2647.00
2064, 2647.00
2065, 2648.00
2066, 2650.00
2067, 2650.00
2068, 2652.00
2069, 2652.00
2070, 2652.00
2071, 2655.00
2072, 2655.00
2073, 2658.00
2074, 2656.00
2075, 2657.00
2076, 2659.00
2077, 2659.00
2078, 2660.00
2079, 2661.00
2080, 2665.00
2081, 2664.00
2082, 2664.00
2083, 2665.00
2084, 2666.00
2085, 2666.00
2086, 2667.00
2087, 2668.00
2088, 2670.00
2089, 2669.00
2090, 2670.00
2091, 2672.00
2092, 2672.00
2093, 2672.00
2094, 2673.00
2095, 2673.00
2096, 2674.00
2097, 2676.00
2098, 2676.00
2099, 2678.00
2100, 2678.00
2101, 2677.00
2102, 2677.00
2103, 2679.00
2104, 2680.00
2105, 2680.00
2106, 2681.00
2107, 2679.00
2108, 2681.00
2109, 2682.00
2110, 2681.00
2111, 2681.00
2112, 2683.00
2113, 2683.00
2114, 2685.00
2115, 2683.00
2116, 2685.00
2117, 2686.00
2118, 2687.00
2119, 2688.00
2120, 2687.00
2121, 2687.00
2122, 2687.00
2123, 2687.00
2124, 2687.00
2125, 2688.00
2126, 2689.00
2127, 2688.00
2128, 2688.00
2129, 2690.00
2130, 2689.00
2131, 2692.00
2132, 2693.00
2133, 2691.00
2134, 2691.00
2135, 2692.00
2136, 2692.00
2137, 2693.00
2138, 2693.00
2139, 2693.00
2140, 2695.00
2141, 2694.00
2142, 2694.00
2143, 2695.00
2144, 2697.00
2145, 2696.00
2146, 2695.00
2147, 2695.00
2148, 2696.00
2149, 2698.00
2150, 2696.00
