FW version: 24
Log Version: 3.0.3

General Info:
       Command/Macro Performed,            Timestamp,             Device ID, COM Port, UART/I2C, Test Name, Host Major, Host Minor, Host Revision, Host Git Commit
            Single_measurement,  2023_06_29_11_38_54,       Insight2_F4_xxx,    USB-C,      USB,          ,          0,          1,             1,      4031237645

Show Spectrometer Status:
l0_version, f4_version, battery_perc, battery_mVolt, accelerometer_temp, accelerometer_x, accelerometer_y, accelerometer_z, compass_temp, compass_x, compass_y, compass_z, lamp_0, lamp_1, gain_0, gain_1
        17,         24,           95,          2076,               5824,           65428,           65476,           18452,            0,     65460,     65532,     65532,   2866,   2866,      1,      1

Temperature Statistic Info:
NTC AVG [°C], NTC2 AVG [°C]
      37.640,        37.324

Statistic Info:
M1:  num,      min,      max,   median,      AVG,      STD,M2:  num,      min,      max,   median,      AVG,      STD
     301,  1531.00,  1757.00,  1578.00,  1605.63,  69.9845,     401,  2065.00,  2206.00,  2126.00,  2129.03,  46.0746,

Measurements:
Wavelength, Data Amplitude
1350, 1569.00
1351, 1569.00
1352, 1568.00
1353, 1568.00
1354, 1566.00
1355, 1567.00
1356, 1566.00
1357, 1565.00
1358, 1565.00
1359, 1563.00
1360, 1562.00
1361, 1562.00
1362, 1562.00
1363, 1560.00
1364, 1559.00
1365, 1558.00
1366, 1556.00
1367, 1555.00
1368, 1556.00
1369, 1554.00
1370, 1553.00
1371, 1553.00
1372, 1551.00
1373, 1550.00
1374, 1549.00
1375, 1548.00
1376, 1547.00
1377, 1547.00
1378, 1544.00
1379, 1544.00
1380, 1544.00
1381, 1543.00
1382, 1543.00
1383, 1542.00
1384, 1541.00
1385, 1540.00
1386, 1539.00
1387, 1540.00
1388, 1540.00
1389, 1539.00
1390, 1538.00
1391, 1538.00
1392, 1537.00
1393, 1536.00
1394, 1536.00
1395, 1535.00
1396, 1534.00
1397, 1535.00
1398, 1535.00
1399, 1535.00
1400, 1535.00
1401, 1535.00
1402, 1533.00
1403, 1535.00
1404, 1534.00
1405, 1534.00
1406, 1533.00
1407, 1534.00
1408, 1532.00
1409, 1533.00
1410, 1533.00
1411, 1533.00
1412, 1533.00
1413, 1533.00
1414, 1533.00
1415, 1531.00
1416, 1531.00
1417, 1531.00
1418, 1532.00
1419, 1531.00
1420, 1531.00
1421, 1532.00
1422, 1532.00
1423, 1532.00
1424, 1533.00
1425, 1532.00
1426, 1532.00
1427, 1532.00
1428, 1533.00
1429, 1533.00
1430, 1533.00
1431, 1532.00
1432, 1534.00
1433, 1534.00
1434, 1535.00
1435, 1535.00
1436, 1535.00
1437, 1535.00
1438, 1535.00
1439, 1535.00
1440, 1535.00
1441, 1536.00
1442, 1536.00
1443, 1537.00
1444, 1536.00
1445, 1538.00
1446, 1539.00
1447, 1539.00
1448, 1539.00
1449, 1539.00
1450, 1541.00
1451, 1541.00
1452, 1541.00
1453, 1542.00
1454, 1542.00
1455, 1543.00
1456, 1543.00
1457, 1543.00
1458, 1545.00
1459, 1546.00
1460, 1545.00
1461, 1546.00
1462, 1546.00
1463, 1548.00
1464, 1549.00
1465, 1549.00
1466, 1549.00
1467, 1550.00
1468, 1551.00
1469, 1552.00
1470, 1552.00
1471, 1553.00
1472, 1554.00
1473, 1555.00
1474, 1555.00
1475, 1556.00
1476, 1556.00
1477, 1558.00
1478, 1559.00
1479, 1559.00
1480, 1560.00
1481, 1561.00
1482, 1562.00
1483, 1563.00
1484, 1564.00
1485, 1565.00
1486, 1566.00
1487, 1567.00
1488, 1568.00
1489, 1568.00
1490, 1571.00
1491, 1571.00
1492, 1571.00
1493, 1573.00
1494, 1572.00
1495, 1574.00
1496, 1575.00
1497, 1576.00
1498, 1577.00
1499, 1577.00
1500, 1578.00
1501, 1580.00
1502, 1580.00
1503, 1581.00
1504, 1583.00
1505, 1584.00
1506, 1583.00
1507, 1585.00
1508, 1586.00
1509, 1588.00
1510, 1588.00
1511, 1589.00
1512, 1591.00
1513, 1592.00
1514, 1593.00
1515, 1594.00
1516, 1594.00
1517, 1596.00
1518, 1597.00
1519, 1598.00
1520, 1598.00
1521, 1599.00
1522, 1601.00
1523, 1602.00
1524, 1603.00
1525, 1604.00
1526, 1604.00
1527, 1606.00
1528, 1607.00
1529, 1609.00
1530, 1610.00
1531, 1611.00
1532, 1611.00
1533, 1613.00
1534, 1615.00
1535, 1615.00
1536, 1616.00
1537, 1618.00
1538, 1619.00
1539, 1619.00
1540, 1621.00
1541, 1623.00
1542, 1623.00
1543, 1625.00
1544, 1625.00
1545, 1626.00
1546, 1629.00
1547, 1629.00
1548, 1631.00
1549, 1630.00
1550, 1632.00
1551, 1634.00
1552, 1634.00
1553, 1635.00
1554, 1637.00
1555, 1638.00
1556, 1639.00
1557, 1642.00
1558, 1641.00
1559, 1643.00
1560, 1644.00
1561, 1645.00
1562, 1645.00
1563, 1647.00
1564, 1649.00
1565, 1651.00
1566, 1652.00
1567, 1653.00
1568, 1654.00
1569, 1655.00
1570, 1657.00
1571, 1657.00
1572, 1659.00
1573, 1661.00
1574, 1661.00
1575, 1663.00
1576, 1663.00
1577, 1666.00
1578, 1666.00
1579, 1667.00
1580, 1668.00
1581, 1670.00
1582, 1672.00
1583, 1671.00
1584, 1674.00
1585, 1674.00
1586, 1676.00
1587, 1677.00
1588, 1677.00
1589, 1678.00
1590, 1679.00
1591, 1681.00
1592, 1682.00
1593, 1683.00
1594, 1685.00
1595, 1685.00
1596, 1687.00
1597, 1688.00
1598, 1689.00
1599, 1690.00
1600, 1691.00
1601, 1693.00
1602, 1693.00
1603, 1695.00
1604, 1697.00
1605, 1698.00
1606, 1699.00
1607, 1701.00
1608, 1702.00
1609, 1703.00
1610, 1704.00
1611, 1705.00
1612, 1707.00
1613, 1709.00
1614, 1709.00
1615, 1711.00
1616, 1712.00
1617, 1713.00
1618, 1715.00
1619, 1716.00
1620, 1718.00
1621, 1721.00
1622, 1721.00
1623, 1723.00
1624, 1723.00
1625, 1726.00
1626, 1727.00
1627, 1727.00
1628, 1730.00
1629, 1732.00
1630, 1733.00
1631, 1733.00
1632, 1734.00
1633, 1736.00
1634, 1738.00
1635, 1738.00
1636, 1741.00
1637, 1741.00
1638, 1742.00
1639, 1744.00
1640, 1745.00
1641, 1747.00
1642, 1747.00
1643, 1748.00
1644, 1750.00
1645, 1751.00
1646, 1753.00
1647, 1753.00
1648, 1755.00
1649, 1756.00
1650, 1757.00

1750, 2205.00
1751, 2203.00
1752, 2206.00
1753, 2205.00
1754, 2204.00
1755, 2203.00
1756, 2205.00
1757, 2205.00
1758, 2203.00
1759, 2203.00
1760, 2204.00
1761, 2204.00
1762, 2206.00
1763, 2204.00
1764, 2205.00
1765, 2203.00
1766, 2205.00
1767, 2203.00
1768, 2203.00
1769, 2204.00
1770, 2203.00
1771, 2202.00
1772, 2202.00
1773, 2202.00
1774, 2202.00
1775, 2200.00
1776, 2201.00
1777, 2200.00
1778, 2199.00
1779, 2197.00
1780, 2202.00
1781, 2199.00
1782, 2197.00
1783, 2196.00
1784, 2197.00
1785, 2197.00
1786, 2197.00
1787, 2195.00
1788, 2195.00
1789, 2194.00
1790, 2194.00
1791, 2194.00
1792, 2193.00
1793, 2194.00
1794, 2193.00
1795, 2191.00
1796, 2192.00
1797, 2190.00
1798, 2189.00
1799, 2189.00
1800, 2189.00
1801, 2190.00
1802, 2188.00
1803, 2188.00
1804, 2189.00
1805, 2187.00
1806, 2185.00
1807, 2187.00
1808, 2187.00
1809, 2185.00
1810, 2184.00
1811, 2185.00
1812, 2185.00
1813, 2183.00
1814, 2184.00
1815, 2182.00
1816, 2183.00
1817, 2181.00
1818, 2183.00
1819, 2179.00
1820, 2179.00
1821, 2178.00
1822, 2177.00
1823, 2176.00
1824, 2177.00
1825, 2175.00
1826, 2175.00
1827, 2173.00
1828, 2172.00
1829, 2173.00
1830, 2167.00
1831, 2168.00
1832, 2167.00
1833, 2166.00
1834, 2164.00
1835, 2163.00
1836, 2159.00
1837, 2158.00
1838, 2159.00
1839, 2155.00
1840, 2155.00
1841, 2153.00
1842, 2151.00
1843, 2147.00
1844, 2145.00
1845, 2141.00
1846, 2139.00
1847, 2139.00
1848, 2135.00
1849, 2135.00
1850, 2132.00
1851, 2129.00
1852, 2129.00
1853, 2126.00
1854, 2123.00
1855, 2122.00
1856, 2119.00
1857, 2118.00
1858, 2113.00
1859, 2110.00
1860, 2111.00
1861, 2108.00
1862, 2106.00
1863, 2106.00
1864, 2101.00
1865, 2099.00
1866, 2100.00
1867, 2097.00
1868, 2097.00
1869, 2096.00
1870, 2094.00
1871, 2093.00
1872, 2091.00
1873, 2090.00
1874, 2088.00
1875, 2086.00
1876, 2087.00
1877, 2085.00
1878, 2086.00
1879, 2085.00
1880, 2083.00
1881, 2081.00
1882, 2081.00
1883, 2081.00
1884, 2081.00
1885, 2080.00
1886, 2080.00
1887, 2076.00
1888, 2076.00
1889, 2077.00
1890, 2077.00
1891, 2075.00
1892, 2076.00
1893, 2074.00
1894, 2074.00
1895, 2074.00
1896, 2073.00
1897, 2074.00
1898, 2073.00
1899, 2072.00
1900, 2072.00
1901, 2073.00
1902, 2070.00
1903, 2070.00
1904, 2070.00
1905, 2071.00
1906, 2070.00
1907, 2070.00
1908, 2070.00
1909, 2069.00
1910, 2069.00
1911, 2068.00
1912, 2071.00
1913, 2067.00
1914, 2069.00
1915, 2069.00
1916, 2069.00
1917, 2067.00
1918, 2067.00
1919, 2069.00
1920, 2069.00
1921, 2067.00
1922, 2065.00
1923, 2068.00
1924, 2067.00
1925, 2066.00
1926, 2066.00
1927, 2066.00
1928, 2066.00
1929, 2067.00
1930, 2068.00
1931, 2068.00
1932, 2068.00
1933, 2068.00
1934, 2067.00
1935, 2067.00
1936, 2067.00
1937, 2068.00
1938, 2068.00
1939, 2068.00
1940, 2069.00
1941, 2070.00
1942, 2070.00
1943, 2069.00
1944, 2069.00
1945, 2070.00
1946, 2071.00
1947, 2069.00
1948, 2071.00
1949, 2071.00
1950, 2072.00
1951, 2071.00
1952, 2073.00
1953, 2072.00
1954, 2071.00
1955, 2070.00
1956, 2073.00
1957, 2073.00
1958, 2074.00
1959, 2075.00
1960, 2074.00
1961, 2074.00
1962, 2075.00
1963, 2075.00
1964, 2076.00
1965, 2076.00
1966, 2075.00
1967, 2076.00
1968, 2077.00
1969, 2079.00
1970, 2079.00
1971, 2080.00
1972, 2079.00
1973, 2078.00
1974, 2080.00
1975, 2082.00
1976, 2084.00
1977, 2083.00
1978, 2082.00
1979, 2083.00
1980, 2084.00
1981, 2083.00
1982, 2085.00
1983, 2086.00
1984, 2086.00
1985, 2085.00
1986, 2087.00
1987, 2087.00
1988, 2089.00
1989, 2088.00
1990, 2089.00
1991, 2088.00
1992, 2089.00
1993, 2089.00
1994, 2090.00
1995, 2091.00
1996, 2093.00
1997, 2092.00
1998, 2093.00
1999, 2094.00
2000, 2095.00
2001, 2093.00
2002, 2095.00
2003, 2095.00
2004, 2097.00
2005, 2098.00
2006, 2098.00
2007, 2100.00
2008, 2097.00
2009, 2099.00
2010, 2100.00
2011, 2100.00
2012, 2099.00
2013, 2100.00
2014, 2102.00
2015, 2101.00
2016, 2103.00
2017, 2102.00
2018, 2102.00
2019, 2104.00
2020, 2104.00
2021, 2105.00
2022, 2105.00
2023, 2106.00
2024, 2106.00
2025, 2105.00
2026, 2107.00
2027, 2109.00
2028, 2109.00
2029, 2111.00
2030, 2110.00
2031, 2110.00
2032, 2111.00
2033, 2111.00
2034, 2112.00
2035, 2113.00
2036, 2114.00
2037, 2114.00
2038, 2116.00
2039, 2116.00
2040, 2117.00
2041, 2119.00
2042, 2120.00
2043, 2119.00
2044, 2118.00
2045, 2118.00
2046, 2121.00
2047, 2120.00
2048, 2123.00
2049, 2124.00
2050, 2125.00
2051, 2125.00
2052, 2125.00
2053, 2126.00
2054, 2126.00
2055, 2127.00
2056, 2130.00
2057, 2129.00
2058, 2131.00
2059, 2130.00
2060, 2131.00
2061, 2133.00
2062, 2134.00
2063, 2135.00
2064, 2134.00
2065, 2135.00
2066, 2137.00
2067, 2138.00
2068, 2136.00
2069, 2139.00
2070, 2139.00
2071, 2143.00
2072, 2141.00
2073, 2144.00
2074, 2143.00
2075, 2142.00
2076, 2144.00
2077, 2145.00
2078, 2146.00
2079, 2146.00
2080, 2147.00
2081, 2146.00
2082, 2147.00
2083, 2150.00
2084, 2149.00
2085, 2151.00
2086, 2152.00
2087, 2151.00
2088, 2153.00
2089, 2153.00
2090, 2155.00
2091, 2155.00
2092, 2155.00
2093, 2156.00
2094, 2156.00
2095, 2158.00
2096, 2157.00
2097, 2158.00
2098, 2159.00
2099, 2158.00
2100, 2159.00
2101, 2161.00
2102, 2161.00
2103, 2160.00
2104, 2161.00
2105, 2161.00
2106, 2163.00
2107, 2164.00
2108, 2163.00
2109, 2163.00
2110, 2164.00
2111, 2162.00
2112, 2164.00
2113, 2166.00
2114, 2164.00
2115, 2165.00
2116, 2165.00
2117, 2166.00
2118, 2167.00
2119, 2166.00
2120, 2167.00
2121, 2168.00
2122, 2167.00
2123, 2169.00
2124, 2169.00
2125, 2167.00
2126, 2169.00
2127, 2169.00
2128, 2169.00
2129, 2171.00
2130, 2170.00
2131, 2170.00
2132, 2171.00
2133, 2170.00
2134, 2172.00
2135, 2173.00
2136, 2172.00
2137, 2174.00
2138, 2173.00
2139, 2172.00
2140, 2175.00
2141, 2172.00
2142, 2173.00
2143, 2173.00
2144, 2174.00
2145, 2173.00
2146, 2174.00
2147, 2177.00
2148, 2174.00
2149, 2175.00
2150, 2175.00
