FW version: 24
Log Version: 3.0.3

General Info:
       Command/Macro Performed,            Timestamp,             Device ID, COM Port, UART/I2C, Test Name, Host Major, Host Minor, Host Revision, Host Git Commit
            Single_measurement,  2023_06_30_11_28_06,       Insight2_F4_xxx,    USB-C,      USB,          ,          0,          1,             1,      4031237645

Show Spectrometer Status:
l0_version, f4_version, battery_perc, battery_mVolt, accelerometer_temp, accelerometer_x, accelerometer_y, accelerometer_z, compass_temp, compass_x, compass_y, compass_z, lamp_0, lamp_1, gain_0, gain_1
        17,         24,           94,          2073,               6224,           65240,             164,           18536,            0,     65531,     65527,     18552,   2047,   2047,      1,      1

Temperature Statistic Info:
NTC AVG [°C], NTC2 AVG [°C]
      39.145,        38.882

Statistic Info:
M1:  num,      min,      max,   median,      AVG,      STD,M2:  num,      min,      max,   median,      AVG,      STD
     301,   665.00,   769.00,   689.00,   700.58,  32.9025,     401,  1006.00,  1072.00,  1036.00,  1036.71,  21.5241,

Measurements:
Wavelength, Data Amplitude
1350, 680.00
1351, 680.00
1352, 680.00
1353, 680.00
1354, 679.00
1355, 679.00
1356, 679.00
1357, 678.00
1358, 679.00
1359, 678.00
1360, 677.00
1361, 677.00
1362, 677.00
1363, 676.00
1364, 676.00
1365, 675.00
1366, 675.00
1367, 675.00
1368, 674.00
1369, 673.00
1370, 673.00
1371, 673.00
1372, 674.00
1373, 672.00
1374, 672.00
1375, 672.00
1376, 671.00
1377, 671.00
1378, 669.00
1379, 670.00
1380, 671.00
1381, 669.00
1382, 669.00
1383, 669.00
1384, 668.00
1385, 668.00
1386, 667.00
1387, 668.00
1388, 668.00
1389, 668.00
1390, 668.00
1391, 668.00
1392, 667.00
1393, 666.00
1394, 667.00
1395, 666.00
1396, 666.00
1397, 667.00
1398, 666.00
1399, 666.00
1400, 666.00
1401, 667.00
1402, 666.00
1403, 666.00
1404, 666.00
1405, 666.00
1406, 666.00
1407, 665.00
1408, 666.00
1409, 666.00
1410, 666.00
1411, 666.00
1412, 666.00
1413, 666.00
1414, 665.00
1415, 666.00
1416, 666.00
1417, 665.00
1418, 666.00
1419, 665.00
1420, 666.00
1421, 666.00
1422, 666.00
1423, 666.00
1424, 666.00
1425, 667.00
1426, 667.00
1427, 667.00
1428, 666.00
1429, 666.00
1430, 668.00
1431, 667.00
1432, 667.00
1433, 667.00
1434, 667.00
1435, 667.00
1436, 667.00
1437, 668.00
1438, 668.00
1439, 668.00
1440, 667.00
1441, 668.00
1442, 669.00
1443, 669.00
1444, 668.00
1445, 669.00
1446, 669.00
1447, 669.00
1448, 670.00
1449, 670.00
1450, 670.00
1451, 670.00
1452, 671.00
1453, 672.00
1454, 672.00
1455, 672.00
1456, 671.00
1457, 673.00
1458, 672.00
1459, 672.00
1460, 673.00
1461, 673.00
1462, 673.00
1463, 674.00
1464, 674.00
1465, 674.00
1466, 675.00
1467, 675.00
1468, 676.00
1469, 676.00
1470, 676.00
1471, 677.00
1472, 677.00
1473, 678.00
1474, 677.00
1475, 678.00
1476, 678.00
1477, 679.00
1478, 679.00
1479, 680.00
1480, 680.00
1481, 681.00
1482, 681.00
1483, 681.00
1484, 682.00
1485, 682.00
1486, 683.00
1487, 683.00
1488, 684.00
1489, 684.00
1490, 684.00
1491, 685.00
1492, 685.00
1493, 686.00
1494, 687.00
1495, 687.00
1496, 687.00
1497, 689.00
1498, 689.00
1499, 689.00
1500, 689.00
1501, 690.00
1502, 690.00
1503, 690.00
1504, 691.00
1505, 692.00
1506, 692.00
1507, 692.00
1508, 693.00
1509, 693.00
1510, 693.00
1511, 694.00
1512, 695.00
1513, 695.00
1514, 696.00
1515, 696.00
1516, 697.00
1517, 698.00
1518, 698.00
1519, 699.00
1520, 699.00
1521, 700.00
1522, 699.00
1523, 701.00
1524, 700.00
1525, 702.00
1526, 702.00
1527, 702.00
1528, 703.00
1529, 704.00
1530, 705.00
1531, 705.00
1532, 706.00
1533, 705.00
1534, 706.00
1535, 707.00
1536, 707.00
1537, 708.00
1538, 708.00
1539, 710.00
1540, 710.00
1541, 710.00
1542, 710.00
1543, 711.00
1544, 712.00
1545, 711.00
1546, 713.00
1547, 714.00
1548, 714.00
1549, 714.00
1550, 715.00
1551, 714.00
1552, 716.00
1553, 717.00
1554, 718.00
1555, 717.00
1556, 717.00
1557, 718.00
1558, 720.00
1559, 720.00
1560, 720.00
1561, 720.00
1562, 721.00
1563, 721.00
1564, 722.00
1565, 723.00
1566, 722.00
1567, 724.00
1568, 724.00
1569, 724.00
1570, 726.00
1571, 727.00
1572, 726.00
1573, 727.00
1574, 728.00
1575, 728.00
1576, 728.00
1577, 729.00
1578, 730.00
1579, 730.00
1580, 731.00
1581, 731.00
1582, 731.00
1583, 732.00
1584, 732.00
1585, 733.00
1586, 734.00
1587, 734.00
1588, 735.00
1589, 735.00
1590, 736.00
1591, 737.00
1592, 737.00
1593, 737.00
1594, 738.00
1595, 738.00
1596, 738.00
1597, 739.00
1598, 740.00
1599, 741.00
1600, 740.00
1601, 741.00
1602, 742.00
1603, 742.00
1604, 743.00
1605, 744.00
1606, 745.00
1607, 745.00
1608, 745.00
1609, 745.00
1610, 747.00
1611, 746.00
1612, 747.00
1613, 749.00
1614, 750.00
1615, 750.00
1616, 751.00
1617, 751.00
1618, 752.00
1619, 753.00
1620, 753.00
1621, 754.00
1622, 754.00
1623, 755.00
1624, 756.00
1625, 756.00
1626, 757.00
1627, 758.00
1628, 759.00
1629, 759.00
1630, 759.00
1631, 760.00
1632, 760.00
1633, 761.00
1634, 762.00
1635, 762.00
1636, 762.00
1637, 763.00
1638, 764.00
1639, 764.00
1640, 765.00
1641, 765.00
1642, 765.00
1643, 766.00
1644, 766.00
1645, 768.00
1646, 767.00
1647, 767.00
1648, 767.00
1649, 768.00
1650, 769.00

1750, 1071.00
1751, 1071.00
1752, 1071.00
1753, 1071.00
1754, 1071.00
1755, 1071.00
1756, 1070.00
1757, 1072.00
1758, 1071.00
1759, 1071.00
1760, 1070.00
1761, 1070.00
1762, 1071.00
1763, 1070.00
1764, 1071.00
1765, 1070.00
1766, 1071.00
1767, 1071.00
1768, 1071.00
1769, 1072.00
1770, 1069.00
1771, 1071.00
1772, 1069.00
1773, 1068.00
1774, 1071.00
1775, 1068.00
1776, 1070.00
1777, 1069.00
1778, 1070.00
1779, 1068.00
1780, 1068.00
1781, 1069.00
1782, 1068.00
1783, 1068.00
1784, 1068.00
1785, 1067.00
1786, 1067.00
1787, 1068.00
1788, 1066.00
1789, 1065.00
1790, 1066.00
1791, 1067.00
1792, 1066.00
1793, 1066.00
1794, 1066.00
1795, 1067.00
1796, 1064.00
1797, 1066.00
1798, 1064.00
1799, 1065.00
1800, 1065.00
1801, 1065.00
1802, 1064.00
1803, 1065.00
1804, 1064.00
1805, 1063.00
1806, 1063.00
1807, 1063.00
1808, 1063.00
1809, 1064.00
1810, 1063.00
1811, 1062.00
1812, 1062.00
1813, 1061.00
1814, 1062.00
1815, 1061.00
1816, 1061.00
1817, 1061.00
1818, 1063.00
1819, 1060.00
1820, 1060.00
1821, 1060.00
1822, 1060.00
1823, 1059.00
1824, 1058.00
1825, 1058.00
1826, 1056.00
1827, 1055.00
1828, 1055.00
1829, 1055.00
1830, 1054.00
1831, 1055.00
1832, 1054.00
1833, 1053.00
1834, 1050.00
1835, 1049.00
1836, 1052.00
1837, 1051.00
1838, 1048.00
1839, 1047.00
1840, 1048.00
1841, 1045.00
1842, 1045.00
1843, 1044.00
1844, 1041.00
1845, 1042.00
1846, 1041.00
1847, 1040.00
1848, 1039.00
1849, 1038.00
1850, 1038.00
1851, 1037.00
1852, 1036.00
1853, 1035.00
1854, 1032.00
1855, 1032.00
1856, 1032.00
1857, 1031.00
1858, 1028.00
1859, 1028.00
1860, 1027.00
1861, 1027.00
1862, 1027.00
1863, 1025.00
1864, 1026.00
1865, 1024.00
1866, 1021.00
1867, 1021.00
1868, 1019.00
1869, 1019.00
1870, 1021.00
1871, 1018.00
1872, 1019.00
1873, 1018.00
1874, 1017.00
1875, 1016.00
1876, 1017.00
1877, 1015.00
1878, 1016.00
1879, 1015.00
1880, 1015.00
1881, 1013.00
1882, 1016.00
1883, 1014.00
1884, 1015.00
1885, 1014.00
1886, 1014.00
1887, 1012.00
1888, 1014.00
1889, 1013.00
1890, 1012.00
1891, 1010.00
1892, 1013.00
1893, 1013.00
1894, 1011.00
1895, 1009.00
1896, 1011.00
1897, 1011.00
1898, 1010.00
1899, 1011.00
1900, 1011.00
1901, 1011.00
1902, 1009.00
1903, 1009.00
1904, 1009.00
1905, 1008.00
1906, 1009.00
1907, 1010.00
1908, 1010.00
1909, 1009.00
1910, 1010.00
1911, 1011.00
1912, 1009.00
1913, 1008.00
1914, 1009.00
1915, 1009.00
1916, 1007.00
1917, 1009.00
1918, 1008.00
1919, 1006.00
1920, 1008.00
1921, 1007.00
1922, 1007.00
1923, 1008.00
1924, 1008.00
1925, 1007.00
1926, 1010.00
1927, 1009.00
1928, 1007.00
1929, 1009.00
1930, 1008.00
1931, 1007.00
1932, 1009.00
1933, 1010.00
1934, 1009.00
1935, 1009.00
1936, 1007.00
1937, 1009.00
1938, 1007.00
1939, 1007.00
1940, 1008.00
1941, 1008.00
1942, 1009.00
1943, 1008.00
1944, 1010.00
1945, 1010.00
1946, 1010.00
1947, 1009.00
1948, 1010.00
1949, 1007.00
1950, 1009.00
1951, 1008.00
1952, 1010.00
1953, 1008.00
1954, 1011.00
1955, 1011.00
1956, 1010.00
1957, 1010.00
1958, 1009.00
1959, 1010.00
1960, 1010.00
1961, 1011.00
1962, 1013.00
1963, 1012.00
1964, 1012.00
1965, 1013.00
1966, 1013.00
1967, 1013.00
1968, 1012.00
1969, 1012.00
1970, 1013.00
1971, 1013.00
1972, 1013.00
1973, 1014.00
1974, 1015.00
1975, 1016.00
1976, 1015.00
1977, 1016.00
1978, 1016.00
1979, 1016.00
1980, 1015.00
1981, 1015.00
1982, 1018.00
1983, 1015.00
1984, 1016.00
1985, 1018.00
1986, 1018.00
1987, 1018.00
1988, 1018.00
1989, 1019.00
1990, 1016.00
1991, 1018.00
1992, 1019.00
1993, 1018.00
1994, 1020.00
1995, 1019.00
1996, 1019.00
1997, 1020.00
1998, 1018.00
1999, 1020.00
2000, 1022.00
2001, 1019.00
2002, 1020.00
2003, 1021.00
2004, 1022.00
2005, 1021.00
2006, 1022.00
2007, 1020.00
2008, 1021.00
2009, 1021.00
2010, 1022.00
2011, 1024.00
2012, 1023.00
2013, 1024.00
2014, 1024.00
2015, 1025.00
2016, 1024.00
2017, 1025.00
2018, 1025.00
2019, 1025.00
2020, 1024.00
2021, 1026.00
2022, 1026.00
2023, 1027.00
2024, 1026.00
2025, 1027.00
2026, 1027.00
2027, 1026.00
2028, 1027.00
2029, 1028.00
2030, 1025.00
2031, 1028.00
2032, 1028.00
2033, 1027.00
2034, 1028.00
2035, 1029.00
2036, 1028.00
2037, 1031.00
2038, 1028.00
2039, 1032.00
2040, 1030.00
2041, 1029.00
2042, 1032.00
2043, 1031.00
2044, 1031.00
2045, 1031.00
2046, 1033.00
2047, 1033.00
2048, 1034.00
2049, 1034.00
2050, 1036.00
2051, 1035.00
2052, 1035.00
2053, 1035.00
2054, 1037.00
2055, 1037.00
2056, 1037.00
2057, 1037.00
2058, 1040.00
2059, 1036.00
2060, 1037.00
2061, 1037.00
2062, 1039.00
2063, 1041.00
2064, 1038.00
2065, 1040.00
2066, 1039.00
2067, 1040.00
2068, 1042.00
2069, 1039.00
2070, 1042.00
2071, 1042.00
2072, 1042.00
2073, 1044.00
2074, 1045.00
2075, 1045.00
2076, 1044.00
2077, 1045.00
2078, 1044.00
2079, 1046.00
2080, 1045.00
2081, 1046.00
2082, 1047.00
2083, 1046.00
2084, 1047.00
2085, 1047.00
2086, 1048.00
2087, 1047.00
2088, 1048.00
2089, 1048.00
2090, 1048.00
2091, 1048.00
2092, 1051.00
2093, 1050.00
2094, 1051.00
2095, 1051.00
2096, 1051.00
2097, 1051.00
2098, 1050.00
2099, 1051.00
2100, 1051.00
2101, 1053.00
2102, 1052.00
2103, 1053.00
2104, 1052.00
2105, 1053.00
2106, 1054.00
2107, 1054.00
2108, 1053.00
2109, 1054.00
2110, 1054.00
2111, 1053.00
2112, 1054.00
2113, 1054.00
2114, 1055.00
2115, 1056.00
2116, 1055.00
2117, 1056.00
2118, 1056.00
2119, 1055.00
2120, 1058.00
2121, 1056.00
2122, 1056.00
2123, 1056.00
2124, 1058.00
2125, 1056.00
2126, 1057.00
2127, 1057.00
2128, 1057.00
2129, 1058.00
2130, 1057.00
2131, 1057.00
2132, 1058.00
2133, 1058.00
2134, 1058.00
2135, 1058.00
2136, 1059.00
2137, 1059.00
2138, 1059.00
2139, 1059.00
2140, 1060.00
2141, 1059.00
2142, 1059.00
2143, 1059.00
2144, 1062.00
2145, 1060.00
2146, 1060.00
2147, 1061.00
2148, 1061.00
2149, 1060.00
2150, 1060.00
