FW version: 24
Log Version: 3.0.3

General Info:
       Command/Macro Performed,            Timestamp,             Device ID, COM Port, UART/I2C, Test Name, Host Major, Host Minor, Host Revision, Host Git Commit
            Single_measurement,  2023_07_04_10_52_39,       Insight2_F4_xxx,    USB-C,      USB,          ,          0,          1,             1,      4031237645

Show Spectrometer Status:
l0_version, f4_version, battery_perc, battery_mVolt, accelerometer_temp, accelerometer_x, accelerometer_y, accelerometer_z, compass_temp, compass_x, compass_y, compass_z, lamp_0, lamp_1, gain_0, gain_1
        17,         24,            5,          1813,               5216,           64972,            1712,           19016,            0,     65519,     65461,     19033,   2866,   2866,      1,      1

Temperature Statistic Info:
NTC AVG [°C], NTC2 AVG [°C]
      35.042,        34.651

Statistic Info:
M1:  num,      min,      max,   median,      AVG,      STD,M2:  num,      min,      max,   median,      AVG,      STD
     301,  1374.00,  1576.00,  1414.00,  1439.67,  62.1814,     401,  1850.00,  1974.00,  1899.00,  1903.45,  40.4010,

Measurements:
Wavelength, Data Amplitude
1350, 1413.00
1351, 1412.00
1352, 1412.00
1353, 1410.00
1354, 1409.00
1355, 1409.00
1356, 1409.00
1357, 1407.00
1358, 1406.00
1359, 1406.00
1360, 1405.00
1361, 1405.00
1362, 1405.00
1363, 1403.00
1364, 1401.00
1365, 1401.00
1366, 1400.00
1367, 1398.00
1368, 1398.00
1369, 1396.00
1370, 1397.00
1371, 1394.00
1372, 1394.00
1373, 1392.00
1374, 1393.00
1375, 1391.00
1376, 1390.00
1377, 1389.00
1378, 1388.00
1379, 1387.00
1380, 1386.00
1381, 1385.00
1382, 1386.00
1383, 1383.00
1384, 1384.00
1385, 1383.00
1386, 1382.00
1387, 1382.00
1388, 1382.00
1389, 1382.00
1390, 1381.00
1391, 1379.00
1392, 1381.00
1393, 1380.00
1394, 1379.00
1395, 1378.00
1396, 1379.00
1397, 1378.00
1398, 1378.00
1399, 1377.00
1400, 1378.00
1401, 1377.00
1402, 1377.00
1403, 1376.00
1404, 1376.00
1405, 1377.00
1406, 1376.00
1407, 1376.00
1408, 1375.00
1409, 1375.00
1410, 1375.00
1411, 1375.00
1412, 1375.00
1413, 1375.00
1414, 1375.00
1415, 1375.00
1416, 1374.00
1417, 1375.00
1418, 1375.00
1419, 1374.00
1420, 1375.00
1421, 1374.00
1422, 1375.00
1423, 1375.00
1424, 1375.00
1425, 1374.00
1426, 1374.00
1427, 1375.00
1428, 1374.00
1429, 1375.00
1430, 1375.00
1431, 1376.00
1432, 1375.00
1433, 1376.00
1434, 1376.00
1435, 1376.00
1436, 1376.00
1437, 1377.00
1438, 1377.00
1439, 1377.00
1440, 1377.00
1441, 1378.00
1442, 1378.00
1443, 1379.00
1444, 1379.00
1445, 1379.00
1446, 1379.00
1447, 1380.00
1448, 1380.00
1449, 1380.00
1450, 1381.00
1451, 1381.00
1452, 1381.00
1453, 1382.00
1454, 1382.00
1455, 1383.00
1456, 1383.00
1457, 1383.00
1458, 1384.00
1459, 1385.00
1460, 1386.00
1461, 1385.00
1462, 1386.00
1463, 1387.00
1464, 1387.00
1465, 1388.00
1466, 1389.00
1467, 1389.00
1468, 1389.00
1469, 1390.00
1470, 1391.00
1471, 1391.00
1472, 1392.00
1473, 1392.00
1474, 1393.00
1475, 1394.00
1476, 1395.00
1477, 1395.00
1478, 1397.00
1479, 1397.00
1480, 1398.00
1481, 1398.00
1482, 1399.00
1483, 1400.00
1484, 1401.00
1485, 1402.00
1486, 1402.00
1487, 1403.00
1488, 1404.00
1489, 1405.00
1490, 1405.00
1491, 1407.00
1492, 1407.00
1493, 1407.00
1494, 1408.00
1495, 1410.00
1496, 1410.00
1497, 1412.00
1498, 1412.00
1499, 1413.00
1500, 1414.00
1501, 1415.00
1502, 1417.00
1503, 1417.00
1504, 1417.00
1505, 1418.00
1506, 1418.00
1507, 1420.00
1508, 1421.00
1509, 1421.00
1510, 1423.00
1511, 1424.00
1512, 1425.00
1513, 1426.00
1514, 1427.00
1515, 1427.00
1516, 1429.00
1517, 1429.00
1518, 1430.00
1519, 1431.00
1520, 1432.00
1521, 1434.00
1522, 1434.00
1523, 1436.00
1524, 1437.00
1525, 1438.00
1526, 1438.00
1527, 1439.00
1528, 1441.00
1529, 1442.00
1530, 1443.00
1531, 1444.00
1532, 1445.00
1533, 1446.00
1534, 1447.00
1535, 1447.00
1536, 1449.00
1537, 1449.00
1538, 1451.00
1539, 1452.00
1540, 1451.00
1541, 1453.00
1542, 1454.00
1543, 1456.00
1544, 1456.00
1545, 1456.00
1546, 1458.00
1547, 1459.00
1548, 1460.00
1549, 1461.00
1550, 1463.00
1551, 1463.00
1552, 1465.00
1553, 1464.00
1554, 1466.00
1555, 1467.00
1556, 1468.00
1557, 1469.00
1558, 1470.00
1559, 1472.00
1560, 1474.00
1561, 1474.00
1562, 1476.00
1563, 1476.00
1564, 1478.00
1565, 1479.00
1566, 1480.00
1567, 1480.00
1568, 1482.00
1569, 1483.00
1570, 1484.00
1571, 1486.00
1572, 1487.00
1573, 1488.00
1574, 1489.00
1575, 1490.00
1576, 1491.00
1577, 1492.00
1578, 1493.00
1579, 1494.00
1580, 1495.00
1581, 1497.00
1582, 1497.00
1583, 1499.00
1584, 1498.00
1585, 1501.00
1586, 1501.00
1587, 1502.00
1588, 1504.00
1589, 1503.00
1590, 1505.00
1591, 1506.00
1592, 1508.00
1593, 1508.00
1594, 1511.00
1595, 1510.00
1596, 1511.00
1597, 1512.00
1598, 1514.00
1599, 1514.00
1600, 1516.00
1601, 1517.00
1602, 1518.00
1603, 1518.00
1604, 1521.00
1605, 1521.00
1606, 1523.00
1607, 1523.00
1608, 1525.00
1609, 1526.00
1610, 1527.00
1611, 1529.00
1612, 1530.00
1613, 1532.00
1614, 1532.00
1615, 1534.00
1616, 1535.00
1617, 1536.00
1618, 1537.00
1619, 1539.00
1620, 1540.00
1621, 1541.00
1622, 1543.00
1623, 1545.00
1624, 1546.00
1625, 1547.00
1626, 1548.00
1627, 1550.00
1628, 1552.00
1629, 1551.00
1630, 1552.00
1631, 1555.00
1632, 1556.00
1633, 1557.00
1634, 1557.00
1635, 1559.00
1636, 1559.00
1637, 1561.00
1638, 1563.00
1639, 1563.00
1640, 1564.00
1641, 1565.00
1642, 1567.00
1643, 1567.00
1644, 1569.00
1645, 1570.00
1646, 1571.00
1647, 1571.00
1648, 1573.00
1649, 1574.00
1650, 1576.00

1750, 1973.00
1751, 1973.00
1752, 1974.00
1753, 1973.00
1754, 1973.00
1755, 1973.00
1756, 1972.00
1757, 1974.00
1758, 1973.00
1759, 1971.00
1760, 1972.00
1761, 1974.00
1762, 1973.00
1763, 1973.00
1764, 1971.00
1765, 1974.00
1766, 1973.00
1767, 1972.00
1768, 1969.00
1769, 1971.00
1770, 1971.00
1771, 1973.00
1772, 1971.00
1773, 1971.00
1774, 1970.00
1775, 1970.00
1776, 1969.00
1777, 1968.00
1778, 1970.00
1779, 1969.00
1780, 1968.00
1781, 1969.00
1782, 1967.00
1783, 1966.00
1784, 1967.00
1785, 1968.00
1786, 1965.00
1787, 1963.00
1788, 1964.00
1789, 1965.00
1790, 1965.00
1791, 1963.00
1792, 1963.00
1793, 1962.00
1794, 1963.00
1795, 1963.00
1796, 1963.00
1797, 1960.00
1798, 1961.00
1799, 1960.00
1800, 1960.00
1801, 1959.00
1802, 1961.00
1803, 1959.00
1804, 1959.00
1805, 1958.00
1806, 1959.00
1807, 1957.00
1808, 1959.00
1809, 1957.00
1810, 1956.00
1811, 1955.00
1812, 1956.00
1813, 1955.00
1814, 1954.00
1815, 1953.00
1816, 1952.00
1817, 1954.00
1818, 1952.00
1819, 1951.00
1820, 1950.00
1821, 1950.00
1822, 1950.00
1823, 1948.00
1824, 1947.00
1825, 1946.00
1826, 1945.00
1827, 1945.00
1828, 1943.00
1829, 1942.00
1830, 1941.00
1831, 1940.00
1832, 1938.00
1833, 1937.00
1834, 1935.00
1835, 1934.00
1836, 1932.00
1837, 1930.00
1838, 1929.00
1839, 1928.00
1840, 1927.00
1841, 1925.00
1842, 1922.00
1843, 1918.00
1844, 1918.00
1845, 1917.00
1846, 1917.00
1847, 1913.00
1848, 1913.00
1849, 1910.00
1850, 1907.00
1851, 1906.00
1852, 1904.00
1853, 1903.00
1854, 1898.00
1855, 1898.00
1856, 1897.00
1857, 1893.00
1858, 1892.00
1859, 1891.00
1860, 1889.00
1861, 1887.00
1862, 1886.00
1863, 1884.00
1864, 1883.00
1865, 1883.00
1866, 1880.00
1867, 1877.00
1868, 1876.00
1869, 1876.00
1870, 1875.00
1871, 1873.00
1872, 1872.00
1873, 1869.00
1874, 1871.00
1875, 1869.00
1876, 1869.00
1877, 1868.00
1878, 1867.00
1879, 1866.00
1880, 1865.00
1881, 1864.00
1882, 1865.00
1883, 1864.00
1884, 1862.00
1885, 1862.00
1886, 1861.00
1887, 1862.00
1888, 1860.00
1889, 1859.00
1890, 1859.00
1891, 1860.00
1892, 1858.00
1893, 1859.00
1894, 1859.00
1895, 1857.00
1896, 1856.00
1897, 1856.00
1898, 1857.00
1899, 1857.00
1900, 1857.00
1901, 1857.00
1902, 1855.00
1903, 1855.00
1904, 1855.00
1905, 1855.00
1906, 1855.00
1907, 1855.00
1908, 1855.00
1909, 1853.00
1910, 1854.00
1911, 1853.00
1912, 1853.00
1913, 1853.00
1914, 1853.00
1915, 1854.00
1916, 1854.00
1917, 1852.00
1918, 1851.00
1919, 1853.00
1920, 1852.00
1921, 1854.00
1922, 1852.00
1923, 1851.00
1924, 1852.00
1925, 1850.00
1926, 1853.00
1927, 1853.00
1928, 1851.00
1929, 1851.00
1930, 1850.00
1931, 1851.00
1932, 1853.00
1933, 1852.00
1934, 1852.00
1935, 1852.00
1936, 1851.00
1937, 1853.00
1938, 1853.00
1939, 1853.00
1940, 1853.00
1941, 1853.00
1942, 1853.00
1943, 1853.00
1944, 1852.00
1945, 1851.00
1946, 1853.00
1947, 1854.00
1948, 1853.00
1949, 1853.00
1950, 1852.00
1951, 1855.00
1952, 1854.00
1953, 1854.00
1954, 1855.00
1955, 1855.00
1956, 1856.00
1957, 1856.00
1958, 1856.00
1959, 1856.00
1960, 1856.00
1961, 1857.00
1962, 1858.00
1963, 1856.00
1964, 1857.00
1965, 1858.00
1966, 1857.00
1967, 1858.00
1968, 1857.00
1969, 1859.00
1970, 1858.00
1971, 1860.00
1972, 1860.00
1973, 1860.00
1974, 1861.00
1975, 1862.00
1976, 1862.00
1977, 1862.00
1978, 1862.00
1979, 1865.00
1980, 1862.00
1981, 1864.00
1982, 1864.00
1983, 1864.00
1984, 1865.00
1985, 1865.00
1986, 1867.00
1987, 1866.00
1988, 1866.00
1989, 1867.00
1990, 1866.00
1991, 1867.00
1992, 1869.00
1993, 1867.00
1994, 1869.00
1995, 1868.00
1996, 1870.00
1997, 1869.00
1998, 1869.00
1999, 1874.00
2000, 1871.00
2001, 1870.00
2002, 1872.00
2003, 1873.00
2004, 1873.00
2005, 1873.00
2006, 1873.00
2007, 1875.00
2008, 1874.00
2009, 1877.00
2010, 1874.00
2011, 1876.00
2012, 1876.00
2013, 1878.00
2014, 1878.00
2015, 1878.00
2016, 1877.00
2017, 1879.00
2018, 1879.00
2019, 1879.00
2020, 1880.00
2021, 1879.00
2022, 1881.00
2023, 1881.00
2024, 1882.00
2025, 1881.00
2026, 1883.00
2027, 1883.00
2028, 1882.00
2029, 1885.00
2030, 1883.00
2031, 1884.00
2032, 1886.00
2033, 1885.00
2034, 1885.00
2035, 1887.00
2036, 1888.00
2037, 1888.00
2038, 1888.00
2039, 1888.00
2040, 1890.00
2041, 1892.00
2042, 1890.00
2043, 1891.00
2044, 1890.00
2045, 1892.00
2046, 1893.00
2047, 1893.00
2048, 1894.00
2049, 1895.00
2050, 1895.00
2051, 1897.00
2052, 1896.00
2053, 1897.00
2054, 1899.00
2055, 1899.00
2056, 1899.00
2057, 1899.00
2058, 1901.00
2059, 1902.00
2060, 1903.00
2061, 1903.00
2062, 1904.00
2063, 1906.00
2064, 1905.00
2065, 1905.00
2066, 1907.00
2067, 1908.00
2068, 1909.00
2069, 1909.00
2070, 1911.00
2071, 1910.00
2072, 1909.00
2073, 1911.00
2074, 1912.00
2075, 1910.00
2076, 1913.00
2077, 1914.00
2078, 1912.00
2079, 1916.00
2080, 1917.00
2081, 1915.00
2082, 1917.00
2083, 1916.00
2084, 1917.00
2085, 1917.00
2086, 1918.00
2087, 1919.00
2088, 1920.00
2089, 1920.00
2090, 1921.00
2091, 1922.00
2092, 1922.00
2093, 1921.00
2094, 1921.00
2095, 1924.00
2096, 1924.00
2097, 1926.00
2098, 1925.00
2099, 1926.00
2100, 1926.00
2101, 1926.00
2102, 1926.00
2103, 1927.00
2104, 1928.00
2105, 1927.00
2106, 1929.00
2107, 1927.00
2108, 1928.00
2109, 1929.00
2110, 1929.00
2111, 1930.00
2112, 1929.00
2113, 1930.00
2114, 1933.00
2115, 1931.00
2116, 1932.00
2117, 1932.00
2118, 1932.00
2119, 1931.00
2120, 1932.00
2121, 1934.00
2122, 1933.00
2123, 1932.00
2124, 1934.00
2125, 1933.00
2126, 1934.00
2127, 1935.00
2128, 1937.00
2129, 1935.00
2130, 1935.00
2131, 1936.00
2132, 1937.00
2133, 1938.00
2134, 1937.00
2135, 1938.00
2136, 1938.00
2137, 1938.00
2138, 1937.00
2139, 1939.00
2140, 1939.00
2141, 1939.00
2142, 1939.00
2143, 1940.00
2144, 1938.00
2145, 1938.00
2146, 1939.00
2147, 1940.00
2148, 1940.00
2149, 1940.00
2150, 1940.00
