FW version: 24
Log Version: 3.0.3

General Info:
       Command/Macro Performed,            Timestamp,             Device ID, COM Port, UART/I2C, Test Name, Host Major, Host Minor, Host Revision, Host Git Commit
            Single_measurement,  2023_07_04_10_51_57,       Insight2_F4_xxx,    USB-C,      USB,          ,          0,          1,             1,      4031237645

Show Spectrometer Status:
l0_version, f4_version, battery_perc, battery_mVolt, accelerometer_temp, accelerometer_x, accelerometer_y, accelerometer_z, compass_temp, compass_x, compass_y, compass_z, lamp_0, lamp_1, gain_0, gain_1
        17,         24,            5,          1816,               5184,           64952,            1720,           18956,            0,     65529,     65468,     19023,   2047,   2047,      1,      1

Temperature Statistic Info:
NTC AVG [°C], NTC2 AVG [°C]
      34.707,        34.341

Statistic Info:
M1:  num,      min,      max,   median,      AVG,      STD,M2:  num,      min,      max,   median,      AVG,      STD
     301,   701.00,   809.00,   725.00,   737.50,  34.1251,     401,  1037.00,  1106.00,  1066.00,  1067.64,  23.0047,

Measurements:
Wavelength, Data Amplitude
1350, 719.00
1351, 720.00
1352, 718.00
1353, 718.00
1354, 716.00
1355, 718.00
1356, 717.00
1357, 717.00
1358, 715.00
1359, 716.00
1360, 716.00
1361, 716.00
1362, 716.00
1363, 715.00
1364, 713.00
1365, 714.00
1366, 712.00
1367, 713.00
1368, 711.00
1369, 712.00
1370, 711.00
1371, 710.00
1372, 710.00
1373, 710.00
1374, 709.00
1375, 709.00
1376, 708.00
1377, 708.00
1378, 707.00
1379, 708.00
1380, 706.00
1381, 706.00
1382, 707.00
1383, 705.00
1384, 705.00
1385, 705.00
1386, 705.00
1387, 704.00
1388, 705.00
1389, 704.00
1390, 704.00
1391, 703.00
1392, 703.00
1393, 703.00
1394, 703.00
1395, 703.00
1396, 703.00
1397, 702.00
1398, 703.00
1399, 702.00
1400, 702.00
1401, 702.00
1402, 702.00
1403, 702.00
1404, 702.00
1405, 703.00
1406, 702.00
1407, 701.00
1408, 702.00
1409, 702.00
1410, 703.00
1411, 701.00
1412, 701.00
1413, 701.00
1414, 701.00
1415, 701.00
1416, 702.00
1417, 701.00
1418, 701.00
1419, 702.00
1420, 702.00
1421, 702.00
1422, 702.00
1423, 702.00
1424, 701.00
1425, 702.00
1426, 701.00
1427, 702.00
1428, 702.00
1429, 702.00
1430, 702.00
1431, 702.00
1432, 703.00
1433, 703.00
1434, 702.00
1435, 702.00
1436, 703.00
1437, 702.00
1438, 703.00
1439, 704.00
1440, 703.00
1441, 704.00
1442, 704.00
1443, 704.00
1444, 704.00
1445, 705.00
1446, 705.00
1447, 705.00
1448, 705.00
1449, 705.00
1450, 705.00
1451, 705.00
1452, 706.00
1453, 706.00
1454, 707.00
1455, 707.00
1456, 707.00
1457, 706.00
1458, 707.00
1459, 708.00
1460, 708.00
1461, 708.00
1462, 709.00
1463, 709.00
1464, 709.00
1465, 709.00
1466, 709.00
1467, 711.00
1468, 711.00
1469, 711.00
1470, 711.00
1471, 712.00
1472, 712.00
1473, 712.00
1474, 713.00
1475, 713.00
1476, 713.00
1477, 714.00
1478, 715.00
1479, 714.00
1480, 716.00
1481, 715.00
1482, 716.00
1483, 717.00
1484, 717.00
1485, 717.00
1486, 718.00
1487, 718.00
1488, 719.00
1489, 719.00
1490, 720.00
1491, 720.00
1492, 721.00
1493, 721.00
1494, 722.00
1495, 722.00
1496, 723.00
1497, 723.00
1498, 724.00
1499, 724.00
1500, 725.00
1501, 725.00
1502, 725.00
1503, 725.00
1504, 726.00
1505, 727.00
1506, 728.00
1507, 728.00
1508, 729.00
1509, 730.00
1510, 730.00
1511, 730.00
1512, 730.00
1513, 732.00
1514, 733.00
1515, 732.00
1516, 734.00
1517, 733.00
1518, 735.00
1519, 735.00
1520, 735.00
1521, 736.00
1522, 737.00
1523, 737.00
1524, 738.00
1525, 739.00
1526, 738.00
1527, 740.00
1528, 740.00
1529, 741.00
1530, 742.00
1531, 741.00
1532, 743.00
1533, 743.00
1534, 745.00
1535, 744.00
1536, 745.00
1537, 745.00
1538, 746.00
1539, 746.00
1540, 747.00
1541, 747.00
1542, 748.00
1543, 748.00
1544, 748.00
1545, 749.00
1546, 750.00
1547, 750.00
1548, 750.00
1549, 752.00
1550, 752.00
1551, 752.00
1552, 753.00
1553, 754.00
1554, 754.00
1555, 754.00
1556, 755.00
1557, 755.00
1558, 756.00
1559, 757.00
1560, 757.00
1561, 757.00
1562, 758.00
1563, 758.00
1564, 759.00
1565, 760.00
1566, 760.00
1567, 761.00
1568, 761.00
1569, 762.00
1570, 763.00
1571, 763.00
1572, 763.00
1573, 765.00
1574, 764.00
1575, 766.00
1576, 766.00
1577, 767.00
1578, 768.00
1579, 768.00
1580, 768.00
1581, 769.00
1582, 769.00
1583, 770.00
1584, 771.00
1585, 772.00
1586, 771.00
1587, 772.00
1588, 772.00
1589, 773.00
1590, 774.00
1591, 774.00
1592, 775.00
1593, 776.00
1594, 776.00
1595, 776.00
1596, 777.00
1597, 778.00
1598, 779.00
1599, 779.00
1600, 779.00
1601, 780.00
1602, 779.00
1603, 781.00
1604, 781.00
1605, 783.00
1606, 782.00
1607, 784.00
1608, 784.00
1609, 785.00
1610, 784.00
1611, 786.00
1612, 787.00
1613, 787.00
1614, 788.00
1615, 789.00
1616, 790.00
1617, 790.00
1618, 791.00
1619, 792.00
1620, 793.00
1621, 793.00
1622, 793.00
1623, 794.00
1624, 795.00
1625, 796.00
1626, 797.00
1627, 797.00
1628, 798.00
1629, 798.00
1630, 799.00
1631, 799.00
1632, 800.00
1633, 801.00
1634, 801.00
1635, 802.00
1636, 802.00
1637, 803.00
1638, 803.00
1639, 804.00
1640, 805.00
1641, 805.00
1642, 805.00
1643, 806.00
1644, 807.00
1645, 806.00
1646, 807.00
1647, 807.00
1648, 808.00
1649, 807.00
1650, 809.00

1750, 1105.00
1751, 1104.00
1752, 1105.00
1753, 1104.00
1754, 1106.00
1755, 1105.00
1756, 1105.00
1757, 1106.00
1758, 1106.00
1759, 1104.00
1760, 1104.00
1761, 1105.00
1762, 1105.00
1763, 1104.00
1764, 1106.00
1765, 1105.00
1766, 1104.00
1767, 1106.00
1768, 1105.00
1769, 1106.00
1770, 1105.00
1771, 1105.00
1772, 1106.00
1773, 1104.00
1774, 1104.00
1775, 1104.00
1776, 1103.00
1777, 1102.00
1778, 1104.00
1779, 1103.00
1780, 1102.00
1781, 1103.00
1782, 1102.00
1783, 1103.00
1784, 1102.00
1785, 1102.00
1786, 1101.00
1787, 1103.00
1788, 1100.00
1789, 1101.00
1790, 1100.00
1791, 1101.00
1792, 1101.00
1793, 1099.00
1794, 1100.00
1795, 1099.00
1796, 1100.00
1797, 1100.00
1798, 1098.00
1799, 1099.00
1800, 1099.00
1801, 1097.00
1802, 1097.00
1803, 1099.00
1804, 1098.00
1805, 1099.00
1806, 1098.00
1807, 1098.00
1808, 1097.00
1809, 1097.00
1810, 1097.00
1811, 1096.00
1812, 1096.00
1813, 1095.00
1814, 1095.00
1815, 1095.00
1816, 1095.00
1817, 1093.00
1818, 1094.00
1819, 1094.00
1820, 1094.00
1821, 1093.00
1822, 1092.00
1823, 1091.00
1824, 1091.00
1825, 1090.00
1826, 1089.00
1827, 1090.00
1828, 1090.00
1829, 1089.00
1830, 1089.00
1831, 1087.00
1832, 1086.00
1833, 1084.00
1834, 1087.00
1835, 1085.00
1836, 1085.00
1837, 1083.00
1838, 1081.00
1839, 1080.00
1840, 1080.00
1841, 1079.00
1842, 1078.00
1843, 1076.00
1844, 1076.00
1845, 1074.00
1846, 1073.00
1847, 1073.00
1848, 1072.00
1849, 1069.00
1850, 1070.00
1851, 1069.00
1852, 1067.00
1853, 1066.00
1854, 1065.00
1855, 1063.00
1856, 1064.00
1857, 1061.00
1858, 1059.00
1859, 1061.00
1860, 1060.00
1861, 1058.00
1862, 1056.00
1863, 1056.00
1864, 1057.00
1865, 1054.00
1866, 1053.00
1867, 1051.00
1868, 1051.00
1869, 1052.00
1870, 1049.00
1871, 1050.00
1872, 1050.00
1873, 1048.00
1874, 1049.00
1875, 1047.00
1876, 1046.00
1877, 1048.00
1878, 1044.00
1879, 1046.00
1880, 1044.00
1881, 1046.00
1882, 1046.00
1883, 1044.00
1884, 1045.00
1885, 1042.00
1886, 1044.00
1887, 1043.00
1888, 1043.00
1889, 1043.00
1890, 1043.00
1891, 1042.00
1892, 1042.00
1893, 1041.00
1894, 1041.00
1895, 1040.00
1896, 1041.00
1897, 1040.00
1898, 1040.00
1899, 1042.00
1900, 1040.00
1901, 1040.00
1902, 1039.00
1903, 1039.00
1904, 1039.00
1905, 1040.00
1906, 1040.00
1907, 1037.00
1908, 1039.00
1909, 1039.00
1910, 1039.00
1911, 1039.00
1912, 1038.00
1913, 1037.00
1914, 1037.00
1915, 1039.00
1916, 1038.00
1917, 1037.00
1918, 1038.00
1919, 1038.00
1920, 1039.00
1921, 1038.00
1922, 1039.00
1923, 1040.00
1924, 1037.00
1925, 1038.00
1926, 1038.00
1927, 1037.00
1928, 1040.00
1929, 1037.00
1930, 1039.00
1931, 1038.00
1932, 1037.00
1933, 1039.00
1934, 1037.00
1935, 1037.00
1936, 1038.00
1937, 1039.00
1938, 1038.00
1939, 1040.00
1940, 1038.00
1941, 1038.00
1942, 1038.00
1943, 1038.00
1944, 1038.00
1945, 1040.00
1946, 1040.00
1947, 1038.00
1948, 1039.00
1949, 1038.00
1950, 1038.00
1951, 1040.00
1952, 1038.00
1953, 1039.00
1954, 1038.00
1955, 1039.00
1956, 1040.00
1957, 1042.00
1958, 1041.00
1959, 1041.00
1960, 1041.00
1961, 1040.00
1962, 1042.00
1963, 1041.00
1964, 1042.00
1965, 1040.00
1966, 1042.00
1967, 1043.00
1968, 1042.00
1969, 1041.00
1970, 1042.00
1971, 1042.00
1972, 1044.00
1973, 1045.00
1974, 1043.00
1975, 1044.00
1976, 1043.00
1977, 1044.00
1978, 1044.00
1979, 1044.00
1980, 1044.00
1981, 1044.00
1982, 1045.00
1983, 1045.00
1984, 1047.00
1985, 1045.00
1986, 1044.00
1987, 1045.00
1988, 1048.00
1989, 1047.00
1990, 1047.00
1991, 1046.00
1992, 1048.00
1993, 1047.00
1994, 1047.00
1995, 1048.00
1996, 1049.00
1997, 1049.00
1998, 1049.00
1999, 1047.00
2000, 1049.00
2001, 1049.00
2002, 1050.00
2003, 1049.00
2004, 1048.00
2005, 1048.00
2006, 1050.00
2007, 1052.00
2008, 1049.00
2009, 1052.00
2010, 1051.00
2011, 1051.00
2012, 1051.00
2013, 1052.00
2014, 1054.00
2015, 1052.00
2016, 1053.00
2017, 1054.00
2018, 1053.00
2019, 1056.00
2020, 1054.00
2021, 1054.00
2022, 1056.00
2023, 1055.00
2024, 1057.00
2025, 1055.00
2026, 1057.00
2027, 1057.00
2028, 1056.00
2029, 1056.00
2030, 1057.00
2031, 1057.00
2032, 1057.00
2033, 1058.00
2034, 1059.00
2035, 1058.00
2036, 1059.00
2037, 1060.00
2038, 1060.00
2039, 1059.00
2040, 1060.00
2041, 1060.00
2042, 1060.00
2043, 1062.00
2044, 1061.00
2045, 1062.00
2046, 1062.00
2047, 1062.00
2048, 1065.00
2049, 1063.00
2050, 1064.00
2051, 1062.00
2052, 1065.00
2053, 1065.00
2054, 1066.00
2055, 1067.00
2056, 1066.00
2057, 1066.00
2058, 1066.00
2059, 1066.00
2060, 1067.00
2061, 1069.00
2062, 1069.00
2063, 1069.00
2064, 1069.00
2065, 1070.00
2066, 1070.00
2067, 1070.00
2068, 1068.00
2069, 1071.00
2070, 1071.00
2071, 1071.00
2072, 1073.00
2073, 1074.00
2074, 1075.00
2075, 1074.00
2076, 1076.00
2077, 1074.00
2078, 1076.00
2079, 1076.00
2080, 1076.00
2081, 1077.00
2082, 1076.00
2083, 1076.00
2084, 1077.00
2085, 1077.00
2086, 1078.00
2087, 1079.00
2088, 1079.00
2089, 1078.00
2090, 1081.00
2091, 1081.00
2092, 1079.00
2093, 1081.00
2094, 1080.00
2095, 1081.00
2096, 1081.00
2097, 1082.00
2098, 1082.00
2099, 1083.00
2100, 1083.00
2101, 1083.00
2102, 1083.00
2103, 1084.00
2104, 1084.00
2105, 1083.00
2106, 1084.00
2107, 1083.00
2108, 1085.00
2109, 1085.00
2110, 1085.00
2111, 1084.00
2112, 1086.00
2113, 1085.00
2114, 1086.00
2115, 1086.00
2116, 1087.00
2117, 1086.00
2118, 1085.00
2119, 1087.00
2120, 1087.00
2121, 1088.00
2122, 1088.00
2123, 1088.00
2124, 1088.00
2125, 1088.00
2126, 1087.00
2127, 1089.00
2128, 1088.00
2129, 1089.00
2130, 1088.00
2131, 1088.00
2132, 1089.00
2133, 1089.00
2134, 1090.00
2135, 1089.00
2136, 1089.00
2137, 1090.00
2138, 1092.00
2139, 1090.00
2140, 1090.00
2141, 1089.00
2142, 1090.00
2143, 1089.00
2144, 1091.00
2145, 1090.00
2146, 1092.00
2147, 1091.00
2148, 1090.00
2149, 1091.00
2150, 1091.00
