FW version: 24
Log Version: 3.0.3

General Info:
       Command/Macro Performed,            Timestamp,             Device ID, COM Port, UART/I2C, Test Name, Host Major, Host Minor, Host Revision, Host Git Commit
            Single_measurement,  2023_07_04_10_52_05,       Insight2_F4_xxx,    USB-C,      USB,          ,          0,          1,             1,      4031237645

Show Spectrometer Status:
l0_version, f4_version, battery_perc, battery_mVolt, accelerometer_temp, accelerometer_x, accelerometer_y, accelerometer_z, compass_temp, compass_x, compass_y, compass_z, lamp_0, lamp_1, gain_0, gain_1
        17,         24,            5,          1813,               5168,           65020,            1772,           19008,            0,     65534,     65532,     19023,   2047,   2047,      1,      1

Temperature Statistic Info:
NTC AVG [°C], NTC2 AVG [°C]
      34.762,        34.426

Statistic Info:
M1:  num,      min,      max,   median,      AVG,      STD,M2:  num,      min,      max,   median,      AVG,      STD
     301,   701.00,   810.00,   726.00,   738.24,  34.1257,     401,  1038.00,  1107.00,  1066.00,  1068.63,  22.9126,

Measurements:
Wavelength, Data Amplitude
1350, 720.00
1351, 719.00
1352, 719.00
1353, 719.00
1354, 718.00
1355, 718.00
1356, 718.00
1357, 718.00
1358, 717.00
1359, 716.00
1360, 716.00
1361, 716.00
1362, 716.00
1363, 715.00
1364, 714.00
1365, 715.00
1366, 713.00
1367, 713.00
1368, 713.00
1369, 711.00
1370, 712.00
1371, 711.00
1372, 711.00
1373, 710.00
1374, 709.00
1375, 710.00
1376, 708.00
1377, 708.00
1378, 708.00
1379, 708.00
1380, 708.00
1381, 707.00
1382, 707.00
1383, 706.00
1384, 707.00
1385, 706.00
1386, 705.00
1387, 705.00
1388, 706.00
1389, 704.00
1390, 704.00
1391, 705.00
1392, 704.00
1393, 704.00
1394, 704.00
1395, 704.00
1396, 704.00
1397, 703.00
1398, 703.00
1399, 703.00
1400, 703.00
1401, 703.00
1402, 702.00
1403, 703.00
1404, 703.00
1405, 703.00
1406, 702.00
1407, 701.00
1408, 703.00
1409, 702.00
1410, 702.00
1411, 702.00
1412, 702.00
1413, 702.00
1414, 701.00
1415, 703.00
1416, 702.00
1417, 703.00
1418, 702.00
1419, 703.00
1420, 702.00
1421, 701.00
1422, 702.00
1423, 702.00
1424, 702.00
1425, 703.00
1426, 703.00
1427, 702.00
1428, 702.00
1429, 703.00
1430, 703.00
1431, 704.00
1432, 703.00
1433, 703.00
1434, 703.00
1435, 703.00
1436, 703.00
1437, 705.00
1438, 703.00
1439, 704.00
1440, 704.00
1441, 705.00
1442, 704.00
1443, 704.00
1444, 704.00
1445, 705.00
1446, 705.00
1447, 706.00
1448, 705.00
1449, 706.00
1450, 707.00
1451, 706.00
1452, 706.00
1453, 707.00
1454, 707.00
1455, 708.00
1456, 707.00
1457, 708.00
1458, 708.00
1459, 708.00
1460, 709.00
1461, 709.00
1462, 709.00
1463, 710.00
1464, 711.00
1465, 710.00
1466, 710.00
1467, 710.00
1468, 711.00
1469, 712.00
1470, 713.00
1471, 712.00
1472, 713.00
1473, 713.00
1474, 713.00
1475, 714.00
1476, 714.00
1477, 715.00
1478, 715.00
1479, 715.00
1480, 715.00
1481, 717.00
1482, 718.00
1483, 717.00
1484, 718.00
1485, 719.00
1486, 719.00
1487, 720.00
1488, 719.00
1489, 720.00
1490, 720.00
1491, 721.00
1492, 722.00
1493, 722.00
1494, 723.00
1495, 723.00
1496, 723.00
1497, 725.00
1498, 725.00
1499, 726.00
1500, 726.00
1501, 727.00
1502, 727.00
1503, 727.00
1504, 728.00
1505, 728.00
1506, 728.00
1507, 729.00
1508, 730.00
1509, 730.00
1510, 731.00
1511, 731.00
1512, 732.00
1513, 733.00
1514, 733.00
1515, 734.00
1516, 734.00
1517, 735.00
1518, 735.00
1519, 736.00
1520, 737.00
1521, 737.00
1522, 737.00
1523, 738.00
1524, 740.00
1525, 740.00
1526, 740.00
1527, 741.00
1528, 741.00
1529, 741.00
1530, 742.00
1531, 742.00
1532, 743.00
1533, 743.00
1534, 745.00
1535, 745.00
1536, 746.00
1537, 746.00
1538, 745.00
1539, 746.00
1540, 748.00
1541, 748.00
1542, 749.00
1543, 749.00
1544, 749.00
1545, 750.00
1546, 750.00
1547, 751.00
1548, 751.00
1549, 752.00
1550, 752.00
1551, 753.00
1552, 753.00
1553, 754.00
1554, 754.00
1555, 755.00
1556, 755.00
1557, 755.00
1558, 756.00
1559, 758.00
1560, 758.00
1561, 759.00
1562, 759.00
1563, 760.00
1564, 760.00
1565, 761.00
1566, 761.00
1567, 761.00
1568, 763.00
1569, 763.00
1570, 763.00
1571, 764.00
1572, 764.00
1573, 765.00
1574, 765.00
1575, 766.00
1576, 767.00
1577, 767.00
1578, 768.00
1579, 769.00
1580, 769.00
1581, 770.00
1582, 770.00
1583, 771.00
1584, 772.00
1585, 771.00
1586, 772.00
1587, 774.00
1588, 774.00
1589, 774.00
1590, 774.00
1591, 775.00
1592, 776.00
1593, 775.00
1594, 777.00
1595, 776.00
1596, 778.00
1597, 778.00
1598, 779.00
1599, 780.00
1600, 779.00
1601, 780.00
1602, 781.00
1603, 780.00
1604, 783.00
1605, 783.00
1606, 783.00
1607, 784.00
1608, 785.00
1609, 786.00
1610, 786.00
1611, 787.00
1612, 787.00
1613, 788.00
1614, 789.00
1615, 790.00
1616, 789.00
1617, 791.00
1618, 792.00
1619, 793.00
1620, 793.00
1621, 794.00
1622, 795.00
1623, 795.00
1624, 796.00
1625, 795.00
1626, 797.00
1627, 798.00
1628, 798.00
1629, 800.00
1630, 799.00
1631, 800.00
1632, 801.00
1633, 802.00
1634, 802.00
1635, 802.00
1636, 804.00
1637, 804.00
1638, 804.00
1639, 805.00
1640, 804.00
1641, 805.00
1642, 806.00
1643, 806.00
1644, 807.00
1645, 807.00
1646, 808.00
1647, 808.00
1648, 809.00
1649, 809.00
1650, 810.00

1750, 1107.00
1751, 1105.00
1752, 1106.00
1753, 1105.00
1754, 1105.00
1755, 1105.00
1756, 1106.00
1757, 1107.00
1758, 1106.00
1759, 1106.00
1760, 1105.00
1761, 1107.00
1762, 1107.00
1763, 1106.00
1764, 1106.00
1765, 1106.00
1766, 1107.00
1767, 1107.00
1768, 1106.00
1769, 1107.00
1770, 1107.00
1771, 1104.00
1772, 1104.00
1773, 1105.00
1774, 1105.00
1775, 1106.00
1776, 1104.00
1777, 1103.00
1778, 1103.00
1779, 1104.00
1780, 1104.00
1781, 1104.00
1782, 1102.00
1783, 1103.00
1784, 1104.00
1785, 1103.00
1786, 1102.00
1787, 1101.00
1788, 1103.00
1789, 1102.00
1790, 1101.00
1791, 1100.00
1792, 1101.00
1793, 1101.00
1794, 1101.00
1795, 1101.00
1796, 1101.00
1797, 1099.00
1798, 1101.00
1799, 1099.00
1800, 1098.00
1801, 1098.00
1802, 1099.00
1803, 1098.00
1804, 1098.00
1805, 1096.00
1806, 1097.00
1807, 1099.00
1808, 1097.00
1809, 1097.00
1810, 1097.00
1811, 1096.00
1812, 1096.00
1813, 1098.00
1814, 1095.00
1815, 1096.00
1816, 1095.00
1817, 1095.00
1818, 1094.00
1819, 1096.00
1820, 1095.00
1821, 1094.00
1822, 1093.00
1823, 1093.00
1824, 1093.00
1825, 1093.00
1826, 1092.00
1827, 1092.00
1828, 1091.00
1829, 1089.00
1830, 1089.00
1831, 1088.00
1832, 1089.00
1833, 1086.00
1834, 1085.00
1835, 1085.00
1836, 1085.00
1837, 1084.00
1838, 1082.00
1839, 1081.00
1840, 1081.00
1841, 1080.00
1842, 1080.00
1843, 1078.00
1844, 1076.00
1845, 1075.00
1846, 1075.00
1847, 1075.00
1848, 1073.00
1849, 1071.00
1850, 1071.00
1851, 1070.00
1852, 1067.00
1853, 1066.00
1854, 1066.00
1855, 1065.00
1856, 1064.00
1857, 1064.00
1858, 1062.00
1859, 1061.00
1860, 1059.00
1861, 1059.00
1862, 1056.00
1863, 1058.00
1864, 1057.00
1865, 1055.00
1866, 1055.00
1867, 1054.00
1868, 1052.00
1869, 1053.00
1870, 1051.00
1871, 1052.00
1872, 1051.00
1873, 1050.00
1874, 1051.00
1875, 1050.00
1876, 1048.00
1877, 1047.00
1878, 1048.00
1879, 1046.00
1880, 1046.00
1881, 1047.00
1882, 1045.00
1883, 1047.00
1884, 1045.00
1885, 1044.00
1886, 1045.00
1887, 1044.00
1888, 1044.00
1889, 1044.00
1890, 1043.00
1891, 1044.00
1892, 1043.00
1893, 1042.00
1894, 1042.00
1895, 1042.00
1896, 1043.00
1897, 1040.00
1898, 1042.00
1899, 1042.00
1900, 1041.00
1901, 1042.00
1902, 1041.00
1903, 1041.00
1904, 1041.00
1905, 1041.00
1906, 1040.00
1907, 1040.00
1908, 1040.00
1909, 1041.00
1910, 1040.00
1911, 1040.00
1912, 1040.00
1913, 1040.00
1914, 1039.00
1915, 1039.00
1916, 1039.00
1917, 1040.00
1918, 1040.00
1919, 1038.00
1920, 1039.00
1921, 1038.00
1922, 1038.00
1923, 1039.00
1924, 1039.00
1925, 1040.00
1926, 1038.00
1927, 1041.00
1928, 1038.00
1929, 1038.00
1930, 1039.00
1931, 1040.00
1932, 1040.00
1933, 1039.00
1934, 1039.00
1935, 1040.00
1936, 1039.00
1937, 1038.00
1938, 1040.00
1939, 1039.00
1940, 1039.00
1941, 1039.00
1942, 1038.00
1943, 1039.00
1944, 1040.00
1945, 1039.00
1946, 1041.00
1947, 1040.00
1948, 1041.00
1949, 1040.00
1950, 1039.00
1951, 1041.00
1952, 1040.00
1953, 1040.00
1954, 1040.00
1955, 1040.00
1956, 1041.00
1957, 1041.00
1958, 1041.00
1959, 1042.00
1960, 1042.00
1961, 1040.00
1962, 1041.00
1963, 1041.00
1964, 1042.00
1965, 1042.00
1966, 1041.00
1967, 1044.00
1968, 1044.00
1969, 1043.00
1970, 1044.00
1971, 1045.00
1972, 1044.00
1973, 1044.00
1974, 1045.00
1975, 1044.00
1976, 1045.00
1977, 1045.00
1978, 1043.00
1979, 1045.00
1980, 1046.00
1981, 1047.00
1982, 1046.00
1983, 1046.00
1984, 1047.00
1985, 1048.00
1986, 1048.00
1987, 1046.00
1988, 1047.00
1989, 1048.00
1990, 1047.00
1991, 1048.00
1992, 1048.00
1993, 1048.00
1994, 1050.00
1995, 1049.00
1996, 1049.00
1997, 1048.00
1998, 1050.00
1999, 1051.00
2000, 1049.00
2001, 1051.00
2002, 1050.00
2003, 1049.00
2004, 1051.00
2005, 1052.00
2006, 1051.00
2007, 1052.00
2008, 1051.00
2009, 1052.00
2010, 1053.00
2011, 1052.00
2012, 1053.00
2013, 1053.00
2014, 1054.00
2015, 1054.00
2016, 1053.00
2017, 1055.00
2018, 1055.00
2019, 1056.00
2020, 1055.00
2021, 1056.00
2022, 1055.00
2023, 1056.00
2024, 1055.00
2025, 1056.00
2026, 1057.00
2027, 1057.00
2028, 1057.00
2029, 1058.00
2030, 1057.00
2031, 1058.00
2032, 1058.00
2033, 1060.00
2034, 1059.00
2035, 1060.00
2036, 1060.00
2037, 1060.00
2038, 1058.00
2039, 1062.00
2040, 1061.00
2041, 1060.00
2042, 1064.00
2043, 1062.00
2044, 1061.00
2045, 1062.00
2046, 1064.00
2047, 1063.00
2048, 1065.00
2049, 1065.00
2050, 1065.00
2051, 1064.00
2052, 1064.00
2053, 1067.00
2054, 1066.00
2055, 1066.00
2056, 1068.00
2057, 1068.00
2058, 1066.00
2059, 1069.00
2060, 1068.00
2061, 1069.00
2062, 1069.00
2063, 1071.00
2064, 1071.00
2065, 1069.00
2066, 1072.00
2067, 1072.00
2068, 1072.00
2069, 1072.00
2070, 1072.00
2071, 1073.00
2072, 1073.00
2073, 1074.00
2074, 1074.00
2075, 1075.00
2076, 1076.00
2077, 1075.00
2078, 1077.00
2079, 1075.00
2080, 1076.00
2081, 1078.00
2082, 1075.00
2083, 1076.00
2084, 1080.00
2085, 1079.00
2086, 1079.00
2087, 1079.00
2088, 1080.00
2089, 1080.00
2090, 1082.00
2091, 1081.00
2092, 1079.00
2093, 1081.00
2094, 1080.00
2095, 1083.00
2096, 1083.00
2097, 1084.00
2098, 1083.00
2099, 1083.00
2100, 1083.00
2101, 1085.00
2102, 1085.00
2103, 1084.00
2104, 1086.00
2105, 1084.00
2106, 1086.00
2107, 1084.00
2108, 1087.00
2109, 1085.00
2110, 1084.00
2111, 1085.00
2112, 1088.00
2113, 1086.00
2114, 1085.00
2115, 1085.00
2116, 1086.00
2117, 1087.00
2118, 1086.00
2119, 1087.00
2120, 1088.00
2121, 1088.00
2122, 1088.00
2123, 1088.00
2124, 1089.00
2125, 1088.00
2126, 1089.00
2127, 1090.00
2128, 1090.00
2129, 1090.00
2130, 1090.00
2131, 1090.00
2132, 1091.00
2133, 1091.00
2134, 1092.00
2135, 1091.00
2136, 1091.00
2137, 1092.00
2138, 1092.00
2139, 1090.00
2140, 1091.00
2141, 1091.00
2142, 1091.00
2143, 1093.00
2144, 1093.00
2145, 1090.00
2146, 1090.00
2147, 1094.00
2148, 1091.00
2149, 1093.00
2150, 1093.00
