FW version: 24
Log Version: 3.0.3

General Info:
       Command/Macro Performed,            Timestamp,             Device ID, COM Port, UART/I2C, Test Name, Host Major, Host Minor, Host Revision, Host Git Commit
            Single_measurement,  2023_07_04_10_53_03,       Insight2_F4_xxx,    USB-C,      USB,          ,          0,          1,             1,      4031237645

Show Spectrometer Status:
l0_version, f4_version, battery_perc, battery_mVolt, accelerometer_temp, accelerometer_x, accelerometer_y, accelerometer_z, compass_temp, compass_x, compass_y, compass_z, lamp_0, lamp_1, gain_0, gain_1
        17,         24,            5,          1812,               5280,           64948,            1748,           18972,            0,     65524,     65533,     19037,   3276,   3276,      1,      1

Temperature Statistic Info:
NTC AVG [°C], NTC2 AVG [°C]
      35.271,        34.874

Statistic Info:
M1:  num,      min,      max,   median,      AVG,      STD,M2:  num,      min,      max,   median,      AVG,      STD
     301,  1769.00,  2020.00,  1820.00,  1851.28,  77.5940,     401,  2301.00,  2455.00,  2359.00,  2365.68,  49.9373,

Measurements:
Wavelength, Data Amplitude
1350, 1821.00
1351, 1820.00
1352, 1818.00
1353, 1819.00
1354, 1817.00
1355, 1817.00
1356, 1816.00
1357, 1813.00
1358, 1813.00
1359, 1810.00
1360, 1812.00
1361, 1810.00
1362, 1809.00
1363, 1808.00
1364, 1805.00
1365, 1804.00
1366, 1803.00
1367, 1802.00
1368, 1801.00
1369, 1799.00
1370, 1798.00
1371, 1795.00
1372, 1795.00
1373, 1794.00
1374, 1793.00
1375, 1791.00
1376, 1791.00
1377, 1789.00
1378, 1788.00
1379, 1786.00
1380, 1785.00
1381, 1785.00
1382, 1784.00
1383, 1783.00
1384, 1782.00
1385, 1781.00
1386, 1781.00
1387, 1779.00
1388, 1780.00
1389, 1778.00
1390, 1778.00
1391, 1777.00
1392, 1778.00
1393, 1777.00
1394, 1775.00
1395, 1775.00
1396, 1775.00
1397, 1775.00
1398, 1774.00
1399, 1773.00
1400, 1774.00
1401, 1774.00
1402, 1773.00
1403, 1773.00
1404, 1772.00
1405, 1772.00
1406, 1771.00
1407, 1771.00
1408, 1771.00
1409, 1770.00
1410, 1771.00
1411, 1770.00
1412, 1770.00
1413, 1771.00
1414, 1771.00
1415, 1770.00
1416, 1769.00
1417, 1769.00
1418, 1769.00
1419, 1770.00
1420, 1770.00
1421, 1770.00
1422, 1770.00
1423, 1769.00
1424, 1770.00
1425, 1769.00
1426, 1769.00
1427, 1769.00
1428, 1770.00
1429, 1770.00
1430, 1770.00
1431, 1771.00
1432, 1770.00
1433, 1771.00
1434, 1771.00
1435, 1771.00
1436, 1772.00
1437, 1772.00
1438, 1772.00
1439, 1772.00
1440, 1773.00
1441, 1773.00
1442, 1774.00
1443, 1775.00
1444, 1775.00
1445, 1775.00
1446, 1776.00
1447, 1777.00
1448, 1776.00
1449, 1777.00
1450, 1777.00
1451, 1777.00
1452, 1778.00
1453, 1779.00
1454, 1779.00
1455, 1779.00
1456, 1781.00
1457, 1782.00
1458, 1782.00
1459, 1782.00
1460, 1783.00
1461, 1783.00
1462, 1784.00
1463, 1785.00
1464, 1785.00
1465, 1786.00
1466, 1786.00
1467, 1787.00
1468, 1788.00
1469, 1789.00
1470, 1790.00
1471, 1790.00
1472, 1791.00
1473, 1791.00
1474, 1793.00
1475, 1794.00
1476, 1794.00
1477, 1795.00
1478, 1796.00
1479, 1798.00
1480, 1799.00
1481, 1799.00
1482, 1801.00
1483, 1801.00
1484, 1801.00
1485, 1803.00
1486, 1803.00
1487, 1804.00
1488, 1806.00
1489, 1808.00
1490, 1809.00
1491, 1809.00
1492, 1810.00
1493, 1811.00
1494, 1813.00
1495, 1813.00
1496, 1815.00
1497, 1815.00
1498, 1817.00
1499, 1817.00
1500, 1819.00
1501, 1819.00
1502, 1821.00
1503, 1821.00
1504, 1824.00
1505, 1825.00
1506, 1825.00
1507, 1826.00
1508, 1827.00
1509, 1827.00
1510, 1830.00
1511, 1830.00
1512, 1832.00
1513, 1833.00
1514, 1834.00
1515, 1836.00
1516, 1837.00
1517, 1838.00
1518, 1840.00
1519, 1841.00
1520, 1842.00
1521, 1842.00
1522, 1844.00
1523, 1845.00
1524, 1847.00
1525, 1848.00
1526, 1848.00
1527, 1851.00
1528, 1851.00
1529, 1854.00
1530, 1854.00
1531, 1855.00
1532, 1856.00
1533, 1859.00
1534, 1859.00
1535, 1860.00
1536, 1861.00
1537, 1863.00
1538, 1864.00
1539, 1865.00
1540, 1867.00
1541, 1868.00
1542, 1869.00
1543, 1871.00
1544, 1872.00
1545, 1874.00
1546, 1875.00
1547, 1876.00
1548, 1877.00
1549, 1879.00
1550, 1880.00
1551, 1880.00
1552, 1882.00
1553, 1883.00
1554, 1885.00
1555, 1885.00
1556, 1886.00
1557, 1889.00
1558, 1891.00
1559, 1891.00
1560, 1894.00
1561, 1895.00
1562, 1895.00
1563, 1898.00
1564, 1899.00
1565, 1900.00
1566, 1902.00
1567, 1903.00
1568, 1905.00
1569, 1907.00
1570, 1908.00
1571, 1909.00
1572, 1910.00
1573, 1912.00
1574, 1913.00
1575, 1915.00
1576, 1915.00
1577, 1916.00
1578, 1919.00
1579, 1919.00
1580, 1922.00
1581, 1922.00
1582, 1924.00
1583, 1925.00
1584, 1926.00
1585, 1928.00
1586, 1929.00
1587, 1929.00
1588, 1931.00
1589, 1932.00
1590, 1933.00
1591, 1935.00
1592, 1936.00
1593, 1938.00
1594, 1939.00
1595, 1939.00
1596, 1941.00
1597, 1943.00
1598, 1943.00
1599, 1945.00
1600, 1946.00
1601, 1947.00
1602, 1950.00
1603, 1951.00
1604, 1952.00
1605, 1954.00
1606, 1954.00
1607, 1956.00
1608, 1957.00
1609, 1960.00
1610, 1961.00
1611, 1962.00
1612, 1965.00
1613, 1965.00
1614, 1967.00
1615, 1969.00
1616, 1970.00
1617, 1973.00
1618, 1974.00
1619, 1975.00
1620, 1977.00
1621, 1978.00
1622, 1979.00
1623, 1981.00
1624, 1985.00
1625, 1985.00
1626, 1986.00
1627, 1988.00
1628, 1990.00
1629, 1992.00
1630, 1992.00
1631, 1994.00
1632, 1995.00
1633, 1997.00
1634, 1998.00
1635, 2000.00
1636, 2001.00
1637, 2003.00
1638, 2004.00
1639, 2005.00
1640, 2006.00
1641, 2008.00
1642, 2009.00
1643, 2010.00
1644, 2012.00
1645, 2013.00
1646, 2014.00
1647, 2015.00
1648, 2015.00
1649, 2019.00
1650, 2020.00

1750, 2453.00
1751, 2453.00
1752, 2452.00
1753, 2455.00
1754, 2454.00
1755, 2453.00
1756, 2453.00
1757, 2454.00
1758, 2453.00
1759, 2454.00
1760, 2454.00
1761, 2454.00
1762, 2453.00
1763, 2453.00
1764, 2453.00
1765, 2452.00
1766, 2452.00
1767, 2453.00
1768, 2450.00
1769, 2452.00
1770, 2451.00
1771, 2450.00
1772, 2450.00
1773, 2451.00
1774, 2450.00
1775, 2449.00
1776, 2449.00
1777, 2449.00
1778, 2447.00
1779, 2447.00
1780, 2447.00
1781, 2447.00
1782, 2445.00
1783, 2446.00
1784, 2445.00
1785, 2443.00
1786, 2442.00
1787, 2443.00
1788, 2443.00
1789, 2443.00
1790, 2442.00
1791, 2440.00
1792, 2440.00
1793, 2440.00
1794, 2440.00
1795, 2438.00
1796, 2438.00
1797, 2438.00
1798, 2438.00
1799, 2437.00
1800, 2438.00
1801, 2435.00
1802, 2435.00
1803, 2436.00
1804, 2434.00
1805, 2434.00
1806, 2433.00
1807, 2432.00
1808, 2432.00
1809, 2431.00
1810, 2431.00
1811, 2431.00
1812, 2428.00
1813, 2430.00
1814, 2429.00
1815, 2427.00
1816, 2427.00
1817, 2426.00
1818, 2427.00
1819, 2427.00
1820, 2423.00
1821, 2423.00
1822, 2422.00
1823, 2422.00
1824, 2419.00
1825, 2418.00
1826, 2417.00
1827, 2417.00
1828, 2415.00
1829, 2412.00
1830, 2413.00
1831, 2410.00
1832, 2409.00
1833, 2407.00
1834, 2406.00
1835, 2403.00
1836, 2403.00
1837, 2399.00
1838, 2397.00
1839, 2396.00
1840, 2395.00
1841, 2393.00
1842, 2391.00
1843, 2388.00
1844, 2385.00
1845, 2385.00
1846, 2380.00
1847, 2379.00
1848, 2376.00
1849, 2373.00
1850, 2371.00
1851, 2369.00
1852, 2366.00
1853, 2363.00
1854, 2359.00
1855, 2359.00
1856, 2357.00
1857, 2356.00
1858, 2351.00
1859, 2350.00
1860, 2349.00
1861, 2345.00
1862, 2343.00
1863, 2343.00
1864, 2340.00
1865, 2339.00
1866, 2336.00
1867, 2335.00
1868, 2334.00
1869, 2333.00
1870, 2329.00
1871, 2329.00
1872, 2329.00
1873, 2327.00
1874, 2326.00
1875, 2323.00
1876, 2324.00
1877, 2320.00
1878, 2321.00
1879, 2320.00
1880, 2319.00
1881, 2318.00
1882, 2318.00
1883, 2319.00
1884, 2315.00
1885, 2314.00
1886, 2314.00
1887, 2315.00
1888, 2314.00
1889, 2312.00
1890, 2313.00
1891, 2311.00
1892, 2314.00
1893, 2311.00
1894, 2311.00
1895, 2309.00
1896, 2309.00
1897, 2311.00
1898, 2309.00
1899, 2308.00
1900, 2309.00
1901, 2308.00
1902, 2306.00
1903, 2304.00
1904, 2307.00
1905, 2308.00
1906, 2305.00
1907, 2305.00
1908, 2307.00
1909, 2305.00
1910, 2304.00
1911, 2302.00
1912, 2305.00
1913, 2304.00
1914, 2305.00
1915, 2303.00
1916, 2303.00
1917, 2303.00
1918, 2304.00
1919, 2302.00
1920, 2302.00
1921, 2302.00
1922, 2303.00
1923, 2303.00
1924, 2302.00
1925, 2304.00
1926, 2301.00
1927, 2301.00
1928, 2302.00
1929, 2303.00
1930, 2303.00
1931, 2302.00
1932, 2304.00
1933, 2303.00
1934, 2303.00
1935, 2303.00
1936, 2301.00
1937, 2303.00
1938, 2302.00
1939, 2303.00
1940, 2303.00
1941, 2302.00
1942, 2304.00
1943, 2305.00
1944, 2303.00
1945, 2302.00
1946, 2304.00
1947, 2304.00
1948, 2305.00
1949, 2304.00
1950, 2306.00
1951, 2304.00
1952, 2304.00
1953, 2306.00
1954, 2304.00
1955, 2307.00
1956, 2306.00
1957, 2305.00
1958, 2306.00
1959, 2307.00
1960, 2308.00
1961, 2306.00
1962, 2307.00
1963, 2308.00
1964, 2310.00
1965, 2310.00
1966, 2310.00
1967, 2310.00
1968, 2312.00
1969, 2310.00
1970, 2312.00
1971, 2313.00
1972, 2313.00
1973, 2312.00
1974, 2313.00
1975, 2314.00
1976, 2315.00
1977, 2314.00
1978, 2315.00
1979, 2316.00
1980, 2317.00
1981, 2317.00
1982, 2318.00
1983, 2316.00
1984, 2320.00
1985, 2319.00
1986, 2319.00
1987, 2321.00
1988, 2321.00
1989, 2321.00
1990, 2320.00
1991, 2321.00
1992, 2321.00
1993, 2323.00
1994, 2323.00
1995, 2322.00
1996, 2324.00
1997, 2324.00
1998, 2325.00
1999, 2326.00
2000, 2325.00
2001, 2328.00
2002, 2326.00
2003, 2327.00
2004, 2328.00
2005, 2328.00
2006, 2329.00
2007, 2330.00
2008, 2330.00
2009, 2331.00
2010, 2333.00
2011, 2329.00
2012, 2331.00
2013, 2331.00
2014, 2334.00
2015, 2335.00
2016, 2333.00
2017, 2334.00
2018, 2335.00
2019, 2335.00
2020, 2333.00
2021, 2336.00
2022, 2337.00
2023, 2338.00
2024, 2338.00
2025, 2339.00
2026, 2339.00
2027, 2340.00
2028, 2338.00
2029, 2341.00
2030, 2342.00
2031, 2342.00
2032, 2342.00
2033, 2345.00
2034, 2343.00
2035, 2345.00
2036, 2347.00
2037, 2345.00
2038, 2345.00
2039, 2349.00
2040, 2347.00
2041, 2349.00
2042, 2349.00
2043, 2349.00
2044, 2350.00
2045, 2350.00
2046, 2352.00
2047, 2352.00
2048, 2354.00
2049, 2354.00
2050, 2353.00
2051, 2357.00
2052, 2356.00
2053, 2358.00
2054, 2357.00
2055, 2360.00
2056, 2360.00
2057, 2360.00
2058, 2361.00
2059, 2361.00
2060, 2363.00
2061, 2365.00
2062, 2364.00
2063, 2365.00
2064, 2368.00
2065, 2368.00
2066, 2367.00
2067, 2370.00
2068, 2370.00
2069, 2369.00
2070, 2370.00
2071, 2373.00
2072, 2374.00
2073, 2374.00
2074, 2374.00
2075, 2375.00
2076, 2378.00
2077, 2376.00
2078, 2376.00
2079, 2378.00
2080, 2379.00
2081, 2381.00
2082, 2379.00
2083, 2380.00
2084, 2381.00
2085, 2383.00
2086, 2383.00
2087, 2384.00
2088, 2387.00
2089, 2387.00
2090, 2385.00
2091, 2387.00
2092, 2388.00
2093, 2390.00
2094, 2387.00
2095, 2389.00
2096, 2387.00
2097, 2390.00
2098, 2392.00
2099, 2392.00
2100, 2392.00
2101, 2392.00
2102, 2393.00
2103, 2393.00
2104, 2392.00
2105, 2394.00
2106, 2395.00
2107, 2395.00
2108, 2395.00
2109, 2396.00
2110, 2397.00
2111, 2397.00
2112, 2396.00
2113, 2398.00
2114, 2399.00
2115, 2399.00
2116, 2400.00
2117, 2400.00
2118, 2399.00
2119, 2401.00
2120, 2400.00
2121, 2401.00
2122, 2403.00
2123, 2401.00
2124, 2403.00
2125, 2402.00
2126, 2403.00
2127, 2404.00
2128, 2401.00
2129, 2404.00
2130, 2405.00
2131, 2405.00
2132, 2405.00
2133, 2406.00
2134, 2405.00
2135, 2405.00
2136, 2407.00
2137, 2407.00
2138, 2407.00
2139, 2407.00
2140, 2406.00
2141, 2408.00
2142, 2409.00
2143, 2408.00
2144, 2409.00
2145, 2409.00
2146, 2409.00
2147, 2409.00
2148, 2411.00
2149, 2409.00
2150, 2409.00
