FW version: 24
Log Version: 3.0.3

General Info:
       Command/Macro Performed,            Timestamp,             Device ID, COM Port, UART/I2C, Test Name, Host Major, Host Minor, Host Revision, Host Git Commit
            Single_measurement,  2023_07_04_10_52_55,       Insight2_F4_xxx,    USB-C,      USB,          ,          0,          1,             1,      4031237645

Show Spectrometer Status:
l0_version, f4_version, battery_perc, battery_mVolt, accelerometer_temp, accelerometer_x, accelerometer_y, accelerometer_z, compass_temp, compass_x, compass_y, compass_z, lamp_0, lamp_1, gain_0, gain_1
        17,         24,            5,          1815,               5248,           65012,            1756,           19048,            0,     65534,     65533,     19053,   3276,   3276,      1,      1

Temperature Statistic Info:
NTC AVG [°C], NTC2 AVG [°C]
      35.157,        34.818

Statistic Info:
M1:  num,      min,      max,   median,      AVG,      STD,M2:  num,      min,      max,   median,      AVG,      STD
     301,  1769.00,  2020.00,  1820.00,  1850.81,  77.5188,     401,  2299.00,  2454.00,  2359.00,  2364.87,  49.9382,

Measurements:
Wavelength, Data Amplitude
1350, 1821.00
1351, 1820.00
1352, 1817.00
1353, 1817.00
1354, 1816.00
1355, 1815.00
1356, 1815.00
1357, 1813.00
1358, 1812.00
1359, 1811.00
1360, 1811.00
1361, 1809.00
1362, 1808.00
1363, 1807.00
1364, 1804.00
1365, 1805.00
1366, 1801.00
1367, 1801.00
1368, 1801.00
1369, 1799.00
1370, 1797.00
1371, 1797.00
1372, 1794.00
1373, 1793.00
1374, 1793.00
1375, 1791.00
1376, 1789.00
1377, 1787.00
1378, 1787.00
1379, 1787.00
1380, 1786.00
1381, 1784.00
1382, 1783.00
1383, 1782.00
1384, 1782.00
1385, 1780.00
1386, 1780.00
1387, 1779.00
1388, 1779.00
1389, 1778.00
1390, 1779.00
1391, 1776.00
1392, 1776.00
1393, 1777.00
1394, 1775.00
1395, 1775.00
1396, 1775.00
1397, 1775.00
1398, 1774.00
1399, 1774.00
1400, 1772.00
1401, 1773.00
1402, 1773.00
1403, 1772.00
1404, 1772.00
1405, 1771.00
1406, 1771.00
1407, 1771.00
1408, 1771.00
1409, 1771.00
1410, 1771.00
1411, 1770.00
1412, 1771.00
1413, 1770.00
1414, 1770.00
1415, 1770.00
1416, 1769.00
1417, 1769.00
1418, 1769.00
1419, 1770.00
1420, 1769.00
1421, 1769.00
1422, 1770.00
1423, 1769.00
1424, 1770.00
1425, 1770.00
1426, 1770.00
1427, 1769.00
1428, 1769.00
1429, 1770.00
1430, 1769.00
1431, 1770.00
1432, 1770.00
1433, 1770.00
1434, 1772.00
1435, 1771.00
1436, 1772.00
1437, 1773.00
1438, 1772.00
1439, 1772.00
1440, 1773.00
1441, 1774.00
1442, 1773.00
1443, 1773.00
1444, 1774.00
1445, 1775.00
1446, 1775.00
1447, 1775.00
1448, 1777.00
1449, 1775.00
1450, 1777.00
1451, 1777.00
1452, 1778.00
1453, 1779.00
1454, 1778.00
1455, 1780.00
1456, 1780.00
1457, 1781.00
1458, 1781.00
1459, 1781.00
1460, 1782.00
1461, 1783.00
1462, 1783.00
1463, 1783.00
1464, 1785.00
1465, 1785.00
1466, 1785.00
1467, 1787.00
1468, 1787.00
1469, 1789.00
1470, 1789.00
1471, 1791.00
1472, 1791.00
1473, 1792.00
1474, 1791.00
1475, 1793.00
1476, 1794.00
1477, 1795.00
1478, 1796.00
1479, 1798.00
1480, 1798.00
1481, 1799.00
1482, 1800.00
1483, 1801.00
1484, 1802.00
1485, 1803.00
1486, 1804.00
1487, 1805.00
1488, 1806.00
1489, 1807.00
1490, 1809.00
1491, 1809.00
1492, 1810.00
1493, 1811.00
1494, 1812.00
1495, 1813.00
1496, 1815.00
1497, 1815.00
1498, 1816.00
1499, 1818.00
1500, 1818.00
1501, 1818.00
1502, 1820.00
1503, 1821.00
1504, 1822.00
1505, 1824.00
1506, 1825.00
1507, 1826.00
1508, 1827.00
1509, 1828.00
1510, 1829.00
1511, 1830.00
1512, 1832.00
1513, 1833.00
1514, 1833.00
1515, 1835.00
1516, 1836.00
1517, 1837.00
1518, 1838.00
1519, 1840.00
1520, 1841.00
1521, 1842.00
1522, 1843.00
1523, 1844.00
1524, 1845.00
1525, 1847.00
1526, 1848.00
1527, 1850.00
1528, 1851.00
1529, 1853.00
1530, 1854.00
1531, 1855.00
1532, 1856.00
1533, 1858.00
1534, 1860.00
1535, 1860.00
1536, 1861.00
1537, 1862.00
1538, 1864.00
1539, 1866.00
1540, 1866.00
1541, 1867.00
1542, 1868.00
1543, 1870.00
1544, 1871.00
1545, 1872.00
1546, 1874.00
1547, 1875.00
1548, 1876.00
1549, 1877.00
1550, 1879.00
1551, 1880.00
1552, 1882.00
1553, 1882.00
1554, 1883.00
1555, 1885.00
1556, 1887.00
1557, 1889.00
1558, 1890.00
1559, 1890.00
1560, 1892.00
1561, 1893.00
1562, 1895.00
1563, 1896.00
1564, 1899.00
1565, 1899.00
1566, 1901.00
1567, 1902.00
1568, 1905.00
1569, 1905.00
1570, 1908.00
1571, 1908.00
1572, 1910.00
1573, 1911.00
1574, 1913.00
1575, 1914.00
1576, 1915.00
1577, 1916.00
1578, 1918.00
1579, 1918.00
1580, 1922.00
1581, 1921.00
1582, 1922.00
1583, 1925.00
1584, 1925.00
1585, 1926.00
1586, 1928.00
1587, 1929.00
1588, 1931.00
1589, 1932.00
1590, 1933.00
1591, 1935.00
1592, 1936.00
1593, 1936.00
1594, 1938.00
1595, 1939.00
1596, 1940.00
1597, 1942.00
1598, 1944.00
1599, 1945.00
1600, 1946.00
1601, 1947.00
1602, 1948.00
1603, 1950.00
1604, 1951.00
1605, 1953.00
1606, 1954.00
1607, 1956.00
1608, 1957.00
1609, 1959.00
1610, 1960.00
1611, 1962.00
1612, 1964.00
1613, 1965.00
1614, 1967.00
1615, 1968.00
1616, 1969.00
1617, 1972.00
1618, 1973.00
1619, 1974.00
1620, 1976.00
1621, 1979.00
1622, 1980.00
1623, 1981.00
1624, 1983.00
1625, 1984.00
1626, 1985.00
1627, 1988.00
1628, 1989.00
1629, 1991.00
1630, 1992.00
1631, 1994.00
1632, 1995.00
1633, 1996.00
1634, 1998.00
1635, 1999.00
1636, 2001.00
1637, 2002.00
1638, 2004.00
1639, 2005.00
1640, 2007.00
1641, 2007.00
1642, 2008.00
1643, 2010.00
1644, 2010.00
1645, 2012.00
1646, 2013.00
1647, 2015.00
1648, 2017.00
1649, 2018.00
1650, 2020.00

1750, 2453.00
1751, 2451.00
1752, 2454.00
1753, 2453.00
1754, 2449.00
1755, 2452.00
1756, 2453.00
1757, 2452.00
1758, 2453.00
1759, 2452.00
1760, 2452.00
1761, 2451.00
1762, 2451.00
1763, 2453.00
1764, 2451.00
1765, 2452.00
1766, 2450.00
1767, 2451.00
1768, 2450.00
1769, 2449.00
1770, 2450.00
1771, 2449.00
1772, 2450.00
1773, 2449.00
1774, 2450.00
1775, 2448.00
1776, 2449.00
1777, 2448.00
1778, 2447.00
1779, 2447.00
1780, 2447.00
1781, 2445.00
1782, 2445.00
1783, 2443.00
1784, 2443.00
1785, 2444.00
1786, 2444.00
1787, 2443.00
1788, 2441.00
1789, 2441.00
1790, 2441.00
1791, 2440.00
1792, 2441.00
1793, 2439.00
1794, 2437.00
1795, 2439.00
1796, 2437.00
1797, 2436.00
1798, 2438.00
1799, 2435.00
1800, 2436.00
1801, 2437.00
1802, 2435.00
1803, 2435.00
1804, 2434.00
1805, 2434.00
1806, 2433.00
1807, 2433.00
1808, 2431.00
1809, 2430.00
1810, 2431.00
1811, 2431.00
1812, 2430.00
1813, 2428.00
1814, 2428.00
1815, 2427.00
1816, 2427.00
1817, 2426.00
1818, 2425.00
1819, 2424.00
1820, 2423.00
1821, 2422.00
1822, 2421.00
1823, 2420.00
1824, 2420.00
1825, 2417.00
1826, 2416.00
1827, 2415.00
1828, 2415.00
1829, 2413.00
1830, 2411.00
1831, 2409.00
1832, 2409.00
1833, 2406.00
1834, 2406.00
1835, 2404.00
1836, 2399.00
1837, 2400.00
1838, 2397.00
1839, 2395.00
1840, 2393.00
1841, 2392.00
1842, 2389.00
1843, 2386.00
1844, 2384.00
1845, 2381.00
1846, 2379.00
1847, 2378.00
1848, 2375.00
1849, 2373.00
1850, 2370.00
1851, 2368.00
1852, 2365.00
1853, 2363.00
1854, 2360.00
1855, 2359.00
1856, 2356.00
1857, 2355.00
1858, 2353.00
1859, 2349.00
1860, 2346.00
1861, 2344.00
1862, 2344.00
1863, 2342.00
1864, 2339.00
1865, 2337.00
1866, 2336.00
1867, 2334.00
1868, 2333.00
1869, 2332.00
1870, 2330.00
1871, 2329.00
1872, 2327.00
1873, 2326.00
1874, 2324.00
1875, 2323.00
1876, 2322.00
1877, 2320.00
1878, 2322.00
1879, 2321.00
1880, 2319.00
1881, 2318.00
1882, 2316.00
1883, 2315.00
1884, 2315.00
1885, 2315.00
1886, 2313.00
1887, 2315.00
1888, 2312.00
1889, 2312.00
1890, 2311.00
1891, 2310.00
1892, 2310.00
1893, 2308.00
1894, 2311.00
1895, 2311.00
1896, 2309.00
1897, 2309.00
1898, 2308.00
1899, 2307.00
1900, 2307.00
1901, 2306.00
1902, 2305.00
1903, 2307.00
1904, 2307.00
1905, 2305.00
1906, 2304.00
1907, 2304.00
1908, 2305.00
1909, 2305.00
1910, 2303.00
1911, 2304.00
1912, 2301.00
1913, 2305.00
1914, 2300.00
1915, 2301.00
1916, 2300.00
1917, 2301.00
1918, 2301.00
1919, 2301.00
1920, 2301.00
1921, 2303.00
1922, 2301.00
1923, 2302.00
1924, 2303.00
1925, 2300.00
1926, 2301.00
1927, 2302.00
1928, 2303.00
1929, 2302.00
1930, 2304.00
1931, 2301.00
1932, 2299.00
1933, 2301.00
1934, 2300.00
1935, 2300.00
1936, 2301.00
1937, 2303.00
1938, 2302.00
1939, 2301.00
1940, 2301.00
1941, 2301.00
1942, 2303.00
1943, 2301.00
1944, 2304.00
1945, 2304.00
1946, 2304.00
1947, 2304.00
1948, 2305.00
1949, 2302.00
1950, 2303.00
1951, 2304.00
1952, 2303.00
1953, 2306.00
1954, 2305.00
1955, 2305.00
1956, 2304.00
1957, 2305.00
1958, 2307.00
1959, 2306.00
1960, 2308.00
1961, 2306.00
1962, 2306.00
1963, 2309.00
1964, 2308.00
1965, 2309.00
1966, 2308.00
1967, 2309.00
1968, 2310.00
1969, 2310.00
1970, 2313.00
1971, 2311.00
1972, 2311.00
1973, 2311.00
1974, 2313.00
1975, 2313.00
1976, 2315.00
1977, 2315.00
1978, 2314.00
1979, 2316.00
1980, 2315.00
1981, 2317.00
1982, 2317.00
1983, 2316.00
1984, 2317.00
1985, 2315.00
1986, 2320.00
1987, 2319.00
1988, 2320.00
1989, 2321.00
1990, 2320.00
1991, 2321.00
1992, 2320.00
1993, 2322.00
1994, 2323.00
1995, 2321.00
1996, 2324.00
1997, 2324.00
1998, 2323.00
1999, 2325.00
2000, 2325.00
2001, 2325.00
2002, 2326.00
2003, 2325.00
2004, 2328.00
2005, 2327.00
2006, 2328.00
2007, 2329.00
2008, 2330.00
2009, 2330.00
2010, 2330.00
2011, 2329.00
2012, 2332.00
2013, 2331.00
2014, 2333.00
2015, 2331.00
2016, 2333.00
2017, 2335.00
2018, 2335.00
2019, 2334.00
2020, 2335.00
2021, 2337.00
2022, 2335.00
2023, 2336.00
2024, 2337.00
2025, 2339.00
2026, 2339.00
2027, 2338.00
2028, 2340.00
2029, 2342.00
2030, 2342.00
2031, 2341.00
2032, 2342.00
2033, 2344.00
2034, 2344.00
2035, 2343.00
2036, 2346.00
2037, 2345.00
2038, 2347.00
2039, 2346.00
2040, 2347.00
2041, 2347.00
2042, 2348.00
2043, 2350.00
2044, 2350.00
2045, 2351.00
2046, 2352.00
2047, 2352.00
2048, 2354.00
2049, 2353.00
2050, 2354.00
2051, 2356.00
2052, 2355.00
2053, 2358.00
2054, 2357.00
2055, 2357.00
2056, 2359.00
2057, 2359.00
2058, 2360.00
2059, 2360.00
2060, 2363.00
2061, 2362.00
2062, 2364.00
2063, 2367.00
2064, 2365.00
2065, 2366.00
2066, 2368.00
2067, 2368.00
2068, 2368.00
2069, 2368.00
2070, 2372.00
2071, 2372.00
2072, 2373.00
2073, 2372.00
2074, 2373.00
2075, 2376.00
2076, 2374.00
2077, 2377.00
2078, 2377.00
2079, 2376.00
2080, 2377.00
2081, 2379.00
2082, 2381.00
2083, 2381.00
2084, 2381.00
2085, 2382.00
2086, 2383.00
2087, 2383.00
2088, 2384.00
2089, 2383.00
2090, 2386.00
2091, 2386.00
2092, 2386.00
2093, 2387.00
2094, 2387.00
2095, 2388.00
2096, 2388.00
2097, 2390.00
2098, 2392.00
2099, 2390.00
2100, 2390.00
2101, 2392.00
2102, 2393.00
2103, 2394.00
2104, 2393.00
2105, 2393.00
2106, 2393.00
2107, 2393.00
2108, 2396.00
2109, 2395.00
2110, 2396.00
2111, 2397.00
2112, 2395.00
2113, 2398.00
2114, 2399.00
2115, 2397.00
2116, 2397.00
2117, 2397.00
2118, 2398.00
2119, 2400.00
2120, 2399.00
2121, 2401.00
2122, 2401.00
2123, 2400.00
2124, 2400.00
2125, 2402.00
2126, 2402.00
2127, 2403.00
2128, 2401.00
2129, 2403.00
2130, 2404.00
2131, 2403.00
2132, 2405.00
2133, 2405.00
2134, 2405.00
2135, 2405.00
2136, 2404.00
2137, 2405.00
2138, 2406.00
2139, 2407.00
2140, 2405.00
2141, 2406.00
2142, 2408.00
2143, 2409.00
2144, 2409.00
2145, 2408.00
2146, 2409.00
2147, 2408.00
2148, 2409.00
2149, 2410.00
2150, 2409.00
