FW version: 24
Log Version: 3.0.3

General Info:
       Command/Macro Performed,            Timestamp,             Device ID, COM Port, UART/I2C, Test Name, Host Major, Host Minor, Host Revision, Host Git Commit
            Single_measurement,  2023_06_28_11_08_42,       Insight2_F4_xxx,    USB-C,      USB,          ,          0,          1,             1,      4031237645

Show Spectrometer Status:
l0_version, f4_version, battery_perc, battery_mVolt, accelerometer_temp, accelerometer_x, accelerometer_y, accelerometer_z, compass_temp, compass_x, compass_y, compass_z, lamp_0, lamp_1, gain_0, gain_1
        17,         24,           34,          1880,               6144,           65332,             736,           18716,            0,     65460,     65521,     18749,   2866,   2866,      1,      1

Temperature Statistic Info:
NTC AVG [°C], NTC2 AVG [°C]
      38.304,        37.982

Statistic Info:
M1:  num,      min,      max,   median,      AVG,      STD,M2:  num,      min,      max,   median,      AVG,      STD
     301,  1261.00,  1432.00,  1297.00,  1317.30,  52.9530,     401,  1749.00,  1862.00,  1797.00,  1798.97,  36.7864,

Measurements:
Wavelength, Data Amplitude
1350, 1289.00
1351, 1289.00
1352, 1288.00
1353, 1289.00
1354, 1287.00
1355, 1288.00
1356, 1286.00
1357, 1286.00
1358, 1286.00
1359, 1283.00
1360, 1284.00
1361, 1283.00
1362, 1283.00
1363, 1282.00
1364, 1281.00
1365, 1281.00
1366, 1281.00
1367, 1279.00
1368, 1279.00
1369, 1277.00
1370, 1277.00
1371, 1277.00
1372, 1275.00
1373, 1275.00
1374, 1275.00
1375, 1274.00
1376, 1273.00
1377, 1271.00
1378, 1271.00
1379, 1271.00
1380, 1270.00
1381, 1269.00
1382, 1268.00
1383, 1269.00
1384, 1268.00
1385, 1268.00
1386, 1268.00
1387, 1267.00
1388, 1265.00
1389, 1267.00
1390, 1266.00
1391, 1265.00
1392, 1264.00
1393, 1267.00
1394, 1264.00
1395, 1264.00
1396, 1264.00
1397, 1264.00
1398, 1263.00
1399, 1264.00
1400, 1263.00
1401, 1264.00
1402, 1263.00
1403, 1264.00
1404, 1263.00
1405, 1263.00
1406, 1262.00
1407, 1262.00
1408, 1262.00
1409, 1262.00
1410, 1262.00
1411, 1262.00
1412, 1262.00
1413, 1262.00
1414, 1261.00
1415, 1262.00
1416, 1261.00
1417, 1262.00
1418, 1261.00
1419, 1261.00
1420, 1261.00
1421, 1261.00
1422, 1262.00
1423, 1263.00
1424, 1261.00
1425, 1262.00
1426, 1262.00
1427, 1263.00
1428, 1263.00
1429, 1262.00
1430, 1262.00
1431, 1263.00
1432, 1263.00
1433, 1263.00
1434, 1263.00
1435, 1263.00
1436, 1264.00
1437, 1263.00
1438, 1263.00
1439, 1265.00
1440, 1265.00
1441, 1265.00
1442, 1265.00
1443, 1266.00
1444, 1266.00
1445, 1266.00
1446, 1266.00
1447, 1267.00
1448, 1267.00
1449, 1267.00
1450, 1267.00
1451, 1267.00
1452, 1268.00
1453, 1268.00
1454, 1269.00
1455, 1270.00
1456, 1270.00
1457, 1270.00
1458, 1271.00
1459, 1271.00
1460, 1271.00
1461, 1272.00
1462, 1273.00
1463, 1274.00
1464, 1274.00
1465, 1274.00
1466, 1274.00
1467, 1275.00
1468, 1275.00
1469, 1276.00
1470, 1278.00
1471, 1278.00
1472, 1277.00
1473, 1278.00
1474, 1279.00
1475, 1279.00
1476, 1281.00
1477, 1282.00
1478, 1282.00
1479, 1283.00
1480, 1283.00
1481, 1284.00
1482, 1285.00
1483, 1285.00
1484, 1287.00
1485, 1286.00
1486, 1288.00
1487, 1288.00
1488, 1288.00
1489, 1290.00
1490, 1290.00
1491, 1291.00
1492, 1291.00
1493, 1292.00
1494, 1293.00
1495, 1293.00
1496, 1294.00
1497, 1296.00
1498, 1296.00
1499, 1297.00
1500, 1297.00
1501, 1297.00
1502, 1298.00
1503, 1299.00
1504, 1300.00
1505, 1301.00
1506, 1302.00
1507, 1302.00
1508, 1303.00
1509, 1304.00
1510, 1305.00
1511, 1304.00
1512, 1306.00
1513, 1307.00
1514, 1308.00
1515, 1309.00
1516, 1309.00
1517, 1309.00
1518, 1311.00
1519, 1312.00
1520, 1313.00
1521, 1314.00
1522, 1314.00
1523, 1315.00
1524, 1316.00
1525, 1317.00
1526, 1317.00
1527, 1318.00
1528, 1320.00
1529, 1320.00
1530, 1321.00
1531, 1322.00
1532, 1323.00
1533, 1324.00
1534, 1325.00
1535, 1325.00
1536, 1327.00
1537, 1327.00
1538, 1328.00
1539, 1329.00
1540, 1329.00
1541, 1330.00
1542, 1332.00
1543, 1332.00
1544, 1333.00
1545, 1334.00
1546, 1333.00
1547, 1334.00
1548, 1336.00
1549, 1337.00
1550, 1338.00
1551, 1339.00
1552, 1339.00
1553, 1340.00
1554, 1341.00
1555, 1342.00
1556, 1344.00
1557, 1345.00
1558, 1346.00
1559, 1346.00
1560, 1347.00
1561, 1348.00
1562, 1348.00
1563, 1349.00
1564, 1349.00
1565, 1352.00
1566, 1353.00
1567, 1353.00
1568, 1354.00
1569, 1355.00
1570, 1356.00
1571, 1357.00
1572, 1358.00
1573, 1359.00
1574, 1359.00
1575, 1361.00
1576, 1361.00
1577, 1362.00
1578, 1363.00
1579, 1364.00
1580, 1365.00
1581, 1366.00
1582, 1367.00
1583, 1367.00
1584, 1369.00
1585, 1370.00
1586, 1370.00
1587, 1371.00
1588, 1372.00
1589, 1373.00
1590, 1374.00
1591, 1373.00
1592, 1375.00
1593, 1375.00
1594, 1377.00
1595, 1378.00
1596, 1378.00
1597, 1379.00
1598, 1380.00
1599, 1382.00
1600, 1382.00
1601, 1383.00
1602, 1384.00
1603, 1384.00
1604, 1386.00
1605, 1386.00
1606, 1388.00
1607, 1389.00
1608, 1389.00
1609, 1390.00
1610, 1392.00
1611, 1392.00
1612, 1393.00
1613, 1394.00
1614, 1395.00
1615, 1397.00
1616, 1398.00
1617, 1400.00
1618, 1401.00
1619, 1401.00
1620, 1402.00
1621, 1404.00
1622, 1405.00
1623, 1406.00
1624, 1407.00
1625, 1408.00
1626, 1409.00
1627, 1409.00
1628, 1411.00
1629, 1412.00
1630, 1413.00
1631, 1413.00
1632, 1414.00
1633, 1416.00
1634, 1416.00
1635, 1418.00
1636, 1419.00
1637, 1420.00
1638, 1420.00
1639, 1421.00
1640, 1423.00
1641, 1423.00
1642, 1424.00
1643, 1425.00
1644, 1427.00
1645, 1427.00
1646, 1428.00
1647, 1429.00
1648, 1430.00
1649, 1431.00
1650, 1432.00

1750, 1859.00
1751, 1862.00
1752, 1861.00
1753, 1859.00
1754, 1858.00
1755, 1861.00
1756, 1860.00
1757, 1860.00
1758, 1858.00
1759, 1860.00
1760, 1857.00
1761, 1859.00
1762, 1860.00
1763, 1859.00
1764, 1857.00
1765, 1858.00
1766, 1859.00
1767, 1859.00
1768, 1858.00
1769, 1859.00
1770, 1858.00
1771, 1858.00
1772, 1857.00
1773, 1856.00
1774, 1855.00
1775, 1856.00
1776, 1856.00
1777, 1857.00
1778, 1856.00
1779, 1856.00
1780, 1853.00
1781, 1856.00
1782, 1853.00
1783, 1854.00
1784, 1852.00
1785, 1853.00
1786, 1853.00
1787, 1853.00
1788, 1852.00
1789, 1852.00
1790, 1853.00
1791, 1851.00
1792, 1851.00
1793, 1850.00
1794, 1850.00
1795, 1849.00
1796, 1849.00
1797, 1848.00
1798, 1847.00
1799, 1847.00
1800, 1848.00
1801, 1846.00
1802, 1846.00
1803, 1844.00
1804, 1845.00
1805, 1845.00
1806, 1845.00
1807, 1845.00
1808, 1844.00
1809, 1845.00
1810, 1843.00
1811, 1844.00
1812, 1841.00
1813, 1841.00
1814, 1844.00
1815, 1841.00
1816, 1841.00
1817, 1842.00
1818, 1839.00
1819, 1842.00
1820, 1839.00
1821, 1838.00
1822, 1838.00
1823, 1838.00
1824, 1836.00
1825, 1836.00
1826, 1833.00
1827, 1834.00
1828, 1834.00
1829, 1833.00
1830, 1831.00
1831, 1830.00
1832, 1829.00
1833, 1829.00
1834, 1828.00
1835, 1826.00
1836, 1824.00
1837, 1822.00
1838, 1819.00
1839, 1820.00
1840, 1819.00
1841, 1817.00
1842, 1814.00
1843, 1812.00
1844, 1811.00
1845, 1810.00
1846, 1808.00
1847, 1805.00
1848, 1804.00
1849, 1801.00
1850, 1800.00
1851, 1799.00
1852, 1797.00
1853, 1796.00
1854, 1793.00
1855, 1791.00
1856, 1790.00
1857, 1789.00
1858, 1786.00
1859, 1785.00
1860, 1784.00
1861, 1783.00
1862, 1780.00
1863, 1779.00
1864, 1778.00
1865, 1776.00
1866, 1776.00
1867, 1774.00
1868, 1773.00
1869, 1771.00
1870, 1771.00
1871, 1770.00
1872, 1766.00
1873, 1769.00
1874, 1767.00
1875, 1765.00
1876, 1763.00
1877, 1764.00
1878, 1765.00
1879, 1761.00
1880, 1764.00
1881, 1761.00
1882, 1761.00
1883, 1759.00
1884, 1759.00
1885, 1758.00
1886, 1757.00
1887, 1758.00
1888, 1759.00
1889, 1757.00
1890, 1755.00
1891, 1756.00
1892, 1756.00
1893, 1755.00
1894, 1755.00
1895, 1756.00
1896, 1756.00
1897, 1756.00
1898, 1751.00
1899, 1752.00
1900, 1753.00
1901, 1755.00
1902, 1752.00
1903, 1753.00
1904, 1752.00
1905, 1752.00
1906, 1752.00
1907, 1752.00
1908, 1751.00
1909, 1752.00
1910, 1750.00
1911, 1752.00
1912, 1751.00
1913, 1751.00
1914, 1751.00
1915, 1751.00
1916, 1749.00
1917, 1751.00
1918, 1750.00
1919, 1750.00
1920, 1751.00
1921, 1750.00
1922, 1751.00
1923, 1749.00
1924, 1751.00
1925, 1750.00
1926, 1751.00
1927, 1751.00
1928, 1750.00
1929, 1751.00
1930, 1751.00
1931, 1751.00
1932, 1751.00
1933, 1751.00
1934, 1749.00
1935, 1751.00
1936, 1750.00
1937, 1751.00
1938, 1750.00
1939, 1751.00
1940, 1750.00
1941, 1752.00
1942, 1750.00
1943, 1752.00
1944, 1754.00
1945, 1751.00
1946, 1751.00
1947, 1752.00
1948, 1753.00
1949, 1752.00
1950, 1751.00
1951, 1754.00
1952, 1755.00
1953, 1755.00
1954, 1754.00
1955, 1755.00
1956, 1753.00
1957, 1753.00
1958, 1755.00
1959, 1755.00
1960, 1756.00
1961, 1754.00
1962, 1755.00
1963, 1755.00
1964, 1758.00
1965, 1757.00
1966, 1758.00
1967, 1756.00
1968, 1758.00
1969, 1759.00
1970, 1759.00
1971, 1758.00
1972, 1761.00
1973, 1759.00
1974, 1761.00
1975, 1761.00
1976, 1761.00
1977, 1761.00
1978, 1762.00
1979, 1761.00
1980, 1763.00
1981, 1762.00
1982, 1762.00
1983, 1764.00
1984, 1765.00
1985, 1765.00
1986, 1765.00
1987, 1768.00
1988, 1765.00
1989, 1767.00
1990, 1768.00
1991, 1767.00
1992, 1768.00
1993, 1768.00
1994, 1768.00
1995, 1769.00
1996, 1769.00
1997, 1769.00
1998, 1771.00
1999, 1771.00
2000, 1773.00
2001, 1772.00
2002, 1772.00
2003, 1771.00
2004, 1773.00
2005, 1774.00
2006, 1773.00
2007, 1774.00
2008, 1773.00
2009, 1774.00
2010, 1775.00
2011, 1777.00
2012, 1776.00
2013, 1775.00
2014, 1776.00
2015, 1776.00
2016, 1776.00
2017, 1779.00
2018, 1779.00
2019, 1779.00
2020, 1780.00
2021, 1778.00
2022, 1779.00
2023, 1779.00
2024, 1782.00
2025, 1781.00
2026, 1782.00
2027, 1782.00
2028, 1783.00
2029, 1783.00
2030, 1783.00
2031, 1783.00
2032, 1785.00
2033, 1785.00
2034, 1785.00
2035, 1786.00
2036, 1787.00
2037, 1787.00
2038, 1787.00
2039, 1790.00
2040, 1787.00
2041, 1789.00
2042, 1789.00
2043, 1791.00
2044, 1791.00
2045, 1791.00
2046, 1791.00
2047, 1791.00
2048, 1792.00
2049, 1794.00
2050, 1795.00
2051, 1797.00
2052, 1796.00
2053, 1797.00
2054, 1798.00
2055, 1800.00
2056, 1799.00
2057, 1799.00
2058, 1798.00
2059, 1801.00
2060, 1800.00
2061, 1801.00
2062, 1800.00
2063, 1804.00
2064, 1804.00
2065, 1807.00
2066, 1807.00
2067, 1805.00
2068, 1805.00
2069, 1806.00
2070, 1807.00
2071, 1808.00
2072, 1809.00
2073, 1811.00
2074, 1810.00
2075, 1810.00
2076, 1812.00
2077, 1813.00
2078, 1812.00
2079, 1814.00
2080, 1815.00
2081, 1814.00
2082, 1815.00
2083, 1815.00
2084, 1816.00
2085, 1817.00
2086, 1818.00
2087, 1816.00
2088, 1818.00
2089, 1817.00
2090, 1819.00
2091, 1819.00
2092, 1821.00
2093, 1820.00
2094, 1821.00
2095, 1821.00
2096, 1822.00
2097, 1823.00
2098, 1824.00
2099, 1823.00
2100, 1823.00
2101, 1824.00
2102, 1824.00
2103, 1826.00
2104, 1825.00
2105, 1824.00
2106, 1826.00
2107, 1825.00
2108, 1825.00
2109, 1826.00
2110, 1827.00
2111, 1827.00
2112, 1827.00
2113, 1828.00
2114, 1828.00
2115, 1827.00
2116, 1829.00
2117, 1829.00
2118, 1829.00
2119, 1829.00
2120, 1831.00
2121, 1829.00
2122, 1829.00
2123, 1831.00
2124, 1831.00
2125, 1831.00
2126, 1834.00
2127, 1831.00
2128, 1832.00
2129, 1833.00
2130, 1833.00
2131, 1833.00
2132, 1832.00
2133, 1832.00
2134, 1834.00
2135, 1832.00
2136, 1834.00
2137, 1834.00
2138, 1832.00
2139, 1834.00
2140, 1834.00
2141, 1833.00
2142, 1835.00
2143, 1833.00
2144, 1833.00
2145, 1835.00
2146, 1835.00
2147, 1835.00
2148, 1836.00
2149, 1836.00
2150, 1835.00
