FW version: 24
Log Version: 3.0.3

General Info:
       Command/Macro Performed,            Timestamp,             Device ID, COM Port, UART/I2C, Test Name, Host Major, Host Minor, Host Revision, Host Git Commit
            Single_measurement,  2023_06_28_11_09_10,       Insight2_F4_xxx,    USB-C,      USB,          ,          0,          1,             1,      4031237645

Show Spectrometer Status:
l0_version, f4_version, battery_perc, battery_mVolt, accelerometer_temp, accelerometer_x, accelerometer_y, accelerometer_z, compass_temp, compass_x, compass_y, compass_z, lamp_0, lamp_1, gain_0, gain_1
        17,         24,           34,          1879,               6192,           65300,             812,           18688,            0,     65439,     65468,     18725,   3276,   3276,      1,      1

Temperature Statistic Info:
NTC AVG [°C], NTC2 AVG [°C]
      38.595,        38.275

Statistic Info:
M1:  num,      min,      max,   median,      AVG,      STD,M2:  num,      min,      max,   median,      AVG,      STD
     301,  1618.00,  1830.00,  1662.00,  1688.10,  65.6079,     401,  2168.00,  2308.00,  2226.00,  2229.14,  45.1347,

Measurements:
Wavelength, Data Amplitude
1350, 1655.00
1351, 1655.00
1352, 1655.00
1353, 1655.00
1354, 1653.00
1355, 1652.00
1356, 1652.00
1357, 1651.00
1358, 1651.00
1359, 1650.00
1360, 1650.00
1361, 1648.00
1362, 1647.00
1363, 1646.00
1364, 1645.00
1365, 1645.00
1366, 1643.00
1367, 1643.00
1368, 1642.00
1369, 1641.00
1370, 1640.00
1371, 1639.00
1372, 1638.00
1373, 1636.00
1374, 1635.00
1375, 1635.00
1376, 1634.00
1377, 1632.00
1378, 1632.00
1379, 1631.00
1380, 1631.00
1381, 1629.00
1382, 1630.00
1383, 1628.00
1384, 1628.00
1385, 1627.00
1386, 1626.00
1387, 1626.00
1388, 1626.00
1389, 1626.00
1390, 1624.00
1391, 1624.00
1392, 1624.00
1393, 1623.00
1394, 1623.00
1395, 1622.00
1396, 1623.00
1397, 1622.00
1398, 1623.00
1399, 1621.00
1400, 1622.00
1401, 1621.00
1402, 1621.00
1403, 1620.00
1404, 1621.00
1405, 1620.00
1406, 1621.00
1407, 1621.00
1408, 1619.00
1409, 1620.00
1410, 1620.00
1411, 1619.00
1412, 1620.00
1413, 1619.00
1414, 1620.00
1415, 1619.00
1416, 1619.00
1417, 1619.00
1418, 1619.00
1419, 1618.00
1420, 1619.00
1421, 1618.00
1422, 1619.00
1423, 1619.00
1424, 1619.00
1425, 1618.00
1426, 1619.00
1427, 1619.00
1428, 1619.00
1429, 1620.00
1430, 1620.00
1431, 1621.00
1432, 1619.00
1433, 1620.00
1434, 1621.00
1435, 1621.00
1436, 1621.00
1437, 1623.00
1438, 1621.00
1439, 1623.00
1440, 1623.00
1441, 1623.00
1442, 1623.00
1443, 1624.00
1444, 1623.00
1445, 1624.00
1446, 1624.00
1447, 1625.00
1448, 1627.00
1449, 1626.00
1450, 1626.00
1451, 1627.00
1452, 1627.00
1453, 1627.00
1454, 1627.00
1455, 1628.00
1456, 1629.00
1457, 1630.00
1458, 1631.00
1459, 1630.00
1460, 1631.00
1461, 1633.00
1462, 1633.00
1463, 1633.00
1464, 1634.00
1465, 1634.00
1466, 1635.00
1467, 1635.00
1468, 1637.00
1469, 1636.00
1470, 1639.00
1471, 1639.00
1472, 1639.00
1473, 1639.00
1474, 1641.00
1475, 1641.00
1476, 1642.00
1477, 1642.00
1478, 1644.00
1479, 1645.00
1480, 1645.00
1481, 1646.00
1482, 1647.00
1483, 1647.00
1484, 1649.00
1485, 1649.00
1486, 1651.00
1487, 1652.00
1488, 1652.00
1489, 1654.00
1490, 1655.00
1491, 1656.00
1492, 1655.00
1493, 1656.00
1494, 1657.00
1495, 1657.00
1496, 1659.00
1497, 1660.00
1498, 1660.00
1499, 1662.00
1500, 1661.00
1501, 1663.00
1502, 1665.00
1503, 1665.00
1504, 1665.00
1505, 1667.00
1506, 1668.00
1507, 1668.00
1508, 1671.00
1509, 1670.00
1510, 1671.00
1511, 1671.00
1512, 1674.00
1513, 1674.00
1514, 1675.00
1515, 1677.00
1516, 1678.00
1517, 1678.00
1518, 1678.00
1519, 1680.00
1520, 1681.00
1521, 1682.00
1522, 1684.00
1523, 1685.00
1524, 1685.00
1525, 1686.00
1526, 1687.00
1527, 1689.00
1528, 1690.00
1529, 1691.00
1530, 1692.00
1531, 1693.00
1532, 1694.00
1533, 1696.00
1534, 1696.00
1535, 1697.00
1536, 1699.00
1537, 1699.00
1538, 1702.00
1539, 1701.00
1540, 1702.00
1541, 1703.00
1542, 1704.00
1543, 1706.00
1544, 1707.00
1545, 1709.00
1546, 1708.00
1547, 1710.00
1548, 1711.00
1549, 1712.00
1550, 1712.00
1551, 1714.00
1552, 1715.00
1553, 1717.00
1554, 1717.00
1555, 1718.00
1556, 1719.00
1557, 1721.00
1558, 1723.00
1559, 1724.00
1560, 1725.00
1561, 1726.00
1562, 1725.00
1563, 1728.00
1564, 1729.00
1565, 1729.00
1566, 1732.00
1567, 1732.00
1568, 1734.00
1569, 1735.00
1570, 1736.00
1571, 1737.00
1572, 1739.00
1573, 1740.00
1574, 1741.00
1575, 1742.00
1576, 1742.00
1577, 1745.00
1578, 1745.00
1579, 1746.00
1580, 1748.00
1581, 1748.00
1582, 1749.00
1583, 1751.00
1584, 1752.00
1585, 1753.00
1586, 1754.00
1587, 1754.00
1588, 1755.00
1589, 1757.00
1590, 1757.00
1591, 1759.00
1592, 1760.00
1593, 1761.00
1594, 1762.00
1595, 1763.00
1596, 1765.00
1597, 1766.00
1598, 1767.00
1599, 1768.00
1600, 1769.00
1601, 1770.00
1602, 1771.00
1603, 1772.00
1604, 1774.00
1605, 1774.00
1606, 1776.00
1607, 1777.00
1608, 1778.00
1609, 1779.00
1610, 1780.00
1611, 1782.00
1612, 1783.00
1613, 1784.00
1614, 1786.00
1615, 1787.00
1616, 1788.00
1617, 1789.00
1618, 1791.00
1619, 1792.00
1620, 1794.00
1621, 1795.00
1622, 1797.00
1623, 1797.00
1624, 1800.00
1625, 1800.00
1626, 1801.00
1627, 1803.00
1628, 1804.00
1629, 1805.00
1630, 1806.00
1631, 1808.00
1632, 1809.00
1633, 1811.00
1634, 1811.00
1635, 1813.00
1636, 1814.00
1637, 1815.00
1638, 1817.00
1639, 1818.00
1640, 1818.00
1641, 1819.00
1642, 1821.00
1643, 1821.00
1644, 1823.00
1645, 1824.00
1646, 1825.00
1647, 1826.00
1648, 1827.00
1649, 1828.00
1650, 1830.00

1750, 2305.00
1751, 2306.00
1752, 2305.00
1753, 2305.00
1754, 2306.00
1755, 2304.00
1756, 2304.00
1757, 2305.00
1758, 2307.00
1759, 2306.00
1760, 2304.00
1761, 2308.00
1762, 2304.00
1763, 2304.00
1764, 2305.00
1765, 2304.00
1766, 2305.00
1767, 2302.00
1768, 2302.00
1769, 2301.00
1770, 2304.00
1771, 2304.00
1772, 2304.00
1773, 2302.00
1774, 2301.00
1775, 2301.00
1776, 2301.00
1777, 2300.00
1778, 2301.00
1779, 2299.00
1780, 2299.00
1781, 2298.00
1782, 2298.00
1783, 2299.00
1784, 2298.00
1785, 2297.00
1786, 2295.00
1787, 2297.00
1788, 2295.00
1789, 2294.00
1790, 2294.00
1791, 2294.00
1792, 2293.00
1793, 2292.00
1794, 2290.00
1795, 2292.00
1796, 2291.00
1797, 2289.00
1798, 2290.00
1799, 2291.00
1800, 2289.00
1801, 2289.00
1802, 2288.00
1803, 2289.00
1804, 2287.00
1805, 2286.00
1806, 2287.00
1807, 2288.00
1808, 2285.00
1809, 2285.00
1810, 2286.00
1811, 2284.00
1812, 2283.00
1813, 2284.00
1814, 2283.00
1815, 2283.00
1816, 2284.00
1817, 2281.00
1818, 2280.00
1819, 2279.00
1820, 2278.00
1821, 2279.00
1822, 2276.00
1823, 2275.00
1824, 2276.00
1825, 2275.00
1826, 2273.00
1827, 2271.00
1828, 2270.00
1829, 2268.00
1830, 2268.00
1831, 2267.00
1832, 2265.00
1833, 2264.00
1834, 2262.00
1835, 2260.00
1836, 2258.00
1837, 2256.00
1838, 2255.00
1839, 2255.00
1840, 2253.00
1841, 2249.00
1842, 2248.00
1843, 2246.00
1844, 2245.00
1845, 2243.00
1846, 2241.00
1847, 2239.00
1848, 2238.00
1849, 2233.00
1850, 2231.00
1851, 2230.00
1852, 2227.00
1853, 2226.00
1854, 2224.00
1855, 2221.00
1856, 2218.00
1857, 2217.00
1858, 2215.00
1859, 2213.00
1860, 2209.00
1861, 2208.00
1862, 2206.00
1863, 2205.00
1864, 2204.00
1865, 2201.00
1866, 2200.00
1867, 2198.00
1868, 2197.00
1869, 2194.00
1870, 2193.00
1871, 2193.00
1872, 2191.00
1873, 2192.00
1874, 2189.00
1875, 2190.00
1876, 2189.00
1877, 2185.00
1878, 2185.00
1879, 2185.00
1880, 2183.00
1881, 2181.00
1882, 2184.00
1883, 2181.00
1884, 2182.00
1885, 2180.00
1886, 2180.00
1887, 2178.00
1888, 2179.00
1889, 2178.00
1890, 2177.00
1891, 2177.00
1892, 2177.00
1893, 2178.00
1894, 2178.00
1895, 2177.00
1896, 2173.00
1897, 2175.00
1898, 2174.00
1899, 2174.00
1900, 2174.00
1901, 2174.00
1902, 2175.00
1903, 2171.00
1904, 2173.00
1905, 2173.00
1906, 2171.00
1907, 2170.00
1908, 2171.00
1909, 2170.00
1910, 2170.00
1911, 2170.00
1912, 2171.00
1913, 2170.00
1914, 2168.00
1915, 2171.00
1916, 2171.00
1917, 2171.00
1918, 2169.00
1919, 2171.00
1920, 2171.00
1921, 2170.00
1922, 2168.00
1923, 2170.00
1924, 2171.00
1925, 2170.00
1926, 2169.00
1927, 2171.00
1928, 2169.00
1929, 2169.00
1930, 2171.00
1931, 2169.00
1932, 2171.00
1933, 2169.00
1934, 2169.00
1935, 2170.00
1936, 2172.00
1937, 2170.00
1938, 2169.00
1939, 2169.00
1940, 2170.00
1941, 2171.00
1942, 2171.00
1943, 2170.00
1944, 2169.00
1945, 2172.00
1946, 2171.00
1947, 2170.00
1948, 2171.00
1949, 2171.00
1950, 2173.00
1951, 2173.00
1952, 2174.00
1953, 2175.00
1954, 2173.00
1955, 2174.00
1956, 2176.00
1957, 2175.00
1958, 2174.00
1959, 2174.00
1960, 2177.00
1961, 2177.00
1962, 2177.00
1963, 2178.00
1964, 2178.00
1965, 2177.00
1966, 2179.00
1967, 2179.00
1968, 2180.00
1969, 2180.00
1970, 2181.00
1971, 2179.00
1972, 2183.00
1973, 2182.00
1974, 2182.00
1975, 2181.00
1976, 2182.00
1977, 2183.00
1978, 2184.00
1979, 2185.00
1980, 2185.00
1981, 2186.00
1982, 2185.00
1983, 2186.00
1984, 2188.00
1985, 2187.00
1986, 2186.00
1987, 2187.00
1988, 2190.00
1989, 2190.00
1990, 2191.00
1991, 2190.00
1992, 2192.00
1993, 2192.00
1994, 2193.00
1995, 2192.00
1996, 2193.00
1997, 2194.00
1998, 2194.00
1999, 2193.00
2000, 2196.00
2001, 2196.00
2002, 2196.00
2003, 2196.00
2004, 2196.00
2005, 2196.00
2006, 2200.00
2007, 2199.00
2008, 2199.00
2009, 2201.00
2010, 2199.00
2011, 2200.00
2012, 2200.00
2013, 2201.00
2014, 2200.00
2015, 2202.00
2016, 2204.00
2017, 2203.00
2018, 2205.00
2019, 2205.00
2020, 2203.00
2021, 2205.00
2022, 2207.00
2023, 2206.00
2024, 2207.00
2025, 2209.00
2026, 2208.00
2027, 2209.00
2028, 2209.00
2029, 2208.00
2030, 2211.00
2031, 2211.00
2032, 2211.00
2033, 2212.00
2034, 2214.00
2035, 2213.00
2036, 2213.00
2037, 2214.00
2038, 2215.00
2039, 2216.00
2040, 2216.00
2041, 2217.00
2042, 2217.00
2043, 2220.00
2044, 2217.00
2045, 2220.00
2046, 2219.00
2047, 2221.00
2048, 2222.00
2049, 2223.00
2050, 2223.00
2051, 2224.00
2052, 2225.00
2053, 2226.00
2054, 2227.00
2055, 2228.00
2056, 2228.00
2057, 2228.00
2058, 2229.00
2059, 2231.00
2060, 2231.00
2061, 2233.00
2062, 2233.00
2063, 2232.00
2064, 2233.00
2065, 2235.00
2066, 2235.00
2067, 2236.00
2068, 2238.00
2069, 2239.00
2070, 2239.00
2071, 2240.00
2072, 2240.00
2073, 2241.00
2074, 2240.00
2075, 2244.00
2076, 2244.00
2077, 2243.00
2078, 2245.00
2079, 2246.00
2080, 2247.00
2081, 2247.00
2082, 2246.00
2083, 2249.00
2084, 2250.00
2085, 2249.00
2086, 2248.00
2087, 2250.00
2088, 2252.00
2089, 2253.00
2090, 2252.00
2091, 2253.00
2092, 2254.00
2093, 2253.00
2094, 2255.00
2095, 2256.00
2096, 2255.00
2097, 2256.00
2098, 2258.00
2099, 2258.00
2100, 2257.00
2101, 2257.00
2102, 2259.00
2103, 2259.00
2104, 2258.00
2105, 2260.00
2106, 2260.00
2107, 2260.00
2108, 2261.00
2109, 2263.00
2110, 2261.00
2111, 2263.00
2112, 2263.00
2113, 2262.00
2114, 2262.00
2115, 2262.00
2116, 2265.00
2117, 2264.00
2118, 2264.00
2119, 2263.00
2120, 2265.00
2121, 2266.00
2122, 2267.00
2123, 2265.00
2124, 2265.00
2125, 2269.00
2126, 2267.00
2127, 2267.00
2128, 2268.00
2129, 2266.00
2130, 2267.00
2131, 2269.00
2132, 2269.00
2133, 2269.00
2134, 2271.00
2135, 2269.00
2136, 2270.00
2137, 2270.00
2138, 2270.00
2139, 2269.00
2140, 2273.00
2141, 2270.00
2142, 2272.00
2143, 2269.00
2144, 2271.00
2145, 2271.00
2146, 2272.00
2147, 2272.00
2148, 2273.00
2149, 2274.00
2150, 2273.00
