FW version: 24
Log Version: 3.0.3

General Info:
       Command/Macro Performed,            Timestamp,             Device ID, COM Port, UART/I2C, Test Name, Host Major, Host Minor, Host Revision, Host Git Commit
            Single_measurement,  2023_06_28_11_08_47,       Insight2_F4_xxx,    USB-C,      USB,          ,          0,          1,             1,      4031237645

Show Spectrometer Status:
l0_version, f4_version, battery_perc, battery_mVolt, accelerometer_temp, accelerometer_x, accelerometer_y, accelerometer_z, compass_temp, compass_x, compass_y, compass_z, lamp_0, lamp_1, gain_0, gain_1
        17,         24,           34,          1890,               6160,           65256,             848,           18780,            0,     65530,     65500,     18814,   2866,   2866,      1,      1

Temperature Statistic Info:
NTC AVG [°C], NTC2 AVG [°C]
      38.362,        38.040

Statistic Info:
M1:  num,      min,      max,   median,      AVG,      STD,M2:  num,      min,      max,   median,      AVG,      STD
     301,  1260.00,  1431.00,  1296.00,  1316.70,  53.0147,     401,  1747.00,  1860.00,  1796.00,  1798.32,  36.6115,

Measurements:
Wavelength, Data Amplitude
1350, 1288.00
1351, 1289.00
1352, 1289.00
1353, 1287.00
1354, 1287.00
1355, 1287.00
1356, 1286.00
1357, 1285.00
1358, 1286.00
1359, 1285.00
1360, 1284.00
1361, 1283.00
1362, 1282.00
1363, 1282.00
1364, 1281.00
1365, 1281.00
1366, 1279.00
1367, 1279.00
1368, 1278.00
1369, 1276.00
1370, 1278.00
1371, 1275.00
1372, 1275.00
1373, 1274.00
1374, 1273.00
1375, 1273.00
1376, 1272.00
1377, 1272.00
1378, 1269.00
1379, 1270.00
1380, 1269.00
1381, 1269.00
1382, 1268.00
1383, 1268.00
1384, 1267.00
1385, 1267.00
1386, 1266.00
1387, 1266.00
1388, 1266.00
1389, 1265.00
1390, 1266.00
1391, 1265.00
1392, 1265.00
1393, 1265.00
1394, 1263.00
1395, 1263.00
1396, 1262.00
1397, 1264.00
1398, 1263.00
1399, 1262.00
1400, 1263.00
1401, 1262.00
1402, 1262.00
1403, 1262.00
1404, 1262.00
1405, 1261.00
1406, 1262.00
1407, 1262.00
1408, 1261.00
1409, 1261.00
1410, 1262.00
1411, 1261.00
1412, 1262.00
1413, 1261.00
1414, 1260.00
1415, 1260.00
1416, 1261.00
1417, 1261.00
1418, 1261.00
1419, 1260.00
1420, 1261.00
1421, 1261.00
1422, 1261.00
1423, 1261.00
1424, 1262.00
1425, 1262.00
1426, 1261.00
1427, 1262.00
1428, 1262.00
1429, 1262.00
1430, 1262.00
1431, 1262.00
1432, 1262.00
1433, 1262.00
1434, 1262.00
1435, 1264.00
1436, 1263.00
1437, 1263.00
1438, 1263.00
1439, 1265.00
1440, 1263.00
1441, 1264.00
1442, 1264.00
1443, 1265.00
1444, 1265.00
1445, 1265.00
1446, 1265.00
1447, 1267.00
1448, 1266.00
1449, 1267.00
1450, 1267.00
1451, 1267.00
1452, 1268.00
1453, 1269.00
1454, 1269.00
1455, 1269.00
1456, 1269.00
1457, 1270.00
1458, 1270.00
1459, 1271.00
1460, 1271.00
1461, 1271.00
1462, 1272.00
1463, 1272.00
1464, 1273.00
1465, 1274.00
1466, 1274.00
1467, 1274.00
1468, 1275.00
1469, 1276.00
1470, 1276.00
1471, 1277.00
1472, 1278.00
1473, 1278.00
1474, 1278.00
1475, 1279.00
1476, 1279.00
1477, 1280.00
1478, 1281.00
1479, 1282.00
1480, 1282.00
1481, 1283.00
1482, 1284.00
1483, 1285.00
1484, 1285.00
1485, 1286.00
1486, 1287.00
1487, 1288.00
1488, 1287.00
1489, 1289.00
1490, 1289.00
1491, 1290.00
1492, 1291.00
1493, 1292.00
1494, 1292.00
1495, 1293.00
1496, 1294.00
1497, 1294.00
1498, 1294.00
1499, 1296.00
1500, 1296.00
1501, 1297.00
1502, 1299.00
1503, 1299.00
1504, 1299.00
1505, 1300.00
1506, 1301.00
1507, 1301.00
1508, 1303.00
1509, 1303.00
1510, 1304.00
1511, 1305.00
1512, 1305.00
1513, 1307.00
1514, 1308.00
1515, 1309.00
1516, 1309.00
1517, 1310.00
1518, 1310.00
1519, 1311.00
1520, 1312.00
1521, 1312.00
1522, 1314.00
1523, 1314.00
1524, 1315.00
1525, 1316.00
1526, 1316.00
1527, 1318.00
1528, 1319.00
1529, 1320.00
1530, 1321.00
1531, 1320.00
1532, 1322.00
1533, 1323.00
1534, 1323.00
1535, 1324.00
1536, 1325.00
1537, 1326.00
1538, 1328.00
1539, 1328.00
1540, 1329.00
1541, 1329.00
1542, 1330.00
1543, 1333.00
1544, 1332.00
1545, 1333.00
1546, 1335.00
1547, 1335.00
1548, 1335.00
1549, 1336.00
1550, 1338.00
1551, 1338.00
1552, 1339.00
1553, 1339.00
1554, 1341.00
1555, 1341.00
1556, 1342.00
1557, 1343.00
1558, 1345.00
1559, 1346.00
1560, 1347.00
1561, 1347.00
1562, 1348.00
1563, 1349.00
1564, 1349.00
1565, 1351.00
1566, 1352.00
1567, 1353.00
1568, 1354.00
1569, 1355.00
1570, 1355.00
1571, 1357.00
1572, 1357.00
1573, 1359.00
1574, 1360.00
1575, 1360.00
1576, 1361.00
1577, 1362.00
1578, 1363.00
1579, 1363.00
1580, 1365.00
1581, 1365.00
1582, 1367.00
1583, 1366.00
1584, 1368.00
1585, 1369.00
1586, 1369.00
1587, 1369.00
1588, 1371.00
1589, 1371.00
1590, 1372.00
1591, 1373.00
1592, 1375.00
1593, 1375.00
1594, 1377.00
1595, 1377.00
1596, 1378.00
1597, 1378.00
1598, 1380.00
1599, 1380.00
1600, 1381.00
1601, 1382.00
1602, 1383.00
1603, 1385.00
1604, 1386.00
1605, 1386.00
1606, 1388.00
1607, 1389.00
1608, 1390.00
1609, 1389.00
1610, 1391.00
1611, 1391.00
1612, 1394.00
1613, 1394.00
1614, 1395.00
1615, 1397.00
1616, 1397.00
1617, 1399.00
1618, 1399.00
1619, 1401.00
1620, 1402.00
1621, 1403.00
1622, 1404.00
1623, 1406.00
1624, 1406.00
1625, 1407.00
1626, 1409.00
1627, 1410.00
1628, 1411.00
1629, 1412.00
1630, 1412.00
1631, 1413.00
1632, 1415.00
1633, 1416.00
1634, 1416.00
1635, 1416.00
1636, 1418.00
1637, 1420.00
1638, 1420.00
1639, 1421.00
1640, 1421.00
1641, 1423.00
1642, 1423.00
1643, 1425.00
1644, 1426.00
1645, 1426.00
1646, 1427.00
1647, 1428.00
1648, 1430.00
1649, 1430.00
1650, 1431.00

1750, 1859.00
1751, 1860.00
1752, 1858.00
1753, 1858.00
1754, 1860.00
1755, 1859.00
1756, 1856.00
1757, 1859.00
1758, 1858.00
1759, 1858.00
1760, 1857.00
1761, 1858.00
1762, 1858.00
1763, 1858.00
1764, 1857.00
1765, 1856.00
1766, 1857.00
1767, 1857.00
1768, 1857.00
1769, 1858.00
1770, 1856.00
1771, 1855.00
1772, 1857.00
1773, 1854.00
1774, 1853.00
1775, 1856.00
1776, 1857.00
1777, 1855.00
1778, 1854.00
1779, 1855.00
1780, 1854.00
1781, 1854.00
1782, 1854.00
1783, 1852.00
1784, 1855.00
1785, 1852.00
1786, 1851.00
1787, 1850.00
1788, 1851.00
1789, 1850.00
1790, 1849.00
1791, 1849.00
1792, 1848.00
1793, 1849.00
1794, 1848.00
1795, 1849.00
1796, 1847.00
1797, 1847.00
1798, 1845.00
1799, 1846.00
1800, 1848.00
1801, 1845.00
1802, 1846.00
1803, 1848.00
1804, 1846.00
1805, 1845.00
1806, 1843.00
1807, 1844.00
1808, 1843.00
1809, 1845.00
1810, 1843.00
1811, 1842.00
1812, 1843.00
1813, 1842.00
1814, 1842.00
1815, 1841.00
1816, 1841.00
1817, 1839.00
1818, 1841.00
1819, 1840.00
1820, 1838.00
1821, 1837.00
1822, 1837.00
1823, 1837.00
1824, 1835.00
1825, 1836.00
1826, 1833.00
1827, 1833.00
1828, 1831.00
1829, 1830.00
1830, 1831.00
1831, 1829.00
1832, 1828.00
1833, 1827.00
1834, 1825.00
1835, 1824.00
1836, 1821.00
1837, 1821.00
1838, 1820.00
1839, 1820.00
1840, 1817.00
1841, 1814.00
1842, 1813.00
1843, 1811.00
1844, 1810.00
1845, 1809.00
1846, 1807.00
1847, 1805.00
1848, 1804.00
1849, 1801.00
1850, 1800.00
1851, 1797.00
1852, 1798.00
1853, 1796.00
1854, 1793.00
1855, 1789.00
1856, 1787.00
1857, 1787.00
1858, 1786.00
1859, 1783.00
1860, 1784.00
1861, 1781.00
1862, 1780.00
1863, 1778.00
1864, 1776.00
1865, 1775.00
1866, 1777.00
1867, 1773.00
1868, 1772.00
1869, 1770.00
1870, 1770.00
1871, 1769.00
1872, 1768.00
1873, 1769.00
1874, 1766.00
1875, 1765.00
1876, 1764.00
1877, 1764.00
1878, 1763.00
1879, 1762.00
1880, 1761.00
1881, 1763.00
1882, 1761.00
1883, 1761.00
1884, 1758.00
1885, 1758.00
1886, 1759.00
1887, 1755.00
1888, 1757.00
1889, 1758.00
1890, 1757.00
1891, 1755.00
1892, 1757.00
1893, 1754.00
1894, 1755.00
1895, 1754.00
1896, 1755.00
1897, 1755.00
1898, 1753.00
1899, 1754.00
1900, 1753.00
1901, 1752.00
1902, 1753.00
1903, 1753.00
1904, 1752.00
1905, 1751.00
1906, 1751.00
1907, 1751.00
1908, 1751.00
1909, 1751.00
1910, 1751.00
1911, 1750.00
1912, 1751.00
1913, 1750.00
1914, 1749.00
1915, 1749.00
1916, 1752.00
1917, 1749.00
1918, 1751.00
1919, 1749.00
1920, 1750.00
1921, 1750.00
1922, 1750.00
1923, 1750.00
1924, 1751.00
1925, 1750.00
1926, 1750.00
1927, 1749.00
1928, 1752.00
1929, 1748.00
1930, 1750.00
1931, 1747.00
1932, 1751.00
1933, 1749.00
1934, 1749.00
1935, 1748.00
1936, 1749.00
1937, 1750.00
1938, 1751.00
1939, 1751.00
1940, 1750.00
1941, 1749.00
1942, 1750.00
1943, 1752.00
1944, 1750.00
1945, 1751.00
1946, 1752.00
1947, 1752.00
1948, 1751.00
1949, 1753.00
1950, 1751.00
1951, 1752.00
1952, 1752.00
1953, 1753.00
1954, 1755.00
1955, 1752.00
1956, 1755.00
1957, 1752.00
1958, 1754.00
1959, 1755.00
1960, 1755.00
1961, 1756.00
1962, 1755.00
1963, 1757.00
1964, 1755.00
1965, 1756.00
1966, 1756.00
1967, 1757.00
1968, 1756.00
1969, 1759.00
1970, 1757.00
1971, 1759.00
1972, 1759.00
1973, 1760.00
1974, 1761.00
1975, 1761.00
1976, 1759.00
1977, 1762.00
1978, 1762.00
1979, 1760.00
1980, 1762.00
1981, 1763.00
1982, 1764.00
1983, 1763.00
1984, 1765.00
1985, 1764.00
1986, 1765.00
1987, 1764.00
1988, 1766.00
1989, 1765.00
1990, 1765.00
1991, 1764.00
1992, 1768.00
1993, 1767.00
1994, 1768.00
1995, 1769.00
1996, 1769.00
1997, 1770.00
1998, 1770.00
1999, 1770.00
2000, 1771.00
2001, 1772.00
2002, 1771.00
2003, 1772.00
2004, 1772.00
2005, 1773.00
2006, 1773.00
2007, 1774.00
2008, 1774.00
2009, 1774.00
2010, 1776.00
2011, 1775.00
2012, 1776.00
2013, 1776.00
2014, 1775.00
2015, 1777.00
2016, 1777.00
2017, 1777.00
2018, 1779.00
2019, 1779.00
2020, 1778.00
2021, 1779.00
2022, 1779.00
2023, 1780.00
2024, 1781.00
2025, 1781.00
2026, 1782.00
2027, 1781.00
2028, 1783.00
2029, 1783.00
2030, 1783.00
2031, 1782.00
2032, 1785.00
2033, 1785.00
2034, 1785.00
2035, 1785.00
2036, 1789.00
2037, 1786.00
2038, 1785.00
2039, 1789.00
2040, 1790.00
2041, 1789.00
2042, 1789.00
2043, 1789.00
2044, 1790.00
2045, 1790.00
2046, 1791.00
2047, 1793.00
2048, 1793.00
2049, 1794.00
2050, 1793.00
2051, 1793.00
2052, 1795.00
2053, 1797.00
2054, 1795.00
2055, 1798.00
2056, 1796.00
2057, 1798.00
2058, 1801.00
2059, 1801.00
2060, 1800.00
2061, 1803.00
2062, 1801.00
2063, 1803.00
2064, 1803.00
2065, 1805.00
2066, 1805.00
2067, 1806.00
2068, 1806.00
2069, 1806.00
2070, 1806.00
2071, 1808.00
2072, 1808.00
2073, 1809.00
2074, 1809.00
2075, 1809.00
2076, 1809.00
2077, 1811.00
2078, 1813.00
2079, 1813.00
2080, 1814.00
2081, 1813.00
2082, 1813.00
2083, 1814.00
2084, 1815.00
2085, 1815.00
2086, 1816.00
2087, 1818.00
2088, 1816.00
2089, 1819.00
2090, 1818.00
2091, 1819.00
2092, 1819.00
2093, 1821.00
2094, 1821.00
2095, 1821.00
2096, 1822.00
2097, 1823.00
2098, 1823.00
2099, 1822.00
2100, 1823.00
2101, 1823.00
2102, 1824.00
2103, 1824.00
2104, 1825.00
2105, 1825.00
2106, 1824.00
2107, 1825.00
2108, 1826.00
2109, 1825.00
2110, 1825.00
2111, 1827.00
2112, 1826.00
2113, 1827.00
2114, 1826.00
2115, 1827.00
2116, 1826.00
2117, 1828.00
2118, 1829.00
2119, 1828.00
2120, 1829.00
2121, 1829.00
2122, 1828.00
2123, 1829.00
2124, 1829.00
2125, 1830.00
2126, 1831.00
2127, 1830.00
2128, 1832.00
2129, 1830.00
2130, 1831.00
2131, 1831.00
2132, 1832.00
2133, 1834.00
2134, 1832.00
2135, 1833.00
2136, 1832.00
2137, 1834.00
2138, 1831.00
2139, 1834.00
2140, 1833.00
2141, 1836.00
2142, 1834.00
2143, 1835.00
2144, 1835.00
2145, 1835.00
2146, 1836.00
2147, 1834.00
2148, 1836.00
2149, 1836.00
2150, 1836.00
