FW version: 24
Log Version: 3.0.3

General Info:
       Command/Macro Performed,            Timestamp,             Device ID, COM Port, UART/I2C, Test Name, Host Major, Host Minor, Host Revision, Host Git Commit
            Single_measurement,  2023_06_27_12_03_10,       Insight2_F4_xxx,    USB-C,      USB,          ,          0,          1,             1,      4031237645

Show Spectrometer Status:
l0_version, f4_version, battery_perc, battery_mVolt, accelerometer_temp, accelerometer_x, accelerometer_y, accelerometer_z, compass_temp, compass_x, compass_y, compass_z, lamp_0, lamp_1, gain_0, gain_1
        17,         24,           95,          2078,               5680,           65468,             220,           18488,            0,     65469,     65502,     65468,   3276,   3276,    1,    1

Temperature Statistic Info:
NTC AVG [°C], NTC2 AVG [°C]
      37.382,        37.063

Statistic Info:
M1:  num,      min,      max,   median,      AVG,      STD,M2:  num,      min,      max,   median,      AVG,      STD
     301,  1842.00,  2123.00,  1898.00,  1933.96,  86.9758,     401,  2518.00,  2687.00,  2584.00,  2590.48,  54.6925,

Measurements:
Wavelength, Data Amplitude
1350, 1896.00
1351, 1897.00
1352, 1896.00
1353, 1894.00
1354, 1892.00
1355, 1892.00
1356, 1892.00
1357, 1890.00
1358, 1889.00
1359, 1887.00
1360, 1887.00
1361, 1885.00
1362, 1884.00
1363, 1882.00
1364, 1880.00
1365, 1878.00
1366, 1877.00
1367, 1878.00
1368, 1874.00
1369, 1874.00
1370, 1872.00
1371, 1871.00
1372, 1869.00
1373, 1866.00
1374, 1868.00
1375, 1865.00
1376, 1864.00
1377, 1862.00
1378, 1861.00
1379, 1861.00
1380, 1859.00
1381, 1858.00
1382, 1857.00
1383, 1857.00
1384, 1855.00
1385, 1855.00
1386, 1854.00
1387, 1854.00
1388, 1852.00
1389, 1851.00
1390, 1851.00
1391, 1851.00
1392, 1849.00
1393, 1850.00
1394, 1849.00
1395, 1848.00
1396, 1847.00
1397, 1847.00
1398, 1846.00
1399, 1846.00
1400, 1846.00
1401, 1846.00
1402, 1845.00
1403, 1845.00
1404, 1845.00
1405, 1844.00
1406, 1843.00
1407, 1845.00
1408, 1845.00
1409, 1844.00
1410, 1843.00
1411, 1843.00
1412, 1844.00
1413, 1843.00
1414, 1843.00
1415, 1843.00
1416, 1842.00
1417, 1843.00
1418, 1842.00
1419, 1843.00
1420, 1843.00
1421, 1842.00
1422, 1842.00
1423, 1842.00
1424, 1843.00
1425, 1843.00
1426, 1843.00
1427, 1843.00
1428, 1843.00
1429, 1843.00
1430, 1844.00
1431, 1845.00
1432, 1844.00
1433, 1845.00
1434, 1845.00
1435, 1845.00
1436, 1846.00
1437, 1846.00
1438, 1846.00
1439, 1847.00
1440, 1846.00
1441, 1848.00
1442, 1848.00
1443, 1849.00
1444, 1849.00
1445, 1849.00
1446, 1849.00
1447, 1850.00
1448, 1850.00
1449, 1851.00
1450, 1852.00
1451, 1852.00
1452, 1853.00
1453, 1853.00
1454, 1854.00
1455, 1854.00
1456, 1855.00
1457, 1856.00
1458, 1857.00
1459, 1858.00
1460, 1859.00
1461, 1859.00
1462, 1859.00
1463, 1860.00
1464, 1861.00
1465, 1863.00
1466, 1863.00
1467, 1864.00
1468, 1864.00
1469, 1865.00
1470, 1864.00
1471, 1867.00
1472, 1868.00
1473, 1869.00
1474, 1870.00
1475, 1871.00
1476, 1873.00
1477, 1873.00
1478, 1873.00
1479, 1875.00
1480, 1875.00
1481, 1877.00
1482, 1878.00
1483, 1879.00
1484, 1881.00
1485, 1882.00
1486, 1882.00
1487, 1885.00
1488, 1885.00
1489, 1885.00
1490, 1887.00
1491, 1888.00
1492, 1889.00
1493, 1891.00
1494, 1892.00
1495, 1893.00
1496, 1894.00
1497, 1895.00
1498, 1896.00
1499, 1898.00
1500, 1897.00
1501, 1900.00
1502, 1901.00
1503, 1903.00
1504, 1903.00
1505, 1904.00
1506, 1906.00
1507, 1906.00
1508, 1909.00
1509, 1908.00
1510, 1911.00
1511, 1911.00
1512, 1913.00
1513, 1914.00
1514, 1915.00
1515, 1917.00
1516, 1918.00
1517, 1919.00
1518, 1921.00
1519, 1923.00
1520, 1923.00
1521, 1924.00
1522, 1925.00
1523, 1927.00
1524, 1929.00
1525, 1930.00
1526, 1931.00
1527, 1933.00
1528, 1934.00
1529, 1936.00
1530, 1937.00
1531, 1937.00
1532, 1940.00
1533, 1941.00
1534, 1941.00
1535, 1945.00
1536, 1944.00
1537, 1946.00
1538, 1948.00
1539, 1950.00
1540, 1950.00
1541, 1953.00
1542, 1955.00
1543, 1955.00
1544, 1956.00
1545, 1957.00
1546, 1961.00
1547, 1961.00
1548, 1963.00
1549, 1964.00
1550, 1965.00
1551, 1966.00
1552, 1967.00
1553, 1969.00
1554, 1971.00
1555, 1971.00
1556, 1973.00
1557, 1976.00
1558, 1977.00
1559, 1979.00
1560, 1981.00
1561, 1982.00
1562, 1984.00
1563, 1985.00
1564, 1987.00
1565, 1989.00
1566, 1990.00
1567, 1991.00
1568, 1993.00
1569, 1994.00
1570, 1997.00
1571, 1999.00
1572, 2000.00
1573, 2003.00
1574, 2002.00
1575, 2004.00
1576, 2006.00
1577, 2007.00
1578, 2009.00
1579, 2010.00
1580, 2012.00
1581, 2013.00
1582, 2015.00
1583, 2016.00
1584, 2017.00
1585, 2020.00
1586, 2020.00
1587, 2022.00
1588, 2024.00
1589, 2026.00
1590, 2027.00
1591, 2028.00
1592, 2029.00
1593, 2031.00
1594, 2032.00
1595, 2034.00
1596, 2034.00
1597, 2037.00
1598, 2038.00
1599, 2039.00
1600, 2040.00
1601, 2043.00
1602, 2044.00
1603, 2045.00
1604, 2047.00
1605, 2050.00
1606, 2050.00
1607, 2053.00
1608, 2054.00
1609, 2055.00
1610, 2057.00
1611, 2058.00
1612, 2061.00
1613, 2063.00
1614, 2064.00
1615, 2066.00
1616, 2068.00
1617, 2069.00
1618, 2071.00
1619, 2074.00
1620, 2075.00
1621, 2077.00
1622, 2079.00
1623, 2080.00
1624, 2081.00
1625, 2085.00
1626, 2086.00
1627, 2088.00
1628, 2089.00
1629, 2091.00
1630, 2092.00
1631, 2094.00
1632, 2096.00
1633, 2097.00
1634, 2099.00
1635, 2100.00
1636, 2103.00
1637, 2102.00
1638, 2104.00
1639, 2107.00
1640, 2107.00
1641, 2109.00
1642, 2111.00
1643, 2112.00
1644, 2114.00
1645, 2115.00
1646, 2117.00
1647, 2118.00
1648, 2120.00
1649, 2121.00
1650, 2123.00

1750, 2685.00
1751, 2686.00
1752, 2686.00
1753, 2684.00
1754, 2684.00
1755, 2686.00
1756, 2686.00
1757, 2686.00
1758, 2684.00
1759, 2687.00
1760, 2686.00
1761, 2685.00
1762, 2684.00
1763, 2684.00
1764, 2686.00
1765, 2685.00
1766, 2683.00
1767, 2685.00
1768, 2685.00
1769, 2682.00
1770, 2683.00
1771, 2683.00
1772, 2683.00
1773, 2681.00
1774, 2679.00
1775, 2679.00
1776, 2680.00
1777, 2679.00
1778, 2679.00
1779, 2680.00
1780, 2679.00
1781, 2677.00
1782, 2679.00
1783, 2676.00
1784, 2675.00
1785, 2674.00
1786, 2677.00
1787, 2674.00
1788, 2674.00
1789, 2672.00
1790, 2672.00
1791, 2673.00
1792, 2673.00
1793, 2672.00
1794, 2672.00
1795, 2670.00
1796, 2667.00
1797, 2667.00
1798, 2669.00
1799, 2667.00
1800, 2667.00
1801, 2666.00
1802, 2665.00
1803, 2664.00
1804, 2665.00
1805, 2664.00
1806, 2664.00
1807, 2666.00
1808, 2663.00
1809, 2662.00
1810, 2661.00
1811, 2660.00
1812, 2660.00
1813, 2659.00
1814, 2660.00
1815, 2657.00
1816, 2659.00
1817, 2656.00
1818, 2656.00
1819, 2654.00
1820, 2654.00
1821, 2652.00
1822, 2652.00
1823, 2650.00
1824, 2647.00
1825, 2647.00
1826, 2645.00
1827, 2645.00
1828, 2642.00
1829, 2642.00
1830, 2638.00
1831, 2637.00
1832, 2638.00
1833, 2633.00
1834, 2631.00
1835, 2629.00
1836, 2629.00
1837, 2626.00
1838, 2623.00
1839, 2622.00
1840, 2619.00
1841, 2617.00
1842, 2615.00
1843, 2610.00
1844, 2610.00
1845, 2607.00
1846, 2605.00
1847, 2602.00
1848, 2600.00
1849, 2597.00
1850, 2594.00
1851, 2593.00
1852, 2590.00
1853, 2588.00
1854, 2582.00
1855, 2581.00
1856, 2577.00
1857, 2576.00
1858, 2574.00
1859, 2570.00
1860, 2569.00
1861, 2567.00
1862, 2564.00
1863, 2562.00
1864, 2562.00
1865, 2559.00
1866, 2555.00
1867, 2554.00
1868, 2553.00
1869, 2552.00
1870, 2550.00
1871, 2550.00
1872, 2547.00
1873, 2544.00
1874, 2543.00
1875, 2543.00
1876, 2543.00
1877, 2541.00
1878, 2539.00
1879, 2540.00
1880, 2537.00
1881, 2536.00
1882, 2534.00
1883, 2533.00
1884, 2534.00
1885, 2533.00
1886, 2530.00
1887, 2531.00
1888, 2531.00
1889, 2529.00
1890, 2530.00
1891, 2530.00
1892, 2529.00
1893, 2528.00
1894, 2528.00
1895, 2527.00
1896, 2527.00
1897, 2528.00
1898, 2527.00
1899, 2524.00
1900, 2526.00
1901, 2527.00
1902, 2525.00
1903, 2523.00
1904, 2523.00
1905, 2523.00
1906, 2523.00
1907, 2522.00
1908, 2521.00
1909, 2523.00
1910, 2523.00
1911, 2521.00
1912, 2522.00
1913, 2521.00
1914, 2521.00
1915, 2521.00
1916, 2522.00
1917, 2520.00
1918, 2519.00
1919, 2521.00
1920, 2519.00
1921, 2520.00
1922, 2520.00
1923, 2522.00
1924, 2520.00
1925, 2520.00
1926, 2521.00
1927, 2521.00
1928, 2518.00
1929, 2520.00
1930, 2520.00
1931, 2519.00
1932, 2521.00
1933, 2522.00
1934, 2521.00
1935, 2519.00
1936, 2521.00
1937, 2519.00
1938, 2521.00
1939, 2521.00
1940, 2521.00
1941, 2521.00
1942, 2521.00
1943, 2523.00
1944, 2524.00
1945, 2522.00
1946, 2522.00
1947, 2522.00
1948, 2524.00
1949, 2523.00
1950, 2522.00
1951, 2523.00
1952, 2524.00
1953, 2524.00
1954, 2524.00
1955, 2525.00
1956, 2526.00
1957, 2527.00
1958, 2527.00
1959, 2525.00
1960, 2527.00
1961, 2529.00
1962, 2527.00
1963, 2528.00
1964, 2529.00
1965, 2530.00
1966, 2528.00
1967, 2531.00
1968, 2530.00
1969, 2532.00
1970, 2530.00
1971, 2533.00
1972, 2531.00
1973, 2533.00
1974, 2533.00
1975, 2534.00
1976, 2533.00
1977, 2535.00
1978, 2536.00
1979, 2538.00
1980, 2538.00
1981, 2538.00
1982, 2539.00
1983, 2539.00
1984, 2539.00
1985, 2539.00
1986, 2538.00
1987, 2542.00
1988, 2542.00
1989, 2541.00
1990, 2542.00
1991, 2541.00
1992, 2544.00
1993, 2545.00
1994, 2546.00
1995, 2545.00
1996, 2544.00
1997, 2549.00
1998, 2547.00
1999, 2547.00
2000, 2549.00
2001, 2549.00
2002, 2549.00
2003, 2547.00
2004, 2551.00
2005, 2551.00
2006, 2552.00
2007, 2552.00
2008, 2553.00
2009, 2555.00
2010, 2553.00
2011, 2554.00
2012, 2554.00
2013, 2555.00
2014, 2557.00
2015, 2559.00
2016, 2557.00
2017, 2558.00
2018, 2560.00
2019, 2560.00
2020, 2560.00
2021, 2561.00
2022, 2561.00
2023, 2562.00
2024, 2561.00
2025, 2565.00
2026, 2563.00
2027, 2565.00
2028, 2565.00
2029, 2565.00
2030, 2565.00
2031, 2567.00
2032, 2568.00
2033, 2568.00
2034, 2569.00
2035, 2568.00
2036, 2572.00
2037, 2570.00
2038, 2570.00
2039, 2573.00
2040, 2573.00
2041, 2572.00
2042, 2576.00
2043, 2574.00
2044, 2577.00
2045, 2577.00
2046, 2579.00
2047, 2578.00
2048, 2579.00
2049, 2580.00
2050, 2582.00
2051, 2581.00
2052, 2584.00
2053, 2583.00
2054, 2583.00
2055, 2585.00
2056, 2585.00
2057, 2586.00
2058, 2587.00
2059, 2590.00
2060, 2592.00
2061, 2591.00
2062, 2592.00
2063, 2592.00
2064, 2593.00
2065, 2596.00
2066, 2595.00
2067, 2596.00
2068, 2597.00
2069, 2598.00
2070, 2600.00
2071, 2600.00
2072, 2601.00
2073, 2601.00
2074, 2602.00
2075, 2604.00
2076, 2603.00
2077, 2603.00
2078, 2605.00
2079, 2606.00
2080, 2609.00
2081, 2608.00
2082, 2609.00
2083, 2610.00
2084, 2611.00
2085, 2611.00
2086, 2611.00
2087, 2613.00
2088, 2613.00
2089, 2612.00
2090, 2615.00
2091, 2615.00
2092, 2616.00
2093, 2617.00
2094, 2618.00
2095, 2617.00
2096, 2620.00
2097, 2619.00
2098, 2619.00
2099, 2620.00
2100, 2622.00
2101, 2620.00
2102, 2622.00
2103, 2622.00
2104, 2623.00
2105, 2623.00
2106, 2624.00
2107, 2625.00
2108, 2624.00
2109, 2624.00
2110, 2626.00
2111, 2625.00
2112, 2628.00
2113, 2627.00
2114, 2627.00
2115, 2627.00
2116, 2627.00
2117, 2632.00
2118, 2629.00
2119, 2630.00
2120, 2630.00
2121, 2630.00
2122, 2631.00
2123, 2632.00
2124, 2632.00
2125, 2633.00
2126, 2632.00
2127, 2633.00
2128, 2634.00
2129, 2636.00
2130, 2633.00
2131, 2633.00
2132, 2635.00
2133, 2635.00
2134, 2635.00
2135, 2634.00
2136, 2636.00
2137, 2635.00
2138, 2638.00
2139, 2637.00
2140, 2637.00
2141, 2637.00
2142, 2639.00
2143, 2638.00
2144, 2639.00
2145, 2640.00
2146, 2640.00
2147, 2640.00
2148, 2640.00
2149, 2639.00
2150, 2640.00
