FW version: 24
Log Version: 3.0.3

General Info:
       Command/Macro Performed,            Timestamp,             Device ID, COM Port, UART/I2C, Test Name, Host Major, Host Minor, Host Revision, Host Git Commit
            Single_measurement,  2023_06_27_12_02_34,       Insight2_F4_xxx,    USB-C,      USB,          ,          0,          1,             1,      4031237645

Show Spectrometer Status:
l0_version, f4_version, battery_perc, battery_mVolt, accelerometer_temp, accelerometer_x, accelerometer_y, accelerometer_z, compass_temp, compass_x, compass_y, compass_z, lamp_0, lamp_1, gain_0, gain_1
        17,         24,           95,          2078,               5600,               8,             188,           18592,            0,     65326,     65470,     65530,   2047,   2047,    1,    1

Temperature Statistic Info:
NTC AVG [°C], NTC2 AVG [°C]
      36.920,        36.665

Statistic Info:
M1:  num,      min,      max,   median,      AVG,      STD,M2:  num,      min,      max,   median,      AVG,      STD
     301,   738.00,   866.00,   766.00,   780.21,  39.5990,     401,  1142.00,  1221.00,  1176.00,  1177.72,  25.6642,

Measurements:
Wavelength, Data Amplitude
1350, 757.00
1351, 758.00
1352, 757.00
1353, 757.00
1354, 757.00
1355, 756.00
1356, 756.00
1357, 755.00
1358, 756.00
1359, 754.00
1360, 753.00
1361, 753.00
1362, 753.00
1363, 752.00
1364, 752.00
1365, 751.00
1366, 751.00
1367, 750.00
1368, 750.00
1369, 749.00
1370, 749.00
1371, 747.00
1372, 747.00
1373, 747.00
1374, 747.00
1375, 747.00
1376, 746.00
1377, 745.00
1378, 745.00
1379, 745.00
1380, 744.00
1381, 743.00
1382, 744.00
1383, 743.00
1384, 743.00
1385, 743.00
1386, 741.00
1387, 741.00
1388, 742.00
1389, 741.00
1390, 741.00
1391, 741.00
1392, 742.00
1393, 740.00
1394, 740.00
1395, 741.00
1396, 740.00
1397, 740.00
1398, 740.00
1399, 739.00
1400, 740.00
1401, 739.00
1402, 740.00
1403, 739.00
1404, 740.00
1405, 740.00
1406, 740.00
1407, 739.00
1408, 739.00
1409, 740.00
1410, 739.00
1411, 739.00
1412, 740.00
1413, 739.00
1414, 739.00
1415, 739.00
1416, 739.00
1417, 740.00
1418, 738.00
1419, 739.00
1420, 739.00
1421, 739.00
1422, 739.00
1423, 739.00
1424, 739.00
1425, 739.00
1426, 739.00
1427, 738.00
1428, 739.00
1429, 741.00
1430, 740.00
1431, 740.00
1432, 740.00
1433, 740.00
1434, 741.00
1435, 740.00
1436, 740.00
1437, 741.00
1438, 741.00
1439, 741.00
1440, 742.00
1441, 743.00
1442, 742.00
1443, 742.00
1444, 742.00
1445, 742.00
1446, 742.00
1447, 743.00
1448, 742.00
1449, 744.00
1450, 744.00
1451, 743.00
1452, 744.00
1453, 744.00
1454, 744.00
1455, 745.00
1456, 745.00
1457, 746.00
1458, 746.00
1459, 746.00
1460, 747.00
1461, 748.00
1462, 748.00
1463, 747.00
1464, 748.00
1465, 748.00
1466, 749.00
1467, 749.00
1468, 750.00
1469, 750.00
1470, 751.00
1471, 751.00
1472, 751.00
1473, 751.00
1474, 753.00
1475, 752.00
1476, 753.00
1477, 754.00
1478, 754.00
1479, 755.00
1480, 755.00
1481, 755.00
1482, 757.00
1483, 757.00
1484, 757.00
1485, 758.00
1486, 757.00
1487, 758.00
1488, 759.00
1489, 760.00
1490, 761.00
1491, 761.00
1492, 761.00
1493, 762.00
1494, 761.00
1495, 762.00
1496, 763.00
1497, 764.00
1498, 765.00
1499, 766.00
1500, 766.00
1501, 766.00
1502, 766.00
1503, 767.00
1504, 768.00
1505, 769.00
1506, 768.00
1507, 770.00
1508, 770.00
1509, 770.00
1510, 772.00
1511, 771.00
1512, 773.00
1513, 774.00
1514, 773.00
1515, 774.00
1516, 775.00
1517, 775.00
1518, 776.00
1519, 777.00
1520, 777.00
1521, 778.00
1522, 779.00
1523, 779.00
1524, 780.00
1525, 780.00
1526, 780.00
1527, 782.00
1528, 782.00
1529, 783.00
1530, 785.00
1531, 785.00
1532, 785.00
1533, 786.00
1534, 787.00
1535, 786.00
1536, 787.00
1537, 788.00
1538, 788.00
1539, 789.00
1540, 790.00
1541, 791.00
1542, 790.00
1543, 791.00
1544, 791.00
1545, 792.00
1546, 793.00
1547, 793.00
1548, 795.00
1549, 794.00
1550, 796.00
1551, 796.00
1552, 797.00
1553, 797.00
1554, 798.00
1555, 800.00
1556, 798.00
1557, 800.00
1558, 800.00
1559, 801.00
1560, 802.00
1561, 802.00
1562, 803.00
1563, 804.00
1564, 804.00
1565, 805.00
1566, 806.00
1567, 806.00
1568, 808.00
1569, 808.00
1570, 809.00
1571, 809.00
1572, 810.00
1573, 810.00
1574, 812.00
1575, 812.00
1576, 813.00
1577, 814.00
1578, 814.00
1579, 815.00
1580, 816.00
1581, 815.00
1582, 817.00
1583, 818.00
1584, 817.00
1585, 819.00
1586, 819.00
1587, 819.00
1588, 821.00
1589, 822.00
1590, 821.00
1591, 822.00
1592, 823.00
1593, 824.00
1594, 824.00
1595, 825.00
1596, 825.00
1597, 826.00
1598, 827.00
1599, 828.00
1600, 829.00
1601, 829.00
1602, 831.00
1603, 831.00
1604, 831.00
1605, 831.00
1606, 833.00
1607, 833.00
1608, 834.00
1609, 836.00
1610, 836.00
1611, 837.00
1612, 837.00
1613, 839.00
1614, 839.00
1615, 840.00
1616, 841.00
1617, 841.00
1618, 842.00
1619, 844.00
1620, 843.00
1621, 845.00
1622, 846.00
1623, 846.00
1624, 847.00
1625, 849.00
1626, 849.00
1627, 849.00
1628, 850.00
1629, 852.00
1630, 852.00
1631, 853.00
1632, 853.00
1633, 854.00
1634, 855.00
1635, 856.00
1636, 857.00
1637, 857.00
1638, 858.00
1639, 859.00
1640, 859.00
1641, 860.00
1642, 861.00
1643, 861.00
1644, 861.00
1645, 862.00
1646, 863.00
1647, 863.00
1648, 864.00
1649, 865.00
1650, 866.00

1750, 1219.00
1751, 1218.00
1752, 1221.00
1753, 1220.00
1754, 1220.00
1755, 1219.00
1756, 1220.00
1757, 1219.00
1758, 1218.00
1759, 1220.00
1760, 1219.00
1761, 1220.00
1762, 1220.00
1763, 1221.00
1764, 1218.00
1765, 1218.00
1766, 1218.00
1767, 1219.00
1768, 1220.00
1769, 1219.00
1770, 1219.00
1771, 1218.00
1772, 1220.00
1773, 1219.00
1774, 1218.00
1775, 1218.00
1776, 1217.00
1777, 1218.00
1778, 1217.00
1779, 1216.00
1780, 1217.00
1781, 1216.00
1782, 1216.00
1783, 1216.00
1784, 1216.00
1785, 1215.00
1786, 1215.00
1787, 1215.00
1788, 1213.00
1789, 1215.00
1790, 1214.00
1791, 1213.00
1792, 1214.00
1793, 1213.00
1794, 1213.00
1795, 1214.00
1796, 1213.00
1797, 1212.00
1798, 1212.00
1799, 1211.00
1800, 1211.00
1801, 1211.00
1802, 1211.00
1803, 1211.00
1804, 1212.00
1805, 1209.00
1806, 1211.00
1807, 1211.00
1808, 1209.00
1809, 1209.00
1810, 1211.00
1811, 1210.00
1812, 1210.00
1813, 1208.00
1814, 1209.00
1815, 1208.00
1816, 1209.00
1817, 1207.00
1818, 1208.00
1819, 1207.00
1820, 1206.00
1821, 1206.00
1822, 1205.00
1823, 1204.00
1824, 1203.00
1825, 1204.00
1826, 1202.00
1827, 1202.00
1828, 1202.00
1829, 1200.00
1830, 1199.00
1831, 1201.00
1832, 1199.00
1833, 1197.00
1834, 1196.00
1835, 1195.00
1836, 1194.00
1837, 1194.00
1838, 1192.00
1839, 1192.00
1840, 1192.00
1841, 1189.00
1842, 1188.00
1843, 1187.00
1844, 1187.00
1845, 1185.00
1846, 1183.00
1847, 1182.00
1848, 1181.00
1849, 1180.00
1850, 1179.00
1851, 1179.00
1852, 1177.00
1853, 1177.00
1854, 1174.00
1855, 1172.00
1856, 1173.00
1857, 1170.00
1858, 1170.00
1859, 1166.00
1860, 1167.00
1861, 1165.00
1862, 1165.00
1863, 1163.00
1864, 1162.00
1865, 1160.00
1866, 1161.00
1867, 1161.00
1868, 1159.00
1869, 1161.00
1870, 1157.00
1871, 1158.00
1872, 1156.00
1873, 1156.00
1874, 1155.00
1875, 1153.00
1876, 1153.00
1877, 1154.00
1878, 1153.00
1879, 1152.00
1880, 1152.00
1881, 1152.00
1882, 1153.00
1883, 1149.00
1884, 1152.00
1885, 1150.00
1886, 1150.00
1887, 1149.00
1888, 1150.00
1889, 1148.00
1890, 1149.00
1891, 1149.00
1892, 1149.00
1893, 1148.00
1894, 1148.00
1895, 1148.00
1896, 1146.00
1897, 1146.00
1898, 1147.00
1899, 1147.00
1900, 1145.00
1901, 1145.00
1902, 1144.00
1903, 1145.00
1904, 1146.00
1905, 1147.00
1906, 1145.00
1907, 1146.00
1908, 1145.00
1909, 1145.00
1910, 1144.00
1911, 1145.00
1912, 1145.00
1913, 1146.00
1914, 1145.00
1915, 1145.00
1916, 1145.00
1917, 1145.00
1918, 1144.00
1919, 1145.00
1920, 1144.00
1921, 1144.00
1922, 1143.00
1923, 1142.00
1924, 1145.00
1925, 1144.00
1926, 1143.00
1927, 1144.00
1928, 1143.00
1929, 1145.00
1930, 1145.00
1931, 1144.00
1932, 1146.00
1933, 1143.00
1934, 1143.00
1935, 1145.00
1936, 1143.00
1937, 1144.00
1938, 1144.00
1939, 1146.00
1940, 1145.00
1941, 1145.00
1942, 1145.00
1943, 1144.00
1944, 1147.00
1945, 1146.00
1946, 1145.00
1947, 1145.00
1948, 1146.00
1949, 1145.00
1950, 1149.00
1951, 1147.00
1952, 1145.00
1953, 1147.00
1954, 1147.00
1955, 1147.00
1956, 1146.00
1957, 1147.00
1958, 1146.00
1959, 1147.00
1960, 1149.00
1961, 1148.00
1962, 1148.00
1963, 1149.00
1964, 1147.00
1965, 1149.00
1966, 1150.00
1967, 1150.00
1968, 1149.00
1969, 1150.00
1970, 1152.00
1971, 1149.00
1972, 1151.00
1973, 1152.00
1974, 1150.00
1975, 1151.00
1976, 1152.00
1977, 1151.00
1978, 1151.00
1979, 1152.00
1980, 1152.00
1981, 1152.00
1982, 1154.00
1983, 1152.00
1984, 1154.00
1985, 1153.00
1986, 1156.00
1987, 1152.00
1988, 1155.00
1989, 1155.00
1990, 1153.00
1991, 1156.00
1992, 1156.00
1993, 1155.00
1994, 1156.00
1995, 1158.00
1996, 1157.00
1997, 1156.00
1998, 1156.00
1999, 1158.00
2000, 1157.00
2001, 1158.00
2002, 1157.00
2003, 1159.00
2004, 1159.00
2005, 1160.00
2006, 1159.00
2007, 1160.00
2008, 1157.00
2009, 1160.00
2010, 1160.00
2011, 1161.00
2012, 1160.00
2013, 1160.00
2014, 1160.00
2015, 1161.00
2016, 1162.00
2017, 1161.00
2018, 1163.00
2019, 1162.00
2020, 1163.00
2021, 1165.00
2022, 1163.00
2023, 1164.00
2024, 1166.00
2025, 1166.00
2026, 1165.00
2027, 1165.00
2028, 1165.00
2029, 1166.00
2030, 1166.00
2031, 1166.00
2032, 1166.00
2033, 1167.00
2034, 1168.00
2035, 1169.00
2036, 1169.00
2037, 1167.00
2038, 1169.00
2039, 1169.00
2040, 1170.00
2041, 1170.00
2042, 1170.00
2043, 1171.00
2044, 1172.00
2045, 1170.00
2046, 1171.00
2047, 1173.00
2048, 1173.00
2049, 1173.00
2050, 1174.00
2051, 1174.00
2052, 1176.00
2053, 1175.00
2054, 1176.00
2055, 1176.00
2056, 1178.00
2057, 1178.00
2058, 1178.00
2059, 1177.00
2060, 1179.00
2061, 1180.00
2062, 1181.00
2063, 1179.00
2064, 1181.00
2065, 1181.00
2066, 1182.00
2067, 1181.00
2068, 1182.00
2069, 1184.00
2070, 1184.00
2071, 1183.00
2072, 1184.00
2073, 1186.00
2074, 1185.00
2075, 1185.00
2076, 1186.00
2077, 1186.00
2078, 1185.00
2079, 1189.00
2080, 1188.00
2081, 1188.00
2082, 1188.00
2083, 1189.00
2084, 1188.00
2085, 1191.00
2086, 1190.00
2087, 1190.00
2088, 1191.00
2089, 1191.00
2090, 1191.00
2091, 1191.00
2092, 1193.00
2093, 1193.00
2094, 1192.00
2095, 1192.00
2096, 1193.00
2097, 1193.00
2098, 1194.00
2099, 1194.00
2100, 1195.00
2101, 1196.00
2102, 1194.00
2103, 1196.00
2104, 1196.00
2105, 1196.00
2106, 1195.00
2107, 1195.00
2108, 1197.00
2109, 1197.00
2110, 1197.00
2111, 1197.00
2112, 1198.00
2113, 1196.00
2114, 1197.00
2115, 1199.00
2116, 1200.00
2117, 1198.00
2118, 1199.00
2119, 1199.00
2120, 1198.00
2121, 1199.00
2122, 1199.00
2123, 1200.00
2124, 1199.00
2125, 1200.00
2126, 1201.00
2127, 1201.00
2128, 1202.00
2129, 1200.00
2130, 1202.00
2131, 1202.00
2132, 1203.00
2133, 1203.00
2134, 1202.00
2135, 1204.00
2136, 1201.00
2137, 1204.00
2138, 1203.00
2139, 1205.00
2140, 1203.00
2141, 1205.00
2142, 1202.00
2143, 1203.00
2144, 1204.00
2145, 1205.00
2146, 1204.00
2147, 1204.00
2148, 1205.00
2149, 1204.00
2150, 1205.00
