FW version: 24
Log Version: 3.0.3

General Info:
       Command/Macro Performed,            Timestamp,             Device ID, COM Port, UART/I2C, Test Name, Host Major, Host Minor, Host Revision, Host Git Commit
            Single_measurement,  2023_06_27_12_02_22,       Insight2_F4_xxx,    USB-C,      USB,          ,          0,          1,             1,      4031237645

Show Spectrometer Status:
l0_version, f4_version, battery_perc, battery_mVolt, accelerometer_temp, accelerometer_x, accelerometer_y, accelerometer_z, compass_temp, compass_x, compass_y, compass_z, lamp_0, lamp_1, gain_0, gain_1
        17,         24,           95,          2078,               5600,           65492,             164,           18580,            0,     65532,     65447,     65437,   3276,   3276,    0,    0

Temperature Statistic Info:
NTC AVG [°C], NTC2 AVG [°C]
      36.863,        36.580

Statistic Info:
M1:  num,      min,      max,   median,      AVG,      STD,M2:  num,      min,      max,   median,      AVG,      STD
     301,   644.00,   742.00,   663.00,   675.74,  30.3426,     401,   879.00,   939.00,   903.00,   904.84,  19.2965,

Measurements:
Wavelength, Data Amplitude
1350, 663.00
1351, 663.00
1352, 662.00
1353, 662.00
1354, 662.00
1355, 661.00
1356, 661.00
1357, 661.00
1358, 660.00
1359, 660.00
1360, 659.00
1361, 659.00
1362, 659.00
1363, 658.00
1364, 657.00
1365, 657.00
1366, 657.00
1367, 657.00
1368, 655.00
1369, 655.00
1370, 654.00
1371, 654.00
1372, 653.00
1373, 653.00
1374, 653.00
1375, 653.00
1376, 652.00
1377, 651.00
1378, 650.00
1379, 650.00
1380, 650.00
1381, 649.00
1382, 649.00
1383, 649.00
1384, 649.00
1385, 648.00
1386, 648.00
1387, 647.00
1388, 647.00
1389, 647.00
1390, 647.00
1391, 647.00
1392, 647.00
1393, 646.00
1394, 646.00
1395, 647.00
1396, 646.00
1397, 646.00
1398, 646.00
1399, 646.00
1400, 645.00
1401, 645.00
1402, 645.00
1403, 645.00
1404, 645.00
1405, 644.00
1406, 644.00
1407, 644.00
1408, 644.00
1409, 645.00
1410, 644.00
1411, 644.00
1412, 644.00
1413, 644.00
1414, 644.00
1415, 644.00
1416, 644.00
1417, 644.00
1418, 644.00
1419, 644.00
1420, 644.00
1421, 644.00
1422, 644.00
1423, 644.00
1424, 644.00
1425, 644.00
1426, 644.00
1427, 644.00
1428, 644.00
1429, 644.00
1430, 644.00
1431, 644.00
1432, 644.00
1433, 645.00
1434, 645.00
1435, 644.00
1436, 645.00
1437, 645.00
1438, 645.00
1439, 645.00
1440, 645.00
1441, 645.00
1442, 645.00
1443, 646.00
1444, 646.00
1445, 646.00
1446, 646.00
1447, 646.00
1448, 647.00
1449, 646.00
1450, 647.00
1451, 647.00
1452, 648.00
1453, 648.00
1454, 648.00
1455, 648.00
1456, 648.00
1457, 649.00
1458, 648.00
1459, 648.00
1460, 649.00
1461, 650.00
1462, 650.00
1463, 650.00
1464, 650.00
1465, 651.00
1466, 651.00
1467, 651.00
1468, 652.00
1469, 652.00
1470, 652.00
1471, 652.00
1472, 653.00
1473, 652.00
1474, 653.00
1475, 653.00
1476, 654.00
1477, 654.00
1478, 655.00
1479, 655.00
1480, 655.00
1481, 655.00
1482, 656.00
1483, 656.00
1484, 657.00
1485, 657.00
1486, 658.00
1487, 658.00
1488, 658.00
1489, 659.00
1490, 659.00
1491, 659.00
1492, 660.00
1493, 660.00
1494, 661.00
1495, 661.00
1496, 662.00
1497, 662.00
1498, 662.00
1499, 663.00
1500, 663.00
1501, 664.00
1502, 664.00
1503, 664.00
1504, 665.00
1505, 665.00
1506, 666.00
1507, 666.00
1508, 666.00
1509, 667.00
1510, 667.00
1511, 667.00
1512, 668.00
1513, 669.00
1514, 669.00
1515, 669.00
1516, 671.00
1517, 671.00
1518, 671.00
1519, 671.00
1520, 672.00
1521, 673.00
1522, 674.00
1523, 673.00
1524, 673.00
1525, 674.00
1526, 675.00
1527, 675.00
1528, 676.00
1529, 676.00
1530, 677.00
1531, 677.00
1532, 678.00
1533, 678.00
1534, 679.00
1535, 679.00
1536, 680.00
1537, 680.00
1538, 681.00
1539, 681.00
1540, 682.00
1541, 682.00
1542, 683.00
1543, 683.00
1544, 683.00
1545, 684.00
1546, 684.00
1547, 685.00
1548, 685.00
1549, 686.00
1550, 687.00
1551, 687.00
1552, 688.00
1553, 688.00
1554, 688.00
1555, 689.00
1556, 690.00
1557, 690.00
1558, 691.00
1559, 692.00
1560, 692.00
1561, 693.00
1562, 693.00
1563, 693.00
1564, 694.00
1565, 695.00
1566, 696.00
1567, 696.00
1568, 697.00
1569, 697.00
1570, 698.00
1571, 698.00
1572, 699.00
1573, 699.00
1574, 700.00
1575, 700.00
1576, 701.00
1577, 701.00
1578, 703.00
1579, 702.00
1580, 703.00
1581, 704.00
1582, 704.00
1583, 704.00
1584, 705.00
1585, 706.00
1586, 706.00
1587, 706.00
1588, 707.00
1589, 708.00
1590, 708.00
1591, 709.00
1592, 709.00
1593, 709.00
1594, 710.00
1595, 710.00
1596, 711.00
1597, 711.00
1598, 712.00
1599, 713.00
1600, 713.00
1601, 714.00
1602, 714.00
1603, 715.00
1604, 715.00
1605, 716.00
1606, 716.00
1607, 716.00
1608, 717.00
1609, 718.00
1610, 718.00
1611, 719.00
1612, 721.00
1613, 720.00
1614, 721.00
1615, 722.00
1616, 722.00
1617, 723.00
1618, 723.00
1619, 724.00
1620, 725.00
1621, 726.00
1622, 727.00
1623, 727.00
1624, 727.00
1625, 728.00
1626, 729.00
1627, 729.00
1628, 729.00
1629, 731.00
1630, 731.00
1631, 731.00
1632, 732.00
1633, 733.00
1634, 733.00
1635, 734.00
1636, 735.00
1637, 735.00
1638, 735.00
1639, 736.00
1640, 737.00
1641, 737.00
1642, 738.00
1643, 738.00
1644, 738.00
1645, 739.00
1646, 739.00
1647, 741.00
1648, 740.00
1649, 741.00
1650, 742.00

1750, 939.00
1751, 939.00
1752, 938.00
1753, 939.00
1754, 938.00
1755, 938.00
1756, 939.00
1757, 938.00
1758, 938.00
1759, 938.00
1760, 938.00
1761, 938.00
1762, 938.00
1763, 938.00
1764, 938.00
1765, 938.00
1766, 938.00
1767, 938.00
1768, 937.00
1769, 937.00
1770, 937.00
1771, 938.00
1772, 937.00
1773, 937.00
1774, 938.00
1775, 937.00
1776, 936.00
1777, 936.00
1778, 936.00
1779, 936.00
1780, 936.00
1781, 936.00
1782, 936.00
1783, 935.00
1784, 935.00
1785, 935.00
1786, 935.00
1787, 934.00
1788, 934.00
1789, 934.00
1790, 934.00
1791, 934.00
1792, 933.00
1793, 934.00
1794, 934.00
1795, 933.00
1796, 933.00
1797, 932.00
1798, 933.00
1799, 932.00
1800, 932.00
1801, 932.00
1802, 931.00
1803, 931.00
1804, 931.00
1805, 931.00
1806, 931.00
1807, 931.00
1808, 930.00
1809, 930.00
1810, 930.00
1811, 930.00
1812, 930.00
1813, 930.00
1814, 928.00
1815, 929.00
1816, 929.00
1817, 928.00
1818, 928.00
1819, 928.00
1820, 928.00
1821, 928.00
1822, 926.00
1823, 926.00
1824, 926.00
1825, 925.00
1826, 924.00
1827, 925.00
1828, 924.00
1829, 924.00
1830, 923.00
1831, 921.00
1832, 921.00
1833, 921.00
1834, 920.00
1835, 919.00
1836, 918.00
1837, 917.00
1838, 917.00
1839, 916.00
1840, 915.00
1841, 915.00
1842, 913.00
1843, 912.00
1844, 911.00
1845, 911.00
1846, 910.00
1847, 909.00
1848, 909.00
1849, 907.00
1850, 906.00
1851, 905.00
1852, 905.00
1853, 903.00
1854, 903.00
1855, 902.00
1856, 901.00
1857, 900.00
1858, 900.00
1859, 898.00
1860, 898.00
1861, 896.00
1862, 895.00
1863, 895.00
1864, 895.00
1865, 894.00
1866, 894.00
1867, 892.00
1868, 891.00
1869, 891.00
1870, 891.00
1871, 890.00
1872, 890.00
1873, 889.00
1874, 889.00
1875, 888.00
1876, 888.00
1877, 888.00
1878, 887.00
1879, 887.00
1880, 886.00
1881, 886.00
1882, 886.00
1883, 885.00
1884, 886.00
1885, 885.00
1886, 885.00
1887, 884.00
1888, 884.00
1889, 884.00
1890, 884.00
1891, 883.00
1892, 883.00
1893, 883.00
1894, 883.00
1895, 882.00
1896, 883.00
1897, 882.00
1898, 883.00
1899, 882.00
1900, 882.00
1901, 882.00
1902, 881.00
1903, 882.00
1904, 882.00
1905, 881.00
1906, 881.00
1907, 881.00
1908, 881.00
1909, 882.00
1910, 881.00
1911, 880.00
1912, 881.00
1913, 881.00
1914, 881.00
1915, 881.00
1916, 881.00
1917, 881.00
1918, 880.00
1919, 880.00
1920, 880.00
1921, 880.00
1922, 880.00
1923, 880.00
1924, 881.00
1925, 880.00
1926, 880.00
1927, 880.00
1928, 881.00
1929, 880.00
1930, 879.00
1931, 881.00
1932, 880.00
1933, 880.00
1934, 880.00
1935, 880.00
1936, 879.00
1937, 881.00
1938, 881.00
1939, 880.00
1940, 880.00
1941, 881.00
1942, 881.00
1943, 881.00
1944, 880.00
1945, 881.00
1946, 881.00
1947, 881.00
1948, 881.00
1949, 882.00
1950, 881.00
1951, 881.00
1952, 881.00
1953, 882.00
1954, 882.00
1955, 882.00
1956, 882.00
1957, 881.00
1958, 882.00
1959, 882.00
1960, 882.00
1961, 882.00
1962, 882.00
1963, 883.00
1964, 883.00
1965, 884.00
1966, 883.00
1967, 883.00
1968, 883.00
1969, 884.00
1970, 885.00
1971, 885.00
1972, 885.00
1973, 886.00
1974, 885.00
1975, 885.00
1976, 886.00
1977, 886.00
1978, 886.00
1979, 885.00
1980, 886.00
1981, 886.00
1982, 887.00
1983, 887.00
1984, 886.00
1985, 887.00
1986, 887.00
1987, 887.00
1988, 887.00
1989, 887.00
1990, 887.00
1991, 889.00
1992, 889.00
1993, 888.00
1994, 888.00
1995, 888.00
1996, 889.00
1997, 889.00
1998, 889.00
1999, 890.00
2000, 890.00
2001, 890.00
2002, 890.00
2003, 890.00
2004, 891.00
2005, 891.00
2006, 891.00
2007, 891.00
2008, 891.00
2009, 891.00
2010, 891.00
2011, 891.00
2012, 891.00
2013, 892.00
2014, 893.00
2015, 893.00
2016, 894.00
2017, 894.00
2018, 894.00
2019, 893.00
2020, 893.00
2021, 894.00
2022, 894.00
2023, 894.00
2024, 895.00
2025, 895.00
2026, 895.00
2027, 895.00
2028, 895.00
2029, 895.00
2030, 896.00
2031, 895.00
2032, 896.00
2033, 897.00
2034, 897.00
2035, 897.00
2036, 897.00
2037, 898.00
2038, 898.00
2039, 898.00
2040, 898.00
2041, 899.00
2042, 899.00
2043, 899.00
2044, 899.00
2045, 900.00
2046, 900.00
2047, 901.00
2048, 900.00
2049, 901.00
2050, 901.00
2051, 901.00
2052, 902.00
2053, 902.00
2054, 902.00
2055, 903.00
2056, 903.00
2057, 903.00
2058, 903.00
2059, 904.00
2060, 904.00
2061, 904.00
2062, 905.00
2063, 905.00
2064, 905.00
2065, 906.00
2066, 906.00
2067, 907.00
2068, 907.00
2069, 908.00
2070, 907.00
2071, 908.00
2072, 908.00
2073, 909.00
2074, 909.00
2075, 908.00
2076, 909.00
2077, 909.00
2078, 910.00
2079, 910.00
2080, 911.00
2081, 911.00
2082, 910.00
2083, 912.00
2084, 911.00
2085, 912.00
2086, 912.00
2087, 912.00
2088, 912.00
2089, 913.00
2090, 913.00
2091, 913.00
2092, 914.00
2093, 914.00
2094, 915.00
2095, 915.00
2096, 914.00
2097, 915.00
2098, 915.00
2099, 915.00
2100, 916.00
2101, 915.00
2102, 915.00
2103, 916.00
2104, 917.00
2105, 916.00
2106, 917.00
2107, 917.00
2108, 917.00
2109, 918.00
2110, 917.00
2111, 917.00
2112, 917.00
2113, 918.00
2114, 918.00
2115, 918.00
2116, 918.00
2117, 919.00
2118, 919.00
2119, 919.00
2120, 919.00
2121, 919.00
2122, 919.00
2123, 920.00
2124, 919.00
2125, 919.00
2126, 919.00
2127, 920.00
2128, 920.00
2129, 919.00
2130, 920.00
2131, 920.00
2132, 920.00
2133, 921.00
2134, 920.00
2135, 921.00
2136, 921.00
2137, 921.00
2138, 921.00
2139, 921.00
2140, 921.00
2141, 922.00
2142, 921.00
2143, 921.00
2144, 922.00
2145, 922.00
2146, 921.00
2147, 922.00
2148, 922.00
2149, 923.00
2150, 922.00
