FW version: 24
Log Version: 3.0.3

General Info:
       Command/Macro Performed,            Timestamp,             Device ID, COM Port, UART/I2C, Test Name, Host Major, Host Minor, Host Revision, Host Git Commit
            Single_measurement,  2023_06_27_12_02_28,       Insight2_F4_xxx,    USB-C,      USB,          ,          0,          1,             1,      4031237645

Show Spectrometer Status:
l0_version, f4_version, battery_perc, battery_mVolt, accelerometer_temp, accelerometer_x, accelerometer_y, accelerometer_z, compass_temp, compass_x, compass_y, compass_z, lamp_0, lamp_1, gain_0, gain_1
        17,         24,           95,          2078,               5600,           65520,             164,           18484,            0,     65529,     65446,     65469,   2047,   2047,    1,    1

Temperature Statistic Info:
NTC AVG [°C], NTC2 AVG [°C]
      36.891,        36.580

Statistic Info:
M1:  num,      min,      max,   median,      AVG,      STD,M2:  num,      min,      max,   median,      AVG,      STD
     301,   740.00,   869.00,   768.00,   781.95,  39.7753,     401,  1144.00,  1222.00,  1178.00,  1179.47,  25.6717,

Measurements:
Wavelength, Data Amplitude
1350, 759.00
1351, 759.00
1352, 759.00
1353, 758.00
1354, 758.00
1355, 758.00
1356, 758.00
1357, 757.00
1358, 757.00
1359, 756.00
1360, 755.00
1361, 756.00
1362, 755.00
1363, 754.00
1364, 753.00
1365, 754.00
1366, 753.00
1367, 752.00
1368, 751.00
1369, 750.00
1370, 750.00
1371, 749.00
1372, 750.00
1373, 749.00
1374, 748.00
1375, 748.00
1376, 747.00
1377, 747.00
1378, 746.00
1379, 746.00
1380, 747.00
1381, 745.00
1382, 745.00
1383, 744.00
1384, 745.00
1385, 744.00
1386, 744.00
1387, 744.00
1388, 743.00
1389, 743.00
1390, 743.00
1391, 743.00
1392, 742.00
1393, 743.00
1394, 742.00
1395, 741.00
1396, 741.00
1397, 742.00
1398, 742.00
1399, 741.00
1400, 741.00
1401, 741.00
1402, 741.00
1403, 741.00
1404, 741.00
1405, 740.00
1406, 740.00
1407, 740.00
1408, 741.00
1409, 740.00
1410, 740.00
1411, 741.00
1412, 741.00
1413, 741.00
1414, 740.00
1415, 741.00
1416, 741.00
1417, 740.00
1418, 741.00
1419, 740.00
1420, 741.00
1421, 740.00
1422, 740.00
1423, 741.00
1424, 740.00
1425, 740.00
1426, 741.00
1427, 741.00
1428, 740.00
1429, 740.00
1430, 742.00
1431, 742.00
1432, 742.00
1433, 742.00
1434, 742.00
1435, 742.00
1436, 741.00
1437, 741.00
1438, 743.00
1439, 743.00
1440, 743.00
1441, 744.00
1442, 742.00
1443, 743.00
1444, 744.00
1445, 744.00
1446, 744.00
1447, 744.00
1448, 745.00
1449, 745.00
1450, 745.00
1451, 746.00
1452, 746.00
1453, 746.00
1454, 746.00
1455, 746.00
1456, 748.00
1457, 748.00
1458, 748.00
1459, 748.00
1460, 748.00
1461, 749.00
1462, 750.00
1463, 749.00
1464, 749.00
1465, 750.00
1466, 751.00
1467, 751.00
1468, 750.00
1469, 752.00
1470, 753.00
1471, 753.00
1472, 753.00
1473, 752.00
1474, 754.00
1475, 753.00
1476, 756.00
1477, 755.00
1478, 756.00
1479, 757.00
1480, 757.00
1481, 757.00
1482, 758.00
1483, 757.00
1484, 759.00
1485, 759.00
1486, 759.00
1487, 761.00
1488, 761.00
1489, 761.00
1490, 762.00
1491, 762.00
1492, 763.00
1493, 763.00
1494, 765.00
1495, 765.00
1496, 766.00
1497, 765.00
1498, 766.00
1499, 766.00
1500, 768.00
1501, 768.00
1502, 769.00
1503, 769.00
1504, 769.00
1505, 770.00
1506, 771.00
1507, 770.00
1508, 772.00
1509, 773.00
1510, 773.00
1511, 774.00
1512, 774.00
1513, 774.00
1514, 776.00
1515, 776.00
1516, 777.00
1517, 777.00
1518, 778.00
1519, 779.00
1520, 779.00
1521, 780.00
1522, 779.00
1523, 781.00
1524, 782.00
1525, 783.00
1526, 782.00
1527, 784.00
1528, 784.00
1529, 785.00
1530, 785.00
1531, 786.00
1532, 787.00
1533, 787.00
1534, 788.00
1535, 789.00
1536, 789.00
1537, 789.00
1538, 790.00
1539, 791.00
1540, 792.00
1541, 791.00
1542, 792.00
1543, 793.00
1544, 793.00
1545, 794.00
1546, 796.00
1547, 796.00
1548, 796.00
1549, 796.00
1550, 797.00
1551, 797.00
1552, 799.00
1553, 800.00
1554, 799.00
1555, 801.00
1556, 801.00
1557, 802.00
1558, 802.00
1559, 803.00
1560, 803.00
1561, 804.00
1562, 805.00
1563, 805.00
1564, 807.00
1565, 807.00
1566, 808.00
1567, 808.00
1568, 810.00
1569, 810.00
1570, 811.00
1571, 812.00
1572, 812.00
1573, 813.00
1574, 813.00
1575, 813.00
1576, 814.00
1577, 816.00
1578, 816.00
1579, 816.00
1580, 817.00
1581, 818.00
1582, 819.00
1583, 819.00
1584, 819.00
1585, 821.00
1586, 822.00
1587, 821.00
1588, 822.00
1589, 823.00
1590, 824.00
1591, 824.00
1592, 825.00
1593, 827.00
1594, 827.00
1595, 827.00
1596, 827.00
1597, 828.00
1598, 829.00
1599, 830.00
1600, 830.00
1601, 831.00
1602, 832.00
1603, 832.00
1604, 833.00
1605, 834.00
1606, 834.00
1607, 836.00
1608, 835.00
1609, 837.00
1610, 838.00
1611, 839.00
1612, 840.00
1613, 840.00
1614, 841.00
1615, 842.00
1616, 842.00
1617, 844.00
1618, 844.00
1619, 845.00
1620, 846.00
1621, 846.00
1622, 848.00
1623, 848.00
1624, 849.00
1625, 850.00
1626, 851.00
1627, 852.00
1628, 852.00
1629, 853.00
1630, 854.00
1631, 855.00
1632, 856.00
1633, 856.00
1634, 857.00
1635, 857.00
1636, 859.00
1637, 860.00
1638, 860.00
1639, 861.00
1640, 861.00
1641, 862.00
1642, 863.00
1643, 863.00
1644, 864.00
1645, 864.00
1646, 865.00
1647, 865.00
1648, 866.00
1649, 868.00
1650, 869.00

1750, 1220.00
1751, 1220.00
1752, 1222.00
1753, 1220.00
1754, 1221.00
1755, 1222.00
1756, 1221.00
1757, 1222.00
1758, 1221.00
1759, 1222.00
1760, 1220.00
1761, 1222.00
1762, 1221.00
1763, 1221.00
1764, 1220.00
1765, 1219.00
1766, 1220.00
1767, 1221.00
1768, 1221.00
1769, 1220.00
1770, 1220.00
1771, 1220.00
1772, 1221.00
1773, 1218.00
1774, 1220.00
1775, 1220.00
1776, 1220.00
1777, 1218.00
1778, 1219.00
1779, 1218.00
1780, 1216.00
1781, 1219.00
1782, 1218.00
1783, 1218.00
1784, 1217.00
1785, 1218.00
1786, 1217.00
1787, 1217.00
1788, 1215.00
1789, 1218.00
1790, 1217.00
1791, 1216.00
1792, 1216.00
1793, 1214.00
1794, 1216.00
1795, 1215.00
1796, 1213.00
1797, 1214.00
1798, 1215.00
1799, 1212.00
1800, 1213.00
1801, 1212.00
1802, 1214.00
1803, 1211.00
1804, 1213.00
1805, 1211.00
1806, 1212.00
1807, 1213.00
1808, 1212.00
1809, 1211.00
1810, 1211.00
1811, 1209.00
1812, 1210.00
1813, 1210.00
1814, 1211.00
1815, 1210.00
1816, 1210.00
1817, 1208.00
1818, 1207.00
1819, 1209.00
1820, 1208.00
1821, 1207.00
1822, 1207.00
1823, 1207.00
1824, 1205.00
1825, 1206.00
1826, 1203.00
1827, 1205.00
1828, 1202.00
1829, 1203.00
1830, 1202.00
1831, 1200.00
1832, 1199.00
1833, 1199.00
1834, 1198.00
1835, 1198.00
1836, 1195.00
1837, 1197.00
1838, 1196.00
1839, 1193.00
1840, 1192.00
1841, 1192.00
1842, 1191.00
1843, 1189.00
1844, 1187.00
1845, 1187.00
1846, 1185.00
1847, 1185.00
1848, 1184.00
1849, 1181.00
1850, 1179.00
1851, 1180.00
1852, 1178.00
1853, 1178.00
1854, 1175.00
1855, 1174.00
1856, 1173.00
1857, 1172.00
1858, 1171.00
1859, 1169.00
1860, 1168.00
1861, 1168.00
1862, 1167.00
1863, 1166.00
1864, 1164.00
1865, 1165.00
1866, 1163.00
1867, 1161.00
1868, 1160.00
1869, 1162.00
1870, 1160.00
1871, 1159.00
1872, 1157.00
1873, 1157.00
1874, 1156.00
1875, 1157.00
1876, 1157.00
1877, 1156.00
1878, 1155.00
1879, 1153.00
1880, 1155.00
1881, 1153.00
1882, 1151.00
1883, 1153.00
1884, 1152.00
1885, 1151.00
1886, 1151.00
1887, 1150.00
1888, 1150.00
1889, 1149.00
1890, 1149.00
1891, 1149.00
1892, 1151.00
1893, 1150.00
1894, 1149.00
1895, 1150.00
1896, 1149.00
1897, 1149.00
1898, 1149.00
1899, 1147.00
1900, 1147.00
1901, 1147.00
1902, 1148.00
1903, 1148.00
1904, 1147.00
1905, 1147.00
1906, 1147.00
1907, 1146.00
1908, 1148.00
1909, 1146.00
1910, 1147.00
1911, 1145.00
1912, 1145.00
1913, 1147.00
1914, 1147.00
1915, 1146.00
1916, 1147.00
1917, 1146.00
1918, 1146.00
1919, 1146.00
1920, 1146.00
1921, 1144.00
1922, 1145.00
1923, 1145.00
1924, 1147.00
1925, 1146.00
1926, 1146.00
1927, 1145.00
1928, 1145.00
1929, 1147.00
1930, 1148.00
1931, 1146.00
1932, 1146.00
1933, 1146.00
1934, 1145.00
1935, 1145.00
1936, 1147.00
1937, 1145.00
1938, 1147.00
1939, 1147.00
1940, 1147.00
1941, 1147.00
1942, 1145.00
1943, 1146.00
1944, 1145.00
1945, 1148.00
1946, 1147.00
1947, 1147.00
1948, 1147.00
1949, 1147.00
1950, 1149.00
1951, 1148.00
1952, 1149.00
1953, 1149.00
1954, 1148.00
1955, 1149.00
1956, 1149.00
1957, 1149.00
1958, 1149.00
1959, 1150.00
1960, 1148.00
1961, 1149.00
1962, 1150.00
1963, 1149.00
1964, 1151.00
1965, 1152.00
1966, 1151.00
1967, 1151.00
1968, 1152.00
1969, 1152.00
1970, 1152.00
1971, 1152.00
1972, 1154.00
1973, 1151.00
1974, 1152.00
1975, 1153.00
1976, 1153.00
1977, 1152.00
1978, 1154.00
1979, 1154.00
1980, 1153.00
1981, 1153.00
1982, 1154.00
1983, 1155.00
1984, 1155.00
1985, 1156.00
1986, 1157.00
1987, 1154.00
1988, 1157.00
1989, 1156.00
1990, 1155.00
1991, 1156.00
1992, 1157.00
1993, 1156.00
1994, 1158.00
1995, 1158.00
1996, 1158.00
1997, 1158.00
1998, 1160.00
1999, 1161.00
2000, 1158.00
2001, 1160.00
2002, 1159.00
2003, 1161.00
2004, 1161.00
2005, 1161.00
2006, 1162.00
2007, 1161.00
2008, 1162.00
2009, 1161.00
2010, 1162.00
2011, 1164.00
2012, 1163.00
2013, 1163.00
2014, 1164.00
2015, 1164.00
2016, 1165.00
2017, 1163.00
2018, 1164.00
2019, 1165.00
2020, 1165.00
2021, 1166.00
2022, 1164.00
2023, 1166.00
2024, 1167.00
2025, 1168.00
2026, 1167.00
2027, 1167.00
2028, 1168.00
2029, 1167.00
2030, 1168.00
2031, 1169.00
2032, 1169.00
2033, 1170.00
2034, 1170.00
2035, 1169.00
2036, 1170.00
2037, 1170.00
2038, 1171.00
2039, 1171.00
2040, 1173.00
2041, 1171.00
2042, 1171.00
2043, 1173.00
2044, 1173.00
2045, 1174.00
2046, 1174.00
2047, 1175.00
2048, 1176.00
2049, 1173.00
2050, 1177.00
2051, 1175.00
2052, 1177.00
2053, 1177.00
2054, 1178.00
2055, 1178.00
2056, 1179.00
2057, 1179.00
2058, 1181.00
2059, 1180.00
2060, 1180.00
2061, 1181.00
2062, 1181.00
2063, 1182.00
2064, 1181.00
2065, 1182.00
2066, 1184.00
2067, 1183.00
2068, 1184.00
2069, 1184.00
2070, 1184.00
2071, 1187.00
2072, 1186.00
2073, 1185.00
2074, 1186.00
2075, 1187.00
2076, 1187.00
2077, 1187.00
2078, 1187.00
2079, 1190.00
2080, 1189.00
2081, 1190.00
2082, 1190.00
2083, 1192.00
2084, 1191.00
2085, 1191.00
2086, 1192.00
2087, 1191.00
2088, 1193.00
2089, 1195.00
2090, 1192.00
2091, 1194.00
2092, 1194.00
2093, 1197.00
2094, 1195.00
2095, 1195.00
2096, 1197.00
2097, 1195.00
2098, 1196.00
2099, 1196.00
2100, 1195.00
2101, 1198.00
2102, 1199.00
2103, 1197.00
2104, 1198.00
2105, 1199.00
2106, 1197.00
2107, 1198.00
2108, 1198.00
2109, 1198.00
2110, 1199.00
2111, 1199.00
2112, 1201.00
2113, 1201.00
2114, 1199.00
2115, 1201.00
2116, 1202.00
2117, 1200.00
2118, 1200.00
2119, 1202.00
2120, 1201.00
2121, 1201.00
2122, 1203.00
2123, 1202.00
2124, 1203.00
2125, 1201.00
2126, 1203.00
2127, 1201.00
2128, 1204.00
2129, 1203.00
2130, 1203.00
2131, 1205.00
2132, 1203.00
2133, 1205.00
2134, 1203.00
2135, 1205.00
2136, 1204.00
2137, 1203.00
2138, 1206.00
2139, 1204.00
2140, 1204.00
2141, 1206.00
2142, 1206.00
2143, 1207.00
2144, 1205.00
2145, 1205.00
2146, 1207.00
2147, 1207.00
2148, 1206.00
2149, 1207.00
2150, 1207.00
