FW version: 24
Log Version: 3.0.3

General Info:
       Command/Macro Performed,            Timestamp,             Device ID, COM Port, UART/I2C, Test Name, Host Major, Host Minor, Host Revision, Host Git Commit
            Single_measurement,  2023_06_29_11_50_54,       Insight2_F4_xxx,    USB-C,      USB,          ,          0,          1,             1,      4031237645

Show Spectrometer Status:
l0_version, f4_version, battery_perc, battery_mVolt, accelerometer_temp, accelerometer_x, accelerometer_y, accelerometer_z, compass_temp, compass_x, compass_y, compass_z, lamp_0, lamp_1, gain_0, gain_1
        17,         24,           95,          2079,               5936,           65372,              76,           18488,            0,     65405,     65388,     65535,   3276,   3276,      1,      1

Temperature Statistic Info:
NTC AVG [°C], NTC2 AVG [°C]
      38.245,        37.925

Statistic Info:
M1:  num,      min,      max,   median,      AVG,      STD,M2:  num,      min,      max,   median,      AVG,      STD
     301,  1778.00,  2009.00,  1831.00,  1855.11,  72.0972,     401,  2447.00,  2587.00,  2519.00,  2518.18,  46.7438,

Measurements:
Wavelength, Data Amplitude
1350, 1805.00
1351, 1806.00
1352, 1806.00
1353, 1804.00
1354, 1803.00
1355, 1803.00
1356, 1804.00
1357, 1803.00
1358, 1803.00
1359, 1801.00
1360, 1801.00
1361, 1800.00
1362, 1800.00
1363, 1799.00
1364, 1799.00
1365, 1799.00
1366, 1796.00
1367, 1797.00
1368, 1795.00
1369, 1796.00
1370, 1794.00
1371, 1794.00
1372, 1793.00
1373, 1791.00
1374, 1791.00
1375, 1791.00
1376, 1791.00
1377, 1789.00
1378, 1788.00
1379, 1789.00
1380, 1787.00
1381, 1786.00
1382, 1786.00
1383, 1786.00
1384, 1785.00
1385, 1784.00
1386, 1784.00
1387, 1784.00
1388, 1783.00
1389, 1783.00
1390, 1783.00
1391, 1783.00
1392, 1783.00
1393, 1783.00
1394, 1780.00
1395, 1781.00
1396, 1781.00
1397, 1781.00
1398, 1781.00
1399, 1780.00
1400, 1781.00
1401, 1781.00
1402, 1780.00
1403, 1780.00
1404, 1780.00
1405, 1780.00
1406, 1780.00
1407, 1780.00
1408, 1779.00
1409, 1779.00
1410, 1779.00
1411, 1778.00
1412, 1779.00
1413, 1779.00
1414, 1780.00
1415, 1779.00
1416, 1779.00
1417, 1779.00
1418, 1779.00
1419, 1779.00
1420, 1779.00
1421, 1779.00
1422, 1781.00
1423, 1780.00
1424, 1780.00
1425, 1780.00
1426, 1780.00
1427, 1781.00
1428, 1780.00
1429, 1781.00
1430, 1781.00
1431, 1782.00
1432, 1783.00
1433, 1782.00
1434, 1784.00
1435, 1783.00
1436, 1783.00
1437, 1783.00
1438, 1783.00
1439, 1785.00
1440, 1785.00
1441, 1786.00
1442, 1785.00
1443, 1787.00
1444, 1787.00
1445, 1788.00
1446, 1789.00
1447, 1787.00
1448, 1789.00
1449, 1790.00
1450, 1790.00
1451, 1790.00
1452, 1791.00
1453, 1791.00
1454, 1793.00
1455, 1793.00
1456, 1794.00
1457, 1794.00
1458, 1794.00
1459, 1794.00
1460, 1797.00
1461, 1798.00
1462, 1798.00
1463, 1798.00
1464, 1798.00
1465, 1800.00
1466, 1800.00
1467, 1801.00
1468, 1802.00
1469, 1802.00
1470, 1802.00
1471, 1804.00
1472, 1805.00
1473, 1805.00
1474, 1806.00
1475, 1808.00
1476, 1808.00
1477, 1809.00
1478, 1810.00
1479, 1811.00
1480, 1812.00
1481, 1813.00
1482, 1814.00
1483, 1815.00
1484, 1815.00
1485, 1816.00
1486, 1817.00
1487, 1819.00
1488, 1820.00
1489, 1821.00
1490, 1822.00
1491, 1822.00
1492, 1824.00
1493, 1824.00
1494, 1825.00
1495, 1827.00
1496, 1828.00
1497, 1828.00
1498, 1829.00
1499, 1830.00
1500, 1831.00
1501, 1833.00
1502, 1832.00
1503, 1834.00
1504, 1834.00
1505, 1836.00
1506, 1837.00
1507, 1838.00
1508, 1839.00
1509, 1841.00
1510, 1840.00
1511, 1841.00
1512, 1843.00
1513, 1844.00
1514, 1845.00
1515, 1845.00
1516, 1847.00
1517, 1847.00
1518, 1849.00
1519, 1850.00
1520, 1850.00
1521, 1853.00
1522, 1853.00
1523, 1855.00
1524, 1855.00
1525, 1856.00
1526, 1857.00
1527, 1860.00
1528, 1860.00
1529, 1861.00
1530, 1862.00
1531, 1862.00
1532, 1864.00
1533, 1866.00
1534, 1866.00
1535, 1868.00
1536, 1868.00
1537, 1870.00
1538, 1871.00
1539, 1872.00
1540, 1874.00
1541, 1875.00
1542, 1876.00
1543, 1876.00
1544, 1878.00
1545, 1878.00
1546, 1879.00
1547, 1881.00
1548, 1882.00
1549, 1883.00
1550, 1885.00
1551, 1885.00
1552, 1887.00
1553, 1887.00
1554, 1888.00
1555, 1890.00
1556, 1890.00
1557, 1892.00
1558, 1893.00
1559, 1895.00
1560, 1896.00
1561, 1899.00
1562, 1899.00
1563, 1900.00
1564, 1900.00
1565, 1902.00
1566, 1904.00
1567, 1905.00
1568, 1906.00
1569, 1907.00
1570, 1909.00
1571, 1910.00
1572, 1911.00
1573, 1912.00
1574, 1913.00
1575, 1915.00
1576, 1915.00
1577, 1917.00
1578, 1918.00
1579, 1919.00
1580, 1921.00
1581, 1922.00
1582, 1922.00
1583, 1923.00
1584, 1925.00
1585, 1926.00
1586, 1927.00
1587, 1927.00
1588, 1930.00
1589, 1931.00
1590, 1931.00
1591, 1933.00
1592, 1934.00
1593, 1935.00
1594, 1936.00
1595, 1937.00
1596, 1938.00
1597, 1939.00
1598, 1941.00
1599, 1942.00
1600, 1943.00
1601, 1943.00
1602, 1944.00
1603, 1945.00
1604, 1949.00
1605, 1949.00
1606, 1949.00
1607, 1950.00
1608, 1953.00
1609, 1954.00
1610, 1955.00
1611, 1958.00
1612, 1959.00
1613, 1960.00
1614, 1961.00
1615, 1964.00
1616, 1964.00
1617, 1966.00
1618, 1967.00
1619, 1969.00
1620, 1969.00
1621, 1972.00
1622, 1974.00
1623, 1975.00
1624, 1976.00
1625, 1977.00
1626, 1979.00
1627, 1980.00
1628, 1982.00
1629, 1984.00
1630, 1985.00
1631, 1985.00
1632, 1987.00
1633, 1987.00
1634, 1991.00
1635, 1991.00
1636, 1993.00
1637, 1993.00
1638, 1994.00
1639, 1996.00
1640, 1997.00
1641, 1999.00
1642, 2000.00
1643, 2001.00
1644, 2002.00
1645, 2003.00
1646, 2003.00
1647, 2005.00
1648, 2006.00
1649, 2009.00
1650, 2009.00

1750, 2583.00
1751, 2585.00
1752, 2586.00
1753, 2585.00
1754, 2584.00
1755, 2586.00
1756, 2587.00
1757, 2585.00
1758, 2584.00
1759, 2586.00
1760, 2585.00
1761, 2585.00
1762, 2584.00
1763, 2585.00
1764, 2586.00
1765, 2585.00
1766, 2582.00
1767, 2585.00
1768, 2583.00
1769, 2582.00
1770, 2581.00
1771, 2582.00
1772, 2582.00
1773, 2582.00
1774, 2582.00
1775, 2579.00
1776, 2581.00
1777, 2580.00
1778, 2581.00
1779, 2580.00
1780, 2578.00
1781, 2577.00
1782, 2579.00
1783, 2577.00
1784, 2577.00
1785, 2575.00
1786, 2576.00
1787, 2574.00
1788, 2576.00
1789, 2574.00
1790, 2574.00
1791, 2572.00
1792, 2573.00
1793, 2572.00
1794, 2573.00
1795, 2573.00
1796, 2572.00
1797, 2571.00
1798, 2571.00
1799, 2569.00
1800, 2570.00
1801, 2569.00
1802, 2570.00
1803, 2568.00
1804, 2569.00
1805, 2569.00
1806, 2569.00
1807, 2569.00
1808, 2568.00
1809, 2566.00
1810, 2567.00
1811, 2565.00
1812, 2566.00
1813, 2564.00
1814, 2566.00
1815, 2564.00
1816, 2563.00
1817, 2564.00
1818, 2564.00
1819, 2565.00
1820, 2563.00
1821, 2562.00
1822, 2561.00
1823, 2561.00
1824, 2560.00
1825, 2557.00
1826, 2557.00
1827, 2557.00
1828, 2555.00
1829, 2554.00
1830, 2554.00
1831, 2554.00
1832, 2553.00
1833, 2550.00
1834, 2549.00
1835, 2548.00
1836, 2547.00
1837, 2543.00
1838, 2542.00
1839, 2542.00
1840, 2540.00
1841, 2539.00
1842, 2537.00
1843, 2534.00
1844, 2534.00
1845, 2530.00
1846, 2531.00
1847, 2527.00
1848, 2524.00
1849, 2521.00
1850, 2519.00
1851, 2518.00
1852, 2516.00
1853, 2515.00
1854, 2510.00
1855, 2511.00
1856, 2508.00
1857, 2507.00
1858, 2501.00
1859, 2499.00
1860, 2499.00
1861, 2497.00
1862, 2492.00
1863, 2492.00
1864, 2492.00
1865, 2485.00
1866, 2486.00
1867, 2484.00
1868, 2484.00
1869, 2481.00
1870, 2479.00
1871, 2480.00
1872, 2475.00
1873, 2475.00
1874, 2473.00
1875, 2472.00
1876, 2469.00
1877, 2470.00
1878, 2469.00
1879, 2466.00
1880, 2466.00
1881, 2466.00
1882, 2463.00
1883, 2465.00
1884, 2463.00
1885, 2463.00
1886, 2461.00
1887, 2461.00
1888, 2461.00
1889, 2461.00
1890, 2458.00
1891, 2458.00
1892, 2458.00
1893, 2458.00
1894, 2457.00
1895, 2457.00
1896, 2456.00
1897, 2456.00
1898, 2456.00
1899, 2455.00
1900, 2455.00
1901, 2454.00
1902, 2454.00
1903, 2455.00
1904, 2453.00
1905, 2453.00
1906, 2453.00
1907, 2451.00
1908, 2453.00
1909, 2453.00
1910, 2451.00
1911, 2451.00
1912, 2451.00
1913, 2451.00
1914, 2451.00
1915, 2452.00
1916, 2451.00
1917, 2451.00
1918, 2450.00
1919, 2449.00
1920, 2451.00
1921, 2447.00
1922, 2451.00
1923, 2450.00
1924, 2450.00
1925, 2451.00
1926, 2450.00
1927, 2451.00
1928, 2452.00
1929, 2451.00
1930, 2451.00
1931, 2452.00
1932, 2453.00
1933, 2451.00
1934, 2452.00
1935, 2450.00
1936, 2451.00
1937, 2453.00
1938, 2451.00
1939, 2453.00
1940, 2453.00
1941, 2453.00
1942, 2453.00
1943, 2454.00
1944, 2453.00
1945, 2455.00
1946, 2457.00
1947, 2457.00
1948, 2455.00
1949, 2457.00
1950, 2456.00
1951, 2458.00
1952, 2457.00
1953, 2457.00
1954, 2458.00
1955, 2458.00
1956, 2460.00
1957, 2460.00
1958, 2459.00
1959, 2460.00
1960, 2463.00
1961, 2460.00
1962, 2462.00
1963, 2463.00
1964, 2462.00
1965, 2464.00
1966, 2464.00
1967, 2464.00
1968, 2465.00
1969, 2467.00
1970, 2467.00
1971, 2466.00
1972, 2468.00
1973, 2467.00
1974, 2469.00
1975, 2469.00
1976, 2471.00
1977, 2471.00
1978, 2473.00
1979, 2472.00
1980, 2476.00
1981, 2474.00
1982, 2476.00
1983, 2474.00
1984, 2476.00
1985, 2475.00
1986, 2478.00
1987, 2477.00
1988, 2478.00
1989, 2480.00
1990, 2479.00
1991, 2482.00
1992, 2482.00
1993, 2481.00
1994, 2484.00
1995, 2483.00
1996, 2484.00
1997, 2483.00
1998, 2486.00
1999, 2488.00
2000, 2485.00
2001, 2488.00
2002, 2488.00
2003, 2487.00
2004, 2487.00
2005, 2489.00
2006, 2491.00
2007, 2491.00
2008, 2491.00
2009, 2491.00
2010, 2493.00
2011, 2493.00
2012, 2493.00
2013, 2495.00
2014, 2496.00
2015, 2493.00
2016, 2497.00
2017, 2497.00
2018, 2497.00
2019, 2497.00
2020, 2500.00
2021, 2501.00
2022, 2500.00
2023, 2499.00
2024, 2500.00
2025, 2502.00
2026, 2502.00
2027, 2502.00
2028, 2504.00
2029, 2505.00
2030, 2506.00
2031, 2504.00
2032, 2507.00
2033, 2506.00
2034, 2507.00
2035, 2508.00
2036, 2510.00
2037, 2508.00
2038, 2510.00
2039, 2511.00
2040, 2512.00
2041, 2512.00
2042, 2513.00
2043, 2515.00
2044, 2516.00
2045, 2516.00
2046, 2518.00
2047, 2518.00
2048, 2519.00
2049, 2519.00
2050, 2519.00
2051, 2521.00
2052, 2523.00
2053, 2522.00
2054, 2525.00
2055, 2525.00
2056, 2525.00
2057, 2524.00
2058, 2528.00
2059, 2529.00
2060, 2529.00
2061, 2530.00
2062, 2532.00
2063, 2532.00
2064, 2532.00
2065, 2532.00
2066, 2536.00
2067, 2535.00
2068, 2537.00
2069, 2537.00
2070, 2538.00
2071, 2540.00
2072, 2541.00
2073, 2542.00
2074, 2542.00
2075, 2543.00
2076, 2542.00
2077, 2544.00
2078, 2545.00
2079, 2547.00
2080, 2548.00
2081, 2548.00
2082, 2548.00
2083, 2548.00
2084, 2551.00
2085, 2550.00
2086, 2550.00
2087, 2551.00
2088, 2550.00
2089, 2553.00
2090, 2553.00
2091, 2553.00
2092, 2555.00
2093, 2555.00
2094, 2557.00
2095, 2557.00
2096, 2557.00
2097, 2556.00
2098, 2559.00
2099, 2558.00
2100, 2559.00
2101, 2559.00
2102, 2561.00
2103, 2558.00
2104, 2561.00
2105, 2562.00
2106, 2562.00
2107, 2560.00
2108, 2562.00
2109, 2563.00
2110, 2563.00
2111, 2562.00
2112, 2563.00
2113, 2564.00
2114, 2564.00
2115, 2566.00
2116, 2565.00
2117, 2565.00
2118, 2564.00
2119, 2565.00
2120, 2566.00
2121, 2567.00
2122, 2566.00
2123, 2568.00
2124, 2566.00
2125, 2568.00
2126, 2566.00
2127, 2567.00
2128, 2569.00
2129, 2567.00
2130, 2570.00
2131, 2568.00
2132, 2571.00
2133, 2568.00
2134, 2567.00
2135, 2569.00
2136, 2572.00
2137, 2571.00
2138, 2571.00
2139, 2571.00
2140, 2570.00
2141, 2570.00
2142, 2572.00
2143, 2571.00
2144, 2572.00
2145, 2570.00
2146, 2572.00
2147, 2573.00
2148, 2572.00
2149, 2571.00
2150, 2573.00
