FW version: 24
Log Version: 3.0.3

General Info:
       Command/Macro Performed,            Timestamp,             Device ID, COM Port, UART/I2C, Test Name, Host Major, Host Minor, Host Revision, Host Git Commit
            Single_measurement,  2023_06_29_11_50_11,       Insight2_F4_xxx,    USB-C,      USB,          ,          0,          1,             1,      4031237645

Show Spectrometer Status:
l0_version, f4_version, battery_perc, battery_mVolt, accelerometer_temp, accelerometer_x, accelerometer_y, accelerometer_z, compass_temp, compass_x, compass_y, compass_z, lamp_0, lamp_1, gain_0, gain_1
        17,         24,           95,          2078,               5904,           65380,              44,           18496,            0,     65380,     65390,     65520,   2457,   2457,      1,      1

Temperature Statistic Info:
NTC AVG [°C], NTC2 AVG [°C]
      37.897,        37.583

Statistic Info:
M1:  num,      min,      max,   median,      AVG,      STD,M2:  num,      min,      max,   median,      AVG,      STD
     301,  1028.00,  1174.00,  1062.00,  1076.71,  45.1572,     401,  1528.00,  1614.00,  1575.00,  1572.69,  29.9270,

Measurements:
Wavelength, Data Amplitude
1350, 1042.00
1351, 1042.00
1352, 1042.00
1353, 1041.00
1354, 1040.00
1355, 1041.00
1356, 1042.00
1357, 1041.00
1358, 1041.00
1359, 1040.00
1360, 1041.00
1361, 1040.00
1362, 1040.00
1363, 1039.00
1364, 1040.00
1365, 1039.00
1366, 1039.00
1367, 1038.00
1368, 1038.00
1369, 1037.00
1370, 1036.00
1371, 1036.00
1372, 1035.00
1373, 1035.00
1374, 1036.00
1375, 1035.00
1376, 1033.00
1377, 1034.00
1378, 1033.00
1379, 1034.00
1380, 1033.00
1381, 1033.00
1382, 1032.00
1383, 1032.00
1384, 1032.00
1385, 1032.00
1386, 1031.00
1387, 1031.00
1388, 1031.00
1389, 1031.00
1390, 1030.00
1391, 1031.00
1392, 1031.00
1393, 1031.00
1394, 1030.00
1395, 1030.00
1396, 1030.00
1397, 1030.00
1398, 1029.00
1399, 1029.00
1400, 1030.00
1401, 1029.00
1402, 1030.00
1403, 1030.00
1404, 1029.00
1405, 1028.00
1406, 1030.00
1407, 1030.00
1408, 1029.00
1409, 1029.00
1410, 1030.00
1411, 1029.00
1412, 1030.00
1413, 1029.00
1414, 1029.00
1415, 1029.00
1416, 1029.00
1417, 1029.00
1418, 1029.00
1419, 1029.00
1420, 1031.00
1421, 1029.00
1422, 1030.00
1423, 1029.00
1424, 1029.00
1425, 1031.00
1426, 1032.00
1427, 1030.00
1428, 1030.00
1429, 1030.00
1430, 1031.00
1431, 1031.00
1432, 1031.00
1433, 1031.00
1434, 1031.00
1435, 1032.00
1436, 1032.00
1437, 1033.00
1438, 1033.00
1439, 1033.00
1440, 1033.00
1441, 1034.00
1442, 1034.00
1443, 1035.00
1444, 1034.00
1445, 1035.00
1446, 1036.00
1447, 1035.00
1448, 1035.00
1449, 1036.00
1450, 1037.00
1451, 1037.00
1452, 1037.00
1453, 1037.00
1454, 1037.00
1455, 1038.00
1456, 1038.00
1457, 1040.00
1458, 1040.00
1459, 1041.00
1460, 1041.00
1461, 1041.00
1462, 1041.00
1463, 1042.00
1464, 1043.00
1465, 1042.00
1466, 1043.00
1467, 1044.00
1468, 1044.00
1469, 1044.00
1470, 1047.00
1471, 1047.00
1472, 1046.00
1473, 1047.00
1474, 1048.00
1475, 1048.00
1476, 1049.00
1477, 1048.00
1478, 1049.00
1479, 1051.00
1480, 1050.00
1481, 1050.00
1482, 1052.00
1483, 1052.00
1484, 1053.00
1485, 1053.00
1486, 1054.00
1487, 1054.00
1488, 1056.00
1489, 1056.00
1490, 1057.00
1491, 1057.00
1492, 1058.00
1493, 1058.00
1494, 1059.00
1495, 1059.00
1496, 1060.00
1497, 1061.00
1498, 1062.00
1499, 1062.00
1500, 1062.00
1501, 1063.00
1502, 1062.00
1503, 1064.00
1504, 1065.00
1505, 1066.00
1506, 1066.00
1507, 1067.00
1508, 1067.00
1509, 1068.00
1510, 1069.00
1511, 1069.00
1512, 1070.00
1513, 1071.00
1514, 1070.00
1515, 1072.00
1516, 1072.00
1517, 1073.00
1518, 1074.00
1519, 1075.00
1520, 1075.00
1521, 1075.00
1522, 1077.00
1523, 1077.00
1524, 1078.00
1525, 1078.00
1526, 1079.00
1527, 1081.00
1528, 1081.00
1529, 1082.00
1530, 1082.00
1531, 1083.00
1532, 1084.00
1533, 1084.00
1534, 1085.00
1535, 1086.00
1536, 1086.00
1537, 1088.00
1538, 1088.00
1539, 1088.00
1540, 1089.00
1541, 1090.00
1542, 1091.00
1543, 1091.00
1544, 1092.00
1545, 1093.00
1546, 1093.00
1547, 1093.00
1548, 1095.00
1549, 1095.00
1550, 1095.00
1551, 1096.00
1552, 1096.00
1553, 1097.00
1554, 1098.00
1555, 1100.00
1556, 1100.00
1557, 1101.00
1558, 1101.00
1559, 1102.00
1560, 1103.00
1561, 1103.00
1562, 1104.00
1563, 1104.00
1564, 1106.00
1565, 1107.00
1566, 1107.00
1567, 1107.00
1568, 1109.00
1569, 1110.00
1570, 1111.00
1571, 1111.00
1572, 1112.00
1573, 1112.00
1574, 1114.00
1575, 1114.00
1576, 1115.00
1577, 1116.00
1578, 1117.00
1579, 1117.00
1580, 1117.00
1581, 1118.00
1582, 1119.00
1583, 1120.00
1584, 1121.00
1585, 1121.00
1586, 1121.00
1587, 1122.00
1588, 1123.00
1589, 1124.00
1590, 1125.00
1591, 1125.00
1592, 1125.00
1593, 1126.00
1594, 1127.00
1595, 1127.00
1596, 1128.00
1597, 1129.00
1598, 1129.00
1599, 1130.00
1600, 1130.00
1601, 1132.00
1602, 1132.00
1603, 1133.00
1604, 1135.00
1605, 1136.00
1606, 1136.00
1607, 1137.00
1608, 1138.00
1609, 1138.00
1610, 1139.00
1611, 1140.00
1612, 1140.00
1613, 1142.00
1614, 1143.00
1615, 1143.00
1616, 1145.00
1617, 1145.00
1618, 1147.00
1619, 1148.00
1620, 1149.00
1621, 1149.00
1622, 1151.00
1623, 1151.00
1624, 1152.00
1625, 1153.00
1626, 1153.00
1627, 1154.00
1628, 1156.00
1629, 1157.00
1630, 1157.00
1631, 1158.00
1632, 1159.00
1633, 1160.00
1634, 1161.00
1635, 1162.00
1636, 1162.00
1637, 1162.00
1638, 1163.00
1639, 1164.00
1640, 1166.00
1641, 1165.00
1642, 1167.00
1643, 1168.00
1644, 1167.00
1645, 1170.00
1646, 1170.00
1647, 1170.00
1648, 1171.00
1649, 1172.00
1650, 1174.00

1750, 1610.00
1751, 1612.00
1752, 1612.00
1753, 1611.00
1754, 1612.00
1755, 1612.00
1756, 1612.00
1757, 1611.00
1758, 1610.00
1759, 1611.00
1760, 1613.00
1761, 1614.00
1762, 1613.00
1763, 1612.00
1764, 1612.00
1765, 1613.00
1766, 1613.00
1767, 1611.00
1768, 1612.00
1769, 1612.00
1770, 1611.00
1771, 1609.00
1772, 1611.00
1773, 1609.00
1774, 1611.00
1775, 1611.00
1776, 1611.00
1777, 1609.00
1778, 1609.00
1779, 1609.00
1780, 1609.00
1781, 1608.00
1782, 1609.00
1783, 1608.00
1784, 1607.00
1785, 1608.00
1786, 1607.00
1787, 1608.00
1788, 1607.00
1789, 1606.00
1790, 1606.00
1791, 1609.00
1792, 1606.00
1793, 1606.00
1794, 1604.00
1795, 1605.00
1796, 1604.00
1797, 1604.00
1798, 1604.00
1799, 1603.00
1800, 1605.00
1801, 1602.00
1802, 1602.00
1803, 1604.00
1804, 1602.00
1805, 1602.00
1806, 1603.00
1807, 1603.00
1808, 1602.00
1809, 1603.00
1810, 1602.00
1811, 1602.00
1812, 1602.00
1813, 1601.00
1814, 1601.00
1815, 1600.00
1816, 1600.00
1817, 1600.00
1818, 1598.00
1819, 1601.00
1820, 1599.00
1821, 1600.00
1822, 1601.00
1823, 1597.00
1824, 1598.00
1825, 1596.00
1826, 1595.00
1827, 1597.00
1828, 1593.00
1829, 1595.00
1830, 1594.00
1831, 1594.00
1832, 1592.00
1833, 1591.00
1834, 1593.00
1835, 1591.00
1836, 1591.00
1837, 1589.00
1838, 1587.00
1839, 1584.00
1840, 1586.00
1841, 1585.00
1842, 1584.00
1843, 1582.00
1844, 1581.00
1845, 1579.00
1846, 1577.00
1847, 1579.00
1848, 1577.00
1849, 1574.00
1850, 1573.00
1851, 1572.00
1852, 1570.00
1853, 1568.00
1854, 1569.00
1855, 1566.00
1856, 1564.00
1857, 1565.00
1858, 1562.00
1859, 1560.00
1860, 1558.00
1861, 1557.00
1862, 1555.00
1863, 1555.00
1864, 1554.00
1865, 1552.00
1866, 1553.00
1867, 1550.00
1868, 1549.00
1869, 1547.00
1870, 1547.00
1871, 1546.00
1872, 1545.00
1873, 1544.00
1874, 1543.00
1875, 1542.00
1876, 1540.00
1877, 1541.00
1878, 1541.00
1879, 1540.00
1880, 1540.00
1881, 1538.00
1882, 1538.00
1883, 1538.00
1884, 1538.00
1885, 1536.00
1886, 1536.00
1887, 1535.00
1888, 1535.00
1889, 1535.00
1890, 1534.00
1891, 1532.00
1892, 1535.00
1893, 1533.00
1894, 1533.00
1895, 1533.00
1896, 1532.00
1897, 1532.00
1898, 1533.00
1899, 1531.00
1900, 1531.00
1901, 1531.00
1902, 1532.00
1903, 1530.00
1904, 1531.00
1905, 1531.00
1906, 1529.00
1907, 1531.00
1908, 1530.00
1909, 1530.00
1910, 1529.00
1911, 1531.00
1912, 1531.00
1913, 1530.00
1914, 1528.00
1915, 1529.00
1916, 1529.00
1917, 1530.00
1918, 1531.00
1919, 1530.00
1920, 1529.00
1921, 1528.00
1922, 1529.00
1923, 1528.00
1924, 1528.00
1925, 1529.00
1926, 1529.00
1927, 1531.00
1928, 1530.00
1929, 1529.00
1930, 1530.00
1931, 1529.00
1932, 1529.00
1933, 1528.00
1934, 1530.00
1935, 1531.00
1936, 1531.00
1937, 1530.00
1938, 1530.00
1939, 1530.00
1940, 1532.00
1941, 1531.00
1942, 1531.00
1943, 1531.00
1944, 1532.00
1945, 1531.00
1946, 1532.00
1947, 1533.00
1948, 1532.00
1949, 1533.00
1950, 1533.00
1951, 1533.00
1952, 1533.00
1953, 1535.00
1954, 1535.00
1955, 1537.00
1956, 1536.00
1957, 1535.00
1958, 1535.00
1959, 1537.00
1960, 1537.00
1961, 1536.00
1962, 1537.00
1963, 1537.00
1964, 1538.00
1965, 1537.00
1966, 1539.00
1967, 1539.00
1968, 1538.00
1969, 1540.00
1970, 1540.00
1971, 1539.00
1972, 1542.00
1973, 1539.00
1974, 1542.00
1975, 1543.00
1976, 1545.00
1977, 1542.00
1978, 1543.00
1979, 1542.00
1980, 1545.00
1981, 1544.00
1982, 1544.00
1983, 1545.00
1984, 1547.00
1985, 1548.00
1986, 1546.00
1987, 1546.00
1988, 1548.00
1989, 1547.00
1990, 1548.00
1991, 1548.00
1992, 1551.00
1993, 1548.00
1994, 1551.00
1995, 1550.00
1996, 1552.00
1997, 1552.00
1998, 1552.00
1999, 1553.00
2000, 1551.00
2001, 1553.00
2002, 1553.00
2003, 1553.00
2004, 1552.00
2005, 1554.00
2006, 1556.00
2007, 1554.00
2008, 1556.00
2009, 1555.00
2010, 1555.00
2011, 1557.00
2012, 1556.00
2013, 1559.00
2014, 1557.00
2015, 1558.00
2016, 1560.00
2017, 1559.00
2018, 1561.00
2019, 1560.00
2020, 1561.00
2021, 1560.00
2022, 1560.00
2023, 1562.00
2024, 1563.00
2025, 1561.00
2026, 1564.00
2027, 1565.00
2028, 1563.00
2029, 1563.00
2030, 1565.00
2031, 1566.00
2032, 1566.00
2033, 1566.00
2034, 1566.00
2035, 1568.00
2036, 1569.00
2037, 1568.00
2038, 1568.00
2039, 1569.00
2040, 1568.00
2041, 1569.00
2042, 1570.00
2043, 1571.00
2044, 1571.00
2045, 1574.00
2046, 1573.00
2047, 1573.00
2048, 1572.00
2049, 1575.00
2050, 1576.00
2051, 1575.00
2052, 1576.00
2053, 1577.00
2054, 1578.00
2055, 1580.00
2056, 1582.00
2057, 1578.00
2058, 1580.00
2059, 1581.00
2060, 1581.00
2061, 1581.00
2062, 1581.00
2063, 1582.00
2064, 1583.00
2065, 1585.00
2066, 1585.00
2067, 1587.00
2068, 1587.00
2069, 1587.00
2070, 1586.00
2071, 1587.00
2072, 1589.00
2073, 1587.00
2074, 1589.00
2075, 1590.00
2076, 1591.00
2077, 1592.00
2078, 1591.00
2079, 1591.00
2080, 1592.00
2081, 1594.00
2082, 1593.00
2083, 1593.00
2084, 1594.00
2085, 1595.00
2086, 1596.00
2087, 1596.00
2088, 1595.00
2089, 1596.00
2090, 1598.00
2091, 1598.00
2092, 1599.00
2093, 1598.00
2094, 1600.00
2095, 1597.00
2096, 1599.00
2097, 1600.00
2098, 1600.00
2099, 1601.00
2100, 1602.00
2101, 1601.00
2102, 1600.00
2103, 1605.00
2104, 1603.00
2105, 1602.00
2106, 1602.00
2107, 1604.00
2108, 1603.00
2109, 1604.00
2110, 1604.00
2111, 1603.00
2112, 1604.00
2113, 1606.00
2114, 1606.00
2115, 1605.00
2116, 1605.00
2117, 1604.00
2118, 1605.00
2119, 1607.00
2120, 1606.00
2121, 1605.00
2122, 1607.00
2123, 1607.00
2124, 1605.00
2125, 1608.00
2126, 1609.00
2127, 1605.00
2128, 1609.00
2129, 1609.00
2130, 1609.00
2131, 1608.00
2132, 1607.00
2133, 1609.00
2134, 1609.00
2135, 1608.00
2136, 1610.00
2137, 1609.00
2138, 1609.00
2139, 1610.00
2140, 1610.00
2141, 1609.00
2142, 1609.00
2143, 1608.00
2144, 1610.00
2145, 1611.00
2146, 1611.00
2147, 1610.00
2148, 1610.00
2149, 1611.00
2150, 1612.00
