FW version: 24
Log Version: 3.0.3

General Info:
       Command/Macro Performed,            Timestamp,             Device ID, COM Port, UART/I2C, Test Name, Host Major, Host Minor, Host Revision, Host Git Commit
            Single_measurement,  2023_06_29_11_49_37,       Insight2_F4_xxx,    USB-C,      USB,          ,          0,          1,             1,      4031237645

Show Spectrometer Status:
l0_version, f4_version, battery_perc, battery_mVolt, accelerometer_temp, accelerometer_x, accelerometer_y, accelerometer_z, compass_temp, compass_x, compass_y, compass_z, lamp_0, lamp_1, gain_0, gain_1
        17,         24,           95,          2078,               5856,           65388,              24,           18448,            0,     65389,     65403,     65522,   3276,   3276,      0,      0

Temperature Statistic Info:
NTC AVG [°C], NTC2 AVG [°C]
      37.669,        37.382

Statistic Info:
M1:  num,      min,      max,   median,      AVG,      STD,M2:  num,      min,      max,   median,      AVG,      STD
     301,   614.00,   693.00,   632.00,   640.26,  24.7372,     401,   847.00,   894.00,   871.00,   870.38,  16.1503,

Measurements:
Wavelength, Data Amplitude
1350, 623.00
1351, 623.00
1352, 623.00
1353, 623.00
1354, 622.00
1355, 623.00
1356, 623.00
1357, 622.00
1358, 622.00
1359, 622.00
1360, 622.00
1361, 622.00
1362, 622.00
1363, 622.00
1364, 621.00
1365, 621.00
1366, 621.00
1367, 620.00
1368, 620.00
1369, 620.00
1370, 620.00
1371, 619.00
1372, 619.00
1373, 618.00
1374, 619.00
1375, 618.00
1376, 618.00
1377, 618.00
1378, 617.00
1379, 617.00
1380, 617.00
1381, 617.00
1382, 616.00
1383, 616.00
1384, 616.00
1385, 616.00
1386, 616.00
1387, 616.00
1388, 616.00
1389, 616.00
1390, 615.00
1391, 615.00
1392, 616.00
1393, 615.00
1394, 615.00
1395, 615.00
1396, 615.00
1397, 615.00
1398, 615.00
1399, 614.00
1400, 615.00
1401, 615.00
1402, 615.00
1403, 615.00
1404, 615.00
1405, 615.00
1406, 615.00
1407, 614.00
1408, 614.00
1409, 614.00
1410, 614.00
1411, 614.00
1412, 614.00
1413, 614.00
1414, 614.00
1415, 615.00
1416, 614.00
1417, 614.00
1418, 614.00
1419, 614.00
1420, 614.00
1421, 615.00
1422, 614.00
1423, 614.00
1424, 614.00
1425, 615.00
1426, 615.00
1427, 614.00
1428, 615.00
1429, 615.00
1430, 615.00
1431, 616.00
1432, 615.00
1433, 615.00
1434, 615.00
1435, 616.00
1436, 616.00
1437, 615.00
1438, 616.00
1439, 616.00
1440, 616.00
1441, 616.00
1442, 616.00
1443, 617.00
1444, 617.00
1445, 616.00
1446, 617.00
1447, 618.00
1448, 617.00
1449, 618.00
1450, 618.00
1451, 618.00
1452, 618.00
1453, 619.00
1454, 619.00
1455, 619.00
1456, 619.00
1457, 619.00
1458, 620.00
1459, 620.00
1460, 619.00
1461, 621.00
1462, 620.00
1463, 620.00
1464, 621.00
1465, 621.00
1466, 621.00
1467, 622.00
1468, 622.00
1469, 622.00
1470, 623.00
1471, 623.00
1472, 623.00
1473, 623.00
1474, 624.00
1475, 624.00
1476, 624.00
1477, 625.00
1478, 625.00
1479, 625.00
1480, 626.00
1481, 626.00
1482, 626.00
1483, 626.00
1484, 627.00
1485, 627.00
1486, 627.00
1487, 628.00
1488, 628.00
1489, 628.00
1490, 629.00
1491, 629.00
1492, 629.00
1493, 630.00
1494, 630.00
1495, 630.00
1496, 631.00
1497, 631.00
1498, 631.00
1499, 631.00
1500, 632.00
1501, 632.00
1502, 633.00
1503, 633.00
1504, 633.00
1505, 634.00
1506, 634.00
1507, 634.00
1508, 634.00
1509, 635.00
1510, 635.00
1511, 636.00
1512, 636.00
1513, 637.00
1514, 637.00
1515, 637.00
1516, 638.00
1517, 638.00
1518, 638.00
1519, 639.00
1520, 639.00
1521, 639.00
1522, 640.00
1523, 640.00
1524, 640.00
1525, 640.00
1526, 641.00
1527, 641.00
1528, 641.00
1529, 642.00
1530, 643.00
1531, 643.00
1532, 643.00
1533, 644.00
1534, 644.00
1535, 644.00
1536, 645.00
1537, 646.00
1538, 645.00
1539, 646.00
1540, 646.00
1541, 647.00
1542, 647.00
1543, 648.00
1544, 648.00
1545, 648.00
1546, 648.00
1547, 649.00
1548, 649.00
1549, 649.00
1550, 650.00
1551, 650.00
1552, 651.00
1553, 651.00
1554, 652.00
1555, 652.00
1556, 653.00
1557, 653.00
1558, 654.00
1559, 654.00
1560, 654.00
1561, 655.00
1562, 655.00
1563, 655.00
1564, 656.00
1565, 656.00
1566, 657.00
1567, 657.00
1568, 658.00
1569, 658.00
1570, 659.00
1571, 659.00
1572, 660.00
1573, 660.00
1574, 660.00
1575, 661.00
1576, 661.00
1577, 661.00
1578, 662.00
1579, 662.00
1580, 662.00
1581, 663.00
1582, 663.00
1583, 664.00
1584, 664.00
1585, 665.00
1586, 665.00
1587, 665.00
1588, 665.00
1589, 666.00
1590, 667.00
1591, 667.00
1592, 667.00
1593, 668.00
1594, 668.00
1595, 668.00
1596, 669.00
1597, 669.00
1598, 670.00
1599, 670.00
1600, 670.00
1601, 671.00
1602, 671.00
1603, 672.00
1604, 672.00
1605, 673.00
1606, 672.00
1607, 673.00
1608, 674.00
1609, 674.00
1610, 675.00
1611, 675.00
1612, 676.00
1613, 676.00
1614, 677.00
1615, 677.00
1616, 677.00
1617, 678.00
1618, 679.00
1619, 679.00
1620, 680.00
1621, 680.00
1622, 680.00
1623, 681.00
1624, 682.00
1625, 682.00
1626, 683.00
1627, 683.00
1628, 683.00
1629, 684.00
1630, 685.00
1631, 685.00
1632, 686.00
1633, 686.00
1634, 687.00
1635, 687.00
1636, 687.00
1637, 688.00
1638, 688.00
1639, 689.00
1640, 689.00
1641, 689.00
1642, 690.00
1643, 691.00
1644, 691.00
1645, 691.00
1646, 692.00
1647, 692.00
1648, 693.00
1649, 693.00
1650, 693.00

1750, 893.00
1751, 894.00
1752, 894.00
1753, 893.00
1754, 894.00
1755, 894.00
1756, 894.00
1757, 894.00
1758, 893.00
1759, 893.00
1760, 893.00
1761, 893.00
1762, 893.00
1763, 893.00
1764, 893.00
1765, 893.00
1766, 893.00
1767, 893.00
1768, 893.00
1769, 893.00
1770, 892.00
1771, 892.00
1772, 892.00
1773, 892.00
1774, 892.00
1775, 892.00
1776, 892.00
1777, 892.00
1778, 892.00
1779, 891.00
1780, 891.00
1781, 891.00
1782, 892.00
1783, 891.00
1784, 891.00
1785, 891.00
1786, 889.00
1787, 890.00
1788, 891.00
1789, 890.00
1790, 890.00
1791, 890.00
1792, 889.00
1793, 889.00
1794, 889.00
1795, 889.00
1796, 889.00
1797, 890.00
1798, 890.00
1799, 889.00
1800, 889.00
1801, 888.00
1802, 889.00
1803, 888.00
1804, 888.00
1805, 887.00
1806, 887.00
1807, 887.00
1808, 888.00
1809, 887.00
1810, 887.00
1811, 887.00
1812, 887.00
1813, 887.00
1814, 887.00
1815, 887.00
1816, 886.00
1817, 886.00
1818, 886.00
1819, 886.00
1820, 886.00
1821, 886.00
1822, 885.00
1823, 886.00
1824, 885.00
1825, 885.00
1826, 885.00
1827, 884.00
1828, 884.00
1829, 883.00
1830, 884.00
1831, 883.00
1832, 883.00
1833, 881.00
1834, 881.00
1835, 881.00
1836, 880.00
1837, 880.00
1838, 879.00
1839, 879.00
1840, 878.00
1841, 878.00
1842, 878.00
1843, 877.00
1844, 875.00
1845, 874.00
1846, 874.00
1847, 873.00
1848, 873.00
1849, 872.00
1850, 872.00
1851, 870.00
1852, 869.00
1853, 869.00
1854, 869.00
1855, 867.00
1856, 866.00
1857, 867.00
1858, 865.00
1859, 865.00
1860, 863.00
1861, 863.00
1862, 862.00
1863, 862.00
1864, 862.00
1865, 860.00
1866, 859.00
1867, 859.00
1868, 857.00
1869, 858.00
1870, 857.00
1871, 857.00
1872, 856.00
1873, 855.00
1874, 855.00
1875, 855.00
1876, 855.00
1877, 853.00
1878, 853.00
1879, 854.00
1880, 853.00
1881, 852.00
1882, 852.00
1883, 852.00
1884, 852.00
1885, 851.00
1886, 851.00
1887, 851.00
1888, 850.00
1889, 850.00
1890, 850.00
1891, 850.00
1892, 849.00
1893, 850.00
1894, 850.00
1895, 849.00
1896, 849.00
1897, 849.00
1898, 849.00
1899, 848.00
1900, 849.00
1901, 848.00
1902, 849.00
1903, 848.00
1904, 849.00
1905, 848.00
1906, 848.00
1907, 848.00
1908, 848.00
1909, 848.00
1910, 847.00
1911, 847.00
1912, 848.00
1913, 847.00
1914, 847.00
1915, 847.00
1916, 847.00
1917, 847.00
1918, 848.00
1919, 847.00
1920, 847.00
1921, 847.00
1922, 847.00
1923, 847.00
1924, 847.00
1925, 848.00
1926, 847.00
1927, 848.00
1928, 847.00
1929, 848.00
1930, 847.00
1931, 847.00
1932, 847.00
1933, 848.00
1934, 847.00
1935, 847.00
1936, 848.00
1937, 847.00
1938, 847.00
1939, 848.00
1940, 848.00
1941, 848.00
1942, 847.00
1943, 848.00
1944, 848.00
1945, 849.00
1946, 848.00
1947, 848.00
1948, 848.00
1949, 849.00
1950, 848.00
1951, 850.00
1952, 849.00
1953, 850.00
1954, 850.00
1955, 850.00
1956, 850.00
1957, 849.00
1958, 851.00
1959, 850.00
1960, 851.00
1961, 851.00
1962, 852.00
1963, 851.00
1964, 851.00
1965, 852.00
1966, 852.00
1967, 852.00
1968, 852.00
1969, 852.00
1970, 853.00
1971, 853.00
1972, 853.00
1973, 853.00
1974, 853.00
1975, 854.00
1976, 854.00
1977, 854.00
1978, 855.00
1979, 855.00
1980, 854.00
1981, 855.00
1982, 855.00
1983, 856.00
1984, 855.00
1985, 856.00
1986, 856.00
1987, 856.00
1988, 856.00
1989, 858.00
1990, 857.00
1991, 857.00
1992, 858.00
1993, 857.00
1994, 858.00
1995, 859.00
1996, 857.00
1997, 859.00
1998, 859.00
1999, 859.00
2000, 859.00
2001, 859.00
2002, 860.00
2003, 860.00
2004, 860.00
2005, 860.00
2006, 860.00
2007, 861.00
2008, 861.00
2009, 861.00
2010, 861.00
2011, 862.00
2012, 862.00
2013, 862.00
2014, 862.00
2015, 862.00
2016, 863.00
2017, 862.00
2018, 863.00
2019, 864.00
2020, 863.00
2021, 864.00
2022, 864.00
2023, 864.00
2024, 864.00
2025, 864.00
2026, 865.00
2027, 865.00
2028, 865.00
2029, 865.00
2030, 866.00
2031, 866.00
2032, 866.00
2033, 866.00
2034, 866.00
2035, 867.00
2036, 867.00
2037, 867.00
2038, 868.00
2039, 868.00
2040, 868.00
2041, 868.00
2042, 868.00
2043, 869.00
2044, 869.00
2045, 869.00
2046, 869.00
2047, 871.00
2048, 870.00
2049, 870.00
2050, 871.00
2051, 871.00
2052, 871.00
2053, 872.00
2054, 872.00
2055, 872.00
2056, 873.00
2057, 873.00
2058, 873.00
2059, 873.00
2060, 874.00
2061, 874.00
2062, 875.00
2063, 875.00
2064, 875.00
2065, 875.00
2066, 876.00
2067, 876.00
2068, 876.00
2069, 877.00
2070, 877.00
2071, 878.00
2072, 878.00
2073, 879.00
2074, 879.00
2075, 879.00
2076, 879.00
2077, 879.00
2078, 880.00
2079, 880.00
2080, 880.00
2081, 881.00
2082, 881.00
2083, 880.00
2084, 881.00
2085, 881.00
2086, 882.00
2087, 882.00
2088, 881.00
2089, 882.00
2090, 883.00
2091, 882.00
2092, 883.00
2093, 883.00
2094, 883.00
2095, 883.00
2096, 883.00
2097, 884.00
2098, 884.00
2099, 884.00
2100, 884.00
2101, 885.00
2102, 885.00
2103, 885.00
2104, 885.00
2105, 885.00
2106, 885.00
2107, 884.00
2108, 885.00
2109, 886.00
2110, 886.00
2111, 886.00
2112, 886.00
2113, 886.00
2114, 886.00
2115, 886.00
2116, 887.00
2117, 886.00
2118, 887.00
2119, 887.00
2120, 886.00
2121, 887.00
2122, 887.00
2123, 887.00
2124, 887.00
2125, 887.00
2126, 887.00
2127, 887.00
2128, 888.00
2129, 888.00
2130, 887.00
2131, 887.00
2132, 888.00
2133, 888.00
2134, 889.00
2135, 888.00
2136, 889.00
2137, 888.00
2138, 889.00
2139, 888.00
2140, 889.00
2141, 889.00
2142, 889.00
2143, 889.00
2144, 889.00
2145, 889.00
2146, 889.00
2147, 889.00
2148, 888.00
2149, 889.00
2150, 889.00
