FW version: 24
Log Version: 3.0.3

General Info:
       Command/Macro Performed,            Timestamp,             Device ID, COM Port, UART/I2C, Test Name, Host Major, Host Minor, Host Revision, Host Git Commit
            Single_measurement,  2023_07_04_11_30_54,       Insight2_F4_xxx,    USB-C,      USB,          ,          0,          1,             1,      4031237645

Show Spectrometer Status:
l0_version, f4_version, battery_perc, battery_mVolt, accelerometer_temp, accelerometer_x, accelerometer_y, accelerometer_z, compass_temp, compass_x, compass_y, compass_z, lamp_0, lamp_1, gain_0, gain_1
        17,         24,           27,          1866,               6240,           64936,            2468,           19268,            0,     65528,     65511,     19293,   2866,   2866,      1,      1

Temperature Statistic Info:
NTC AVG [°C], NTC2 AVG [°C]
      39.026,        38.681

Statistic Info:
M1:  num,      min,      max,   median,      AVG,      STD,M2:  num,      min,      max,   median,      AVG,      STD
     301,  1613.00,  1860.00,  1664.00,  1694.06,  76.2181,     401,  2177.00,  2329.00,  2243.00,  2245.85,  50.2591,

Measurements:
Wavelength, Data Amplitude
1350, 1655.00
1351, 1653.00
1352, 1652.00
1353, 1651.00
1354, 1651.00
1355, 1650.00
1356, 1650.00
1357, 1649.00
1358, 1649.00
1359, 1647.00
1360, 1646.00
1361, 1645.00
1362, 1645.00
1363, 1643.00
1364, 1643.00
1365, 1641.00
1366, 1640.00
1367, 1639.00
1368, 1639.00
1369, 1637.00
1370, 1637.00
1371, 1634.00
1372, 1633.00
1373, 1632.00
1374, 1632.00
1375, 1631.00
1376, 1629.00
1377, 1628.00
1378, 1627.00
1379, 1626.00
1380, 1626.00
1381, 1626.00
1382, 1625.00
1383, 1624.00
1384, 1623.00
1385, 1623.00
1386, 1623.00
1387, 1621.00
1388, 1620.00
1389, 1620.00
1390, 1620.00
1391, 1621.00
1392, 1620.00
1393, 1619.00
1394, 1618.00
1395, 1617.00
1396, 1618.00
1397, 1618.00
1398, 1618.00
1399, 1616.00
1400, 1616.00
1401, 1616.00
1402, 1616.00
1403, 1616.00
1404, 1617.00
1405, 1615.00
1406, 1616.00
1407, 1615.00
1408, 1614.00
1409, 1614.00
1410, 1615.00
1411, 1615.00
1412, 1615.00
1413, 1614.00
1414, 1613.00
1415, 1615.00
1416, 1615.00
1417, 1613.00
1418, 1614.00
1419, 1613.00
1420, 1614.00
1421, 1614.00
1422, 1614.00
1423, 1614.00
1424, 1614.00
1425, 1615.00
1426, 1614.00
1427, 1614.00
1428, 1615.00
1429, 1615.00
1430, 1616.00
1431, 1616.00
1432, 1616.00
1433, 1616.00
1434, 1616.00
1435, 1616.00
1436, 1618.00
1437, 1618.00
1438, 1619.00
1439, 1619.00
1440, 1619.00
1441, 1620.00
1442, 1620.00
1443, 1619.00
1444, 1620.00
1445, 1620.00
1446, 1621.00
1447, 1622.00
1448, 1623.00
1449, 1623.00
1450, 1623.00
1451, 1623.00
1452, 1624.00
1453, 1625.00
1454, 1625.00
1455, 1625.00
1456, 1626.00
1457, 1627.00
1458, 1627.00
1459, 1629.00
1460, 1629.00
1461, 1631.00
1462, 1630.00
1463, 1631.00
1464, 1632.00
1465, 1632.00
1466, 1633.00
1467, 1634.00
1468, 1634.00
1469, 1635.00
1470, 1635.00
1471, 1636.00
1472, 1639.00
1473, 1639.00
1474, 1639.00
1475, 1640.00
1476, 1641.00
1477, 1642.00
1478, 1644.00
1479, 1644.00
1480, 1645.00
1481, 1647.00
1482, 1646.00
1483, 1649.00
1484, 1648.00
1485, 1650.00
1486, 1652.00
1487, 1652.00
1488, 1653.00
1489, 1654.00
1490, 1655.00
1491, 1656.00
1492, 1657.00
1493, 1658.00
1494, 1659.00
1495, 1661.00
1496, 1660.00
1497, 1662.00
1498, 1663.00
1499, 1664.00
1500, 1664.00
1501, 1665.00
1502, 1667.00
1503, 1667.00
1504, 1668.00
1505, 1669.00
1506, 1670.00
1507, 1671.00
1508, 1673.00
1509, 1675.00
1510, 1676.00
1511, 1676.00
1512, 1678.00
1513, 1679.00
1514, 1679.00
1515, 1681.00
1516, 1681.00
1517, 1683.00
1518, 1685.00
1519, 1685.00
1520, 1687.00
1521, 1687.00
1522, 1690.00
1523, 1690.00
1524, 1690.00
1525, 1693.00
1526, 1694.00
1527, 1695.00
1528, 1695.00
1529, 1697.00
1530, 1698.00
1531, 1699.00
1532, 1701.00
1533, 1702.00
1534, 1702.00
1535, 1704.00
1536, 1707.00
1537, 1707.00
1538, 1708.00
1539, 1711.00
1540, 1711.00
1541, 1712.00
1542, 1713.00
1543, 1715.00
1544, 1717.00
1545, 1716.00
1546, 1719.00
1547, 1719.00
1548, 1720.00
1549, 1721.00
1550, 1723.00
1551, 1724.00
1552, 1726.00
1553, 1726.00
1554, 1727.00
1555, 1729.00
1556, 1731.00
1557, 1732.00
1558, 1733.00
1559, 1735.00
1560, 1737.00
1561, 1737.00
1562, 1738.00
1563, 1741.00
1564, 1741.00
1565, 1744.00
1566, 1745.00
1567, 1745.00
1568, 1747.00
1569, 1748.00
1570, 1750.00
1571, 1751.00
1572, 1752.00
1573, 1754.00
1574, 1755.00
1575, 1756.00
1576, 1759.00
1577, 1760.00
1578, 1762.00
1579, 1762.00
1580, 1763.00
1581, 1763.00
1582, 1766.00
1583, 1765.00
1584, 1767.00
1585, 1768.00
1586, 1770.00
1587, 1772.00
1588, 1772.00
1589, 1774.00
1590, 1775.00
1591, 1777.00
1592, 1777.00
1593, 1778.00
1594, 1780.00
1595, 1781.00
1596, 1783.00
1597, 1784.00
1598, 1785.00
1599, 1786.00
1600, 1788.00
1601, 1789.00
1602, 1790.00
1603, 1792.00
1604, 1793.00
1605, 1794.00
1606, 1796.00
1607, 1798.00
1608, 1798.00
1609, 1800.00
1610, 1801.00
1611, 1803.00
1612, 1804.00
1613, 1805.00
1614, 1808.00
1615, 1809.00
1616, 1811.00
1617, 1813.00
1618, 1813.00
1619, 1816.00
1620, 1817.00
1621, 1818.00
1622, 1820.00
1623, 1822.00
1624, 1823.00
1625, 1825.00
1626, 1827.00
1627, 1826.00
1628, 1830.00
1629, 1832.00
1630, 1833.00
1631, 1834.00
1632, 1834.00
1633, 1836.00
1634, 1837.00
1635, 1839.00
1636, 1841.00
1637, 1842.00
1638, 1842.00
1639, 1843.00
1640, 1846.00
1641, 1847.00
1642, 1848.00
1643, 1849.00
1644, 1850.00
1645, 1852.00
1646, 1853.00
1647, 1854.00
1648, 1854.00
1649, 1857.00
1650, 1860.00

1750, 2325.00
1751, 2329.00
1752, 2328.00
1753, 2328.00
1754, 2326.00
1755, 2329.00
1756, 2328.00
1757, 2325.00
1758, 2327.00
1759, 2326.00
1760, 2329.00
1761, 2328.00
1762, 2326.00
1763, 2326.00
1764, 2326.00
1765, 2326.00
1766, 2324.00
1767, 2325.00
1768, 2325.00
1769, 2326.00
1770, 2325.00
1771, 2323.00
1772, 2326.00
1773, 2322.00
1774, 2323.00
1775, 2322.00
1776, 2323.00
1777, 2323.00
1778, 2322.00
1779, 2321.00
1780, 2322.00
1781, 2321.00
1782, 2321.00
1783, 2320.00
1784, 2319.00
1785, 2318.00
1786, 2318.00
1787, 2318.00
1788, 2318.00
1789, 2316.00
1790, 2315.00
1791, 2314.00
1792, 2315.00
1793, 2315.00
1794, 2313.00
1795, 2313.00
1796, 2311.00
1797, 2312.00
1798, 2312.00
1799, 2311.00
1800, 2311.00
1801, 2311.00
1802, 2311.00
1803, 2310.00
1804, 2307.00
1805, 2309.00
1806, 2307.00
1807, 2308.00
1808, 2305.00
1809, 2308.00
1810, 2308.00
1811, 2305.00
1812, 2305.00
1813, 2306.00
1814, 2304.00
1815, 2303.00
1816, 2304.00
1817, 2303.00
1818, 2302.00
1819, 2301.00
1820, 2300.00
1821, 2300.00
1822, 2299.00
1823, 2297.00
1824, 2296.00
1825, 2294.00
1826, 2295.00
1827, 2292.00
1828, 2293.00
1829, 2289.00
1830, 2290.00
1831, 2287.00
1832, 2286.00
1833, 2282.00
1834, 2284.00
1835, 2281.00
1836, 2280.00
1837, 2276.00
1838, 2273.00
1839, 2273.00
1840, 2272.00
1841, 2270.00
1842, 2267.00
1843, 2264.00
1844, 2262.00
1845, 2260.00
1846, 2257.00
1847, 2254.00
1848, 2253.00
1849, 2251.00
1850, 2247.00
1851, 2245.00
1852, 2242.00
1853, 2242.00
1854, 2238.00
1855, 2236.00
1856, 2234.00
1857, 2231.00
1858, 2227.00
1859, 2227.00
1860, 2225.00
1861, 2221.00
1862, 2220.00
1863, 2218.00
1864, 2216.00
1865, 2215.00
1866, 2211.00
1867, 2210.00
1868, 2209.00
1869, 2209.00
1870, 2205.00
1871, 2204.00
1872, 2203.00
1873, 2203.00
1874, 2200.00
1875, 2200.00
1876, 2199.00
1877, 2198.00
1878, 2197.00
1879, 2196.00
1880, 2195.00
1881, 2194.00
1882, 2194.00
1883, 2191.00
1884, 2191.00
1885, 2190.00
1886, 2190.00
1887, 2188.00
1888, 2189.00
1889, 2188.00
1890, 2187.00
1891, 2186.00
1892, 2185.00
1893, 2185.00
1894, 2186.00
1895, 2185.00
1896, 2184.00
1897, 2184.00
1898, 2185.00
1899, 2184.00
1900, 2183.00
1901, 2182.00
1902, 2182.00
1903, 2180.00
1904, 2181.00
1905, 2180.00
1906, 2181.00
1907, 2181.00
1908, 2180.00
1909, 2180.00
1910, 2179.00
1911, 2180.00
1912, 2178.00
1913, 2179.00
1914, 2179.00
1915, 2179.00
1916, 2177.00
1917, 2178.00
1918, 2179.00
1919, 2181.00
1920, 2178.00
1921, 2178.00
1922, 2178.00
1923, 2179.00
1924, 2179.00
1925, 2177.00
1926, 2180.00
1927, 2178.00
1928, 2178.00
1929, 2177.00
1930, 2178.00
1931, 2179.00
1932, 2178.00
1933, 2177.00
1934, 2178.00
1935, 2179.00
1936, 2179.00
1937, 2180.00
1938, 2180.00
1939, 2178.00
1940, 2180.00
1941, 2180.00
1942, 2180.00
1943, 2180.00
1944, 2180.00
1945, 2179.00
1946, 2182.00
1947, 2181.00
1948, 2182.00
1949, 2181.00
1950, 2183.00
1951, 2182.00
1952, 2183.00
1953, 2183.00
1954, 2186.00
1955, 2185.00
1956, 2183.00
1957, 2185.00
1958, 2185.00
1959, 2186.00
1960, 2185.00
1961, 2187.00
1962, 2187.00
1963, 2185.00
1964, 2189.00
1965, 2189.00
1966, 2189.00
1967, 2189.00
1968, 2190.00
1969, 2190.00
1970, 2191.00
1971, 2192.00
1972, 2192.00
1973, 2193.00
1974, 2194.00
1975, 2194.00
1976, 2195.00
1977, 2193.00
1978, 2196.00
1979, 2196.00
1980, 2197.00
1981, 2198.00
1982, 2199.00
1983, 2197.00
1984, 2198.00
1985, 2198.00
1986, 2200.00
1987, 2202.00
1988, 2201.00
1989, 2203.00
1990, 2203.00
1991, 2203.00
1992, 2204.00
1993, 2205.00
1994, 2205.00
1995, 2205.00
1996, 2206.00
1997, 2205.00
1998, 2207.00
1999, 2207.00
2000, 2209.00
2001, 2208.00
2002, 2208.00
2003, 2210.00
2004, 2212.00
2005, 2211.00
2006, 2211.00
2007, 2213.00
2008, 2213.00
2009, 2213.00
2010, 2215.00
2011, 2215.00
2012, 2216.00
2013, 2215.00
2014, 2217.00
2015, 2216.00
2016, 2217.00
2017, 2216.00
2018, 2219.00
2019, 2219.00
2020, 2221.00
2021, 2220.00
2022, 2218.00
2023, 2220.00
2024, 2224.00
2025, 2222.00
2026, 2224.00
2027, 2223.00
2028, 2225.00
2029, 2225.00
2030, 2227.00
2031, 2228.00
2032, 2227.00
2033, 2228.00
2034, 2227.00
2035, 2229.00
2036, 2231.00
2037, 2231.00
2038, 2231.00
2039, 2233.00
2040, 2232.00
2041, 2233.00
2042, 2235.00
2043, 2235.00
2044, 2235.00
2045, 2237.00
2046, 2237.00
2047, 2240.00
2048, 2240.00
2049, 2239.00
2050, 2240.00
2051, 2241.00
2052, 2244.00
2053, 2243.00
2054, 2245.00
2055, 2247.00
2056, 2248.00
2057, 2247.00
2058, 2248.00
2059, 2249.00
2060, 2252.00
2061, 2250.00
2062, 2253.00
2063, 2253.00
2064, 2253.00
2065, 2255.00
2066, 2256.00
2067, 2256.00
2068, 2255.00
2069, 2258.00
2070, 2260.00
2071, 2260.00
2072, 2261.00
2073, 2264.00
2074, 2262.00
2075, 2262.00
2076, 2263.00
2077, 2265.00
2078, 2264.00
2079, 2266.00
2080, 2269.00
2081, 2269.00
2082, 2269.00
2083, 2270.00
2084, 2270.00
2085, 2271.00
2086, 2273.00
2087, 2271.00
2088, 2271.00
2089, 2273.00
2090, 2273.00
2091, 2275.00
2092, 2275.00
2093, 2276.00
2094, 2276.00
2095, 2276.00
2096, 2277.00
2097, 2278.00
2098, 2280.00
2099, 2280.00
2100, 2280.00
2101, 2281.00
2102, 2281.00
2103, 2283.00
2104, 2283.00
2105, 2281.00
2106, 2283.00
2107, 2284.00
2108, 2286.00
2109, 2285.00
2110, 2287.00
2111, 2285.00
2112, 2287.00
2113, 2286.00
2114, 2285.00
2115, 2286.00
2116, 2286.00
2117, 2288.00
2118, 2289.00
2119, 2287.00
2120, 2289.00
2121, 2289.00
2122, 2288.00
2123, 2290.00
2124, 2289.00
2125, 2292.00
2126, 2291.00
2127, 2290.00
2128, 2292.00
2129, 2293.00
2130, 2291.00
2131, 2293.00
2132, 2292.00
2133, 2294.00
2134, 2293.00
2135, 2295.00
2136, 2293.00
2137, 2295.00
2138, 2295.00
2139, 2293.00
2140, 2296.00
2141, 2297.00
2142, 2297.00
2143, 2295.00
2144, 2297.00
2145, 2297.00
2146, 2296.00
2147, 2298.00
2148, 2297.00
2149, 2298.00
2150, 2298.00
