FW version: 24
Log Version: 3.0.3

General Info:
       Command/Macro Performed,            Timestamp,             Device ID, COM Port, UART/I2C, Test Name, Host Major, Host Minor, Host Revision, Host Git Commit
            Single_measurement,  2023_07_04_11_30_38,       Insight2_F4_xxx,    USB-C,      USB,          ,          0,          1,             1,      4031237645

Show Spectrometer Status:
l0_version, f4_version, battery_perc, battery_mVolt, accelerometer_temp, accelerometer_x, accelerometer_y, accelerometer_z, compass_temp, compass_x, compass_y, compass_z, lamp_0, lamp_1, gain_0, gain_1
        17,         24,           27,          1867,               6272,           64912,            2436,           19256,            0,     65489,     65468,     19326,   2457,   2457,      1,      1

Temperature Statistic Info:
NTC AVG [°C], NTC2 AVG [°C]
      38.911,        38.595

Statistic Info:
M1:  num,      min,      max,   median,      AVG,      STD,M2:  num,      min,      max,   median,      AVG,      STD
     301,  1197.00,  1386.00,  1237.00,  1259.13,  58.9813,     401,  1682.00,  1800.00,  1735.00,  1737.10,  39.2208,

Measurements:
Wavelength, Data Amplitude
1350, 1226.00
1351, 1225.00
1352, 1225.00
1353, 1224.00
1354, 1222.00
1355, 1223.00
1356, 1223.00
1357, 1221.00
1358, 1222.00
1359, 1221.00
1360, 1221.00
1361, 1220.00
1362, 1219.00
1363, 1218.00
1364, 1217.00
1365, 1217.00
1366, 1216.00
1367, 1215.00
1368, 1214.00
1369, 1214.00
1370, 1213.00
1371, 1212.00
1372, 1211.00
1373, 1210.00
1374, 1209.00
1375, 1209.00
1376, 1209.00
1377, 1207.00
1378, 1206.00
1379, 1206.00
1380, 1207.00
1381, 1206.00
1382, 1204.00
1383, 1204.00
1384, 1203.00
1385, 1203.00
1386, 1202.00
1387, 1201.00
1388, 1201.00
1389, 1202.00
1390, 1202.00
1391, 1201.00
1392, 1200.00
1393, 1201.00
1394, 1200.00
1395, 1200.00
1396, 1200.00
1397, 1199.00
1398, 1199.00
1399, 1199.00
1400, 1199.00
1401, 1198.00
1402, 1199.00
1403, 1197.00
1404, 1198.00
1405, 1198.00
1406, 1197.00
1407, 1198.00
1408, 1197.00
1409, 1198.00
1410, 1198.00
1411, 1197.00
1412, 1197.00
1413, 1198.00
1414, 1197.00
1415, 1197.00
1416, 1197.00
1417, 1197.00
1418, 1197.00
1419, 1197.00
1420, 1197.00
1421, 1198.00
1422, 1197.00
1423, 1197.00
1424, 1197.00
1425, 1198.00
1426, 1198.00
1427, 1197.00
1428, 1198.00
1429, 1199.00
1430, 1200.00
1431, 1199.00
1432, 1198.00
1433, 1200.00
1434, 1199.00
1435, 1200.00
1436, 1200.00
1437, 1200.00
1438, 1200.00
1439, 1201.00
1440, 1201.00
1441, 1201.00
1442, 1202.00
1443, 1202.00
1444, 1203.00
1445, 1202.00
1446, 1203.00
1447, 1203.00
1448, 1203.00
1449, 1205.00
1450, 1204.00
1451, 1205.00
1452, 1206.00
1453, 1206.00
1454, 1206.00
1455, 1207.00
1456, 1206.00
1457, 1207.00
1458, 1209.00
1459, 1209.00
1460, 1209.00
1461, 1210.00
1462, 1210.00
1463, 1211.00
1464, 1212.00
1465, 1212.00
1466, 1213.00
1467, 1214.00
1468, 1215.00
1469, 1214.00
1470, 1215.00
1471, 1216.00
1472, 1216.00
1473, 1216.00
1474, 1217.00
1475, 1218.00
1476, 1219.00
1477, 1220.00
1478, 1221.00
1479, 1221.00
1480, 1222.00
1481, 1223.00
1482, 1223.00
1483, 1224.00
1484, 1225.00
1485, 1226.00
1486, 1226.00
1487, 1228.00
1488, 1228.00
1489, 1229.00
1490, 1229.00
1491, 1230.00
1492, 1230.00
1493, 1231.00
1494, 1232.00
1495, 1233.00
1496, 1234.00
1497, 1235.00
1498, 1236.00
1499, 1236.00
1500, 1237.00
1501, 1238.00
1502, 1239.00
1503, 1240.00
1504, 1241.00
1505, 1241.00
1506, 1241.00
1507, 1243.00
1508, 1244.00
1509, 1244.00
1510, 1245.00
1511, 1246.00
1512, 1247.00
1513, 1248.00
1514, 1249.00
1515, 1249.00
1516, 1250.00
1517, 1251.00
1518, 1252.00
1519, 1253.00
1520, 1253.00
1521, 1255.00
1522, 1256.00
1523, 1257.00
1524, 1258.00
1525, 1259.00
1526, 1259.00
1527, 1260.00
1528, 1262.00
1529, 1263.00
1530, 1264.00
1531, 1264.00
1532, 1266.00
1533, 1266.00
1534, 1267.00
1535, 1268.00
1536, 1270.00
1537, 1270.00
1538, 1271.00
1539, 1271.00
1540, 1272.00
1541, 1273.00
1542, 1274.00
1543, 1276.00
1544, 1276.00
1545, 1278.00
1546, 1278.00
1547, 1280.00
1548, 1281.00
1549, 1282.00
1550, 1283.00
1551, 1283.00
1552, 1284.00
1553, 1285.00
1554, 1286.00
1555, 1287.00
1556, 1288.00
1557, 1290.00
1558, 1291.00
1559, 1291.00
1560, 1293.00
1561, 1294.00
1562, 1294.00
1563, 1296.00
1564, 1297.00
1565, 1297.00
1566, 1299.00
1567, 1299.00
1568, 1301.00
1569, 1302.00
1570, 1303.00
1571, 1303.00
1572, 1305.00
1573, 1305.00
1574, 1307.00
1575, 1307.00
1576, 1308.00
1577, 1308.00
1578, 1309.00
1579, 1312.00
1580, 1312.00
1581, 1314.00
1582, 1314.00
1583, 1315.00
1584, 1316.00
1585, 1318.00
1586, 1318.00
1587, 1319.00
1588, 1319.00
1589, 1320.00
1590, 1322.00
1591, 1323.00
1592, 1323.00
1593, 1324.00
1594, 1326.00
1595, 1326.00
1596, 1328.00
1597, 1329.00
1598, 1330.00
1599, 1330.00
1600, 1331.00
1601, 1333.00
1602, 1333.00
1603, 1334.00
1604, 1335.00
1605, 1336.00
1606, 1337.00
1607, 1339.00
1608, 1339.00
1609, 1341.00
1610, 1342.00
1611, 1343.00
1612, 1344.00
1613, 1345.00
1614, 1347.00
1615, 1348.00
1616, 1349.00
1617, 1350.00
1618, 1352.00
1619, 1353.00
1620, 1355.00
1621, 1355.00
1622, 1356.00
1623, 1357.00
1624, 1358.00
1625, 1360.00
1626, 1361.00
1627, 1361.00
1628, 1363.00
1629, 1365.00
1630, 1366.00
1631, 1367.00
1632, 1368.00
1633, 1369.00
1634, 1370.00
1635, 1371.00
1636, 1372.00
1637, 1374.00
1638, 1374.00
1639, 1375.00
1640, 1375.00
1641, 1376.00
1642, 1378.00
1643, 1379.00
1644, 1380.00
1645, 1381.00
1646, 1381.00
1647, 1383.00
1648, 1383.00
1649, 1385.00
1650, 1386.00

1750, 1799.00
1751, 1797.00
1752, 1799.00
1753, 1798.00
1754, 1798.00
1755, 1798.00
1756, 1798.00
1757, 1798.00
1758, 1798.00
1759, 1798.00
1760, 1799.00
1761, 1798.00
1762, 1800.00
1763, 1798.00
1764, 1800.00
1765, 1798.00
1766, 1798.00
1767, 1797.00
1768, 1798.00
1769, 1797.00
1770, 1798.00
1771, 1797.00
1772, 1798.00
1773, 1797.00
1774, 1796.00
1775, 1797.00
1776, 1795.00
1777, 1794.00
1778, 1794.00
1779, 1794.00
1780, 1793.00
1781, 1794.00
1782, 1794.00
1783, 1793.00
1784, 1793.00
1785, 1791.00
1786, 1793.00
1787, 1791.00
1788, 1790.00
1789, 1789.00
1790, 1790.00
1791, 1789.00
1792, 1789.00
1793, 1790.00
1794, 1787.00
1795, 1788.00
1796, 1788.00
1797, 1789.00
1798, 1787.00
1799, 1789.00
1800, 1787.00
1801, 1787.00
1802, 1786.00
1803, 1786.00
1804, 1785.00
1805, 1785.00
1806, 1784.00
1807, 1785.00
1808, 1785.00
1809, 1782.00
1810, 1784.00
1811, 1783.00
1812, 1783.00
1813, 1781.00
1814, 1784.00
1815, 1780.00
1816, 1780.00
1817, 1781.00
1818, 1779.00
1819, 1779.00
1820, 1779.00
1821, 1776.00
1822, 1778.00
1823, 1777.00
1824, 1774.00
1825, 1775.00
1826, 1775.00
1827, 1772.00
1828, 1773.00
1829, 1772.00
1830, 1769.00
1831, 1769.00
1832, 1768.00
1833, 1767.00
1834, 1765.00
1835, 1765.00
1836, 1761.00
1837, 1760.00
1838, 1759.00
1839, 1759.00
1840, 1755.00
1841, 1756.00
1842, 1753.00
1843, 1751.00
1844, 1750.00
1845, 1746.00
1846, 1747.00
1847, 1746.00
1848, 1742.00
1849, 1740.00
1850, 1740.00
1851, 1735.00
1852, 1736.00
1853, 1734.00
1854, 1729.00
1855, 1730.00
1856, 1729.00
1857, 1727.00
1858, 1723.00
1859, 1723.00
1860, 1719.00
1861, 1719.00
1862, 1718.00
1863, 1715.00
1864, 1713.00
1865, 1711.00
1866, 1713.00
1867, 1709.00
1868, 1708.00
1869, 1708.00
1870, 1705.00
1871, 1705.00
1872, 1704.00
1873, 1702.00
1874, 1703.00
1875, 1699.00
1876, 1700.00
1877, 1699.00
1878, 1698.00
1879, 1697.00
1880, 1698.00
1881, 1697.00
1882, 1696.00
1883, 1694.00
1884, 1695.00
1885, 1693.00
1886, 1693.00
1887, 1693.00
1888, 1693.00
1889, 1691.00
1890, 1691.00
1891, 1690.00
1892, 1689.00
1893, 1689.00
1894, 1690.00
1895, 1690.00
1896, 1688.00
1897, 1688.00
1898, 1688.00
1899, 1690.00
1900, 1686.00
1901, 1689.00
1902, 1687.00
1903, 1687.00
1904, 1684.00
1905, 1685.00
1906, 1686.00
1907, 1685.00
1908, 1685.00
1909, 1685.00
1910, 1685.00
1911, 1684.00
1912, 1685.00
1913, 1685.00
1914, 1685.00
1915, 1683.00
1916, 1684.00
1917, 1682.00
1918, 1684.00
1919, 1684.00
1920, 1682.00
1921, 1683.00
1922, 1684.00
1923, 1684.00
1924, 1684.00
1925, 1683.00
1926, 1684.00
1927, 1683.00
1928, 1683.00
1929, 1684.00
1930, 1683.00
1931, 1684.00
1932, 1683.00
1933, 1685.00
1934, 1683.00
1935, 1683.00
1936, 1685.00
1937, 1683.00
1938, 1686.00
1939, 1686.00
1940, 1685.00
1941, 1685.00
1942, 1685.00
1943, 1687.00
1944, 1687.00
1945, 1686.00
1946, 1686.00
1947, 1686.00
1948, 1686.00
1949, 1687.00
1950, 1687.00
1951, 1687.00
1952, 1688.00
1953, 1688.00
1954, 1689.00
1955, 1688.00
1956, 1689.00
1957, 1690.00
1958, 1690.00
1959, 1690.00
1960, 1688.00
1961, 1691.00
1962, 1689.00
1963, 1690.00
1964, 1691.00
1965, 1693.00
1966, 1693.00
1967, 1691.00
1968, 1694.00
1969, 1694.00
1970, 1696.00
1971, 1694.00
1972, 1695.00
1973, 1693.00
1974, 1696.00
1975, 1697.00
1976, 1696.00
1977, 1698.00
1978, 1697.00
1979, 1699.00
1980, 1698.00
1981, 1700.00
1982, 1698.00
1983, 1701.00
1984, 1701.00
1985, 1702.00
1986, 1701.00
1987, 1702.00
1988, 1702.00
1989, 1702.00
1990, 1701.00
1991, 1703.00
1992, 1705.00
1993, 1704.00
1994, 1706.00
1995, 1705.00
1996, 1706.00
1997, 1705.00
1998, 1707.00
1999, 1706.00
2000, 1706.00
2001, 1708.00
2002, 1710.00
2003, 1710.00
2004, 1709.00
2005, 1709.00
2006, 1711.00
2007, 1712.00
2008, 1711.00
2009, 1712.00
2010, 1712.00
2011, 1711.00
2012, 1711.00
2013, 1713.00
2014, 1715.00
2015, 1715.00
2016, 1716.00
2017, 1716.00
2018, 1716.00
2019, 1716.00
2020, 1718.00
2021, 1718.00
2022, 1719.00
2023, 1719.00
2024, 1720.00
2025, 1719.00
2026, 1721.00
2027, 1721.00
2028, 1720.00
2029, 1721.00
2030, 1720.00
2031, 1723.00
2032, 1724.00
2033, 1723.00
2034, 1724.00
2035, 1724.00
2036, 1724.00
2037, 1726.00
2038, 1727.00
2039, 1728.00
2040, 1727.00
2041, 1728.00
2042, 1728.00
2043, 1731.00
2044, 1730.00
2045, 1731.00
2046, 1733.00
2047, 1733.00
2048, 1734.00
2049, 1735.00
2050, 1734.00
2051, 1735.00
2052, 1735.00
2053, 1735.00
2054, 1738.00
2055, 1738.00
2056, 1738.00
2057, 1739.00
2058, 1740.00
2059, 1741.00
2060, 1741.00
2061, 1741.00
2062, 1744.00
2063, 1745.00
2064, 1743.00
2065, 1743.00
2066, 1749.00
2067, 1744.00
2068, 1747.00
2069, 1748.00
2070, 1749.00
2071, 1750.00
2072, 1750.00
2073, 1750.00
2074, 1750.00
2075, 1750.00
2076, 1753.00
2077, 1754.00
2078, 1754.00
2079, 1754.00
2080, 1755.00
2081, 1755.00
2082, 1757.00
2083, 1755.00
2084, 1757.00
2085, 1758.00
2086, 1757.00
2087, 1758.00
2088, 1758.00
2089, 1760.00
2090, 1760.00
2091, 1762.00
2092, 1762.00
2093, 1763.00
2094, 1763.00
2095, 1763.00
2096, 1762.00
2097, 1764.00
2098, 1765.00
2099, 1765.00
2100, 1767.00
2101, 1766.00
2102, 1766.00
2103, 1768.00
2104, 1768.00
2105, 1767.00
2106, 1768.00
2107, 1767.00
2108, 1768.00
2109, 1769.00
2110, 1769.00
2111, 1770.00
2112, 1769.00
2113, 1771.00
2114, 1770.00
2115, 1772.00
2116, 1771.00
2117, 1771.00
2118, 1771.00
2119, 1773.00
2120, 1772.00
2121, 1773.00
2122, 1774.00
2123, 1773.00
2124, 1773.00
2125, 1773.00
2126, 1773.00
2127, 1772.00
2128, 1775.00
2129, 1775.00
2130, 1776.00
2131, 1775.00
2132, 1776.00
2133, 1777.00
2134, 1775.00
2135, 1777.00
2136, 1777.00
2137, 1775.00
2138, 1777.00
2139, 1778.00
2140, 1777.00
2141, 1778.00
2142, 1779.00
2143, 1778.00
2144, 1779.00
2145, 1778.00
2146, 1779.00
2147, 1778.00
2148, 1781.00
2149, 1780.00
2150, 1780.00
