FW version: 24
Log Version: 3.0.3

General Info:
       Command/Macro Performed,            Timestamp,             Device ID, COM Port, UART/I2C, Test Name, Host Major, Host Minor, Host Revision, Host Git Commit
            Single_measurement,  2023_06_28_12_01_35,       Insight2_F4_xxx,    USB-C,      USB,          ,          0,          1,             1,      4031237645

Show Spectrometer Status:
l0_version, f4_version, battery_perc, battery_mVolt, accelerometer_temp, accelerometer_x, accelerometer_y, accelerometer_z, compass_temp, compass_x, compass_y, compass_z, lamp_0, lamp_1, gain_0, gain_1
        17,         24,           48,          1906,               6576,           65208,            1128,           18772,            0,     65535,     65514,     18781,   2047,   2047,      1,      1

Temperature Statistic Info:
NTC AVG [°C], NTC2 AVG [°C]
      40.203,        39.908

Statistic Info:
M1:  num,      min,      max,   median,      AVG,      STD,M2:  num,      min,      max,   median,      AVG,      STD
     301,   620.00,   719.00,   642.00,   653.38,  31.3263,     401,   951.00,  1007.00,   974.00,   976.07,  17.9858,

Measurements:
Wavelength, Data Amplitude
1350, 635.00
1351, 634.00
1352, 634.00
1353, 634.00
1354, 632.00
1355, 632.00
1356, 633.00
1357, 632.00
1358, 631.00
1359, 632.00
1360, 632.00
1361, 631.00
1362, 631.00
1363, 630.00
1364, 629.00
1365, 630.00
1366, 629.00
1367, 628.00
1368, 628.00
1369, 627.00
1370, 627.00
1371, 627.00
1372, 626.00
1373, 626.00
1374, 626.00
1375, 626.00
1376, 625.00
1377, 624.00
1378, 624.00
1379, 624.00
1380, 623.00
1381, 624.00
1382, 623.00
1383, 622.00
1384, 623.00
1385, 622.00
1386, 622.00
1387, 622.00
1388, 622.00
1389, 621.00
1390, 622.00
1391, 622.00
1392, 622.00
1393, 622.00
1394, 620.00
1395, 621.00
1396, 621.00
1397, 622.00
1398, 621.00
1399, 621.00
1400, 621.00
1401, 620.00
1402, 620.00
1403, 620.00
1404, 620.00
1405, 622.00
1406, 621.00
1407, 621.00
1408, 620.00
1409, 620.00
1410, 621.00
1411, 620.00
1412, 620.00
1413, 621.00
1414, 620.00
1415, 621.00
1416, 620.00
1417, 620.00
1418, 620.00
1419, 620.00
1420, 620.00
1421, 621.00
1422, 621.00
1423, 621.00
1424, 621.00
1425, 621.00
1426, 621.00
1427, 621.00
1428, 621.00
1429, 621.00
1430, 621.00
1431, 621.00
1432, 621.00
1433, 621.00
1434, 623.00
1435, 623.00
1436, 621.00
1437, 622.00
1438, 622.00
1439, 622.00
1440, 623.00
1441, 623.00
1442, 623.00
1443, 623.00
1444, 624.00
1445, 624.00
1446, 624.00
1447, 624.00
1448, 624.00
1449, 624.00
1450, 625.00
1451, 625.00
1452, 625.00
1453, 625.00
1454, 626.00
1455, 625.00
1456, 626.00
1457, 626.00
1458, 626.00
1459, 627.00
1460, 627.00
1461, 628.00
1462, 628.00
1463, 627.00
1464, 629.00
1465, 629.00
1466, 629.00
1467, 629.00
1468, 629.00
1469, 630.00
1470, 630.00
1471, 630.00
1472, 631.00
1473, 630.00
1474, 632.00
1475, 633.00
1476, 633.00
1477, 634.00
1478, 634.00
1479, 634.00
1480, 634.00
1481, 634.00
1482, 635.00
1483, 635.00
1484, 635.00
1485, 636.00
1486, 638.00
1487, 637.00
1488, 637.00
1489, 638.00
1490, 638.00
1491, 638.00
1492, 640.00
1493, 639.00
1494, 640.00
1495, 640.00
1496, 641.00
1497, 641.00
1498, 642.00
1499, 642.00
1500, 642.00
1501, 643.00
1502, 643.00
1503, 644.00
1504, 644.00
1505, 645.00
1506, 645.00
1507, 645.00
1508, 646.00
1509, 646.00
1510, 646.00
1511, 647.00
1512, 648.00
1513, 648.00
1514, 650.00
1515, 649.00
1516, 650.00
1517, 651.00
1518, 650.00
1519, 652.00
1520, 651.00
1521, 653.00
1522, 653.00
1523, 653.00
1524, 654.00
1525, 655.00
1526, 655.00
1527, 656.00
1528, 656.00
1529, 657.00
1530, 657.00
1531, 658.00
1532, 657.00
1533, 658.00
1534, 659.00
1535, 660.00
1536, 660.00
1537, 660.00
1538, 661.00
1539, 662.00
1540, 663.00
1541, 663.00
1542, 663.00
1543, 663.00
1544, 664.00
1545, 664.00
1546, 665.00
1547, 665.00
1548, 665.00
1549, 666.00
1550, 667.00
1551, 667.00
1552, 667.00
1553, 668.00
1554, 669.00
1555, 669.00
1556, 669.00
1557, 670.00
1558, 670.00
1559, 671.00
1560, 671.00
1561, 673.00
1562, 674.00
1563, 673.00
1564, 673.00
1565, 675.00
1566, 675.00
1567, 675.00
1568, 675.00
1569, 677.00
1570, 677.00
1571, 677.00
1572, 677.00
1573, 679.00
1574, 678.00
1575, 679.00
1576, 680.00
1577, 680.00
1578, 681.00
1579, 682.00
1580, 681.00
1581, 682.00
1582, 683.00
1583, 683.00
1584, 684.00
1585, 684.00
1586, 685.00
1587, 686.00
1588, 685.00
1589, 686.00
1590, 687.00
1591, 687.00
1592, 688.00
1593, 689.00
1594, 689.00
1595, 688.00
1596, 689.00
1597, 690.00
1598, 690.00
1599, 691.00
1600, 691.00
1601, 692.00
1602, 693.00
1603, 693.00
1604, 694.00
1605, 695.00
1606, 695.00
1607, 696.00
1608, 696.00
1609, 697.00
1610, 697.00
1611, 697.00
1612, 698.00
1613, 699.00
1614, 700.00
1615, 700.00
1616, 700.00
1617, 703.00
1618, 702.00
1619, 703.00
1620, 703.00
1621, 705.00
1622, 705.00
1623, 704.00
1624, 706.00
1625, 707.00
1626, 707.00
1627, 708.00
1628, 708.00
1629, 709.00
1630, 710.00
1631, 710.00
1632, 711.00
1633, 712.00
1634, 711.00
1635, 712.00
1636, 713.00
1637, 713.00
1638, 713.00
1639, 714.00
1640, 714.00
1641, 716.00
1642, 715.00
1643, 715.00
1644, 716.00
1645, 716.00
1646, 717.00
1647, 717.00
1648, 718.00
1649, 719.00
1650, 719.00

1750, 1007.00
1751, 1007.00
1752, 1005.00
1753, 1004.00
1754, 1006.00
1755, 1005.00
1756, 1005.00
1757, 1005.00
1758, 1005.00
1759, 1006.00
1760, 1007.00
1761, 1006.00
1762, 1005.00
1763, 1005.00
1764, 1006.00
1765, 1006.00
1766, 1005.00
1767, 1006.00
1768, 1006.00
1769, 1005.00
1770, 1005.00
1771, 1004.00
1772, 1005.00
1773, 1005.00
1774, 1005.00
1775, 1005.00
1776, 1004.00
1777, 1004.00
1778, 1004.00
1779, 1004.00
1780, 1004.00
1781, 1002.00
1782, 1003.00
1783, 1002.00
1784, 1004.00
1785, 1003.00
1786, 1002.00
1787, 1001.00
1788, 1001.00
1789, 1001.00
1790, 1003.00
1791, 1001.00
1792, 1002.00
1793, 1002.00
1794, 1001.00
1795, 1000.00
1796, 1001.00
1797, 1001.00
1798, 1001.00
1799, 999.00
1800, 998.00
1801, 999.00
1802, 999.00
1803, 1001.00
1804, 999.00
1805, 999.00
1806, 998.00
1807, 1000.00
1808, 999.00
1809, 998.00
1810, 999.00
1811, 997.00
1812, 996.00
1813, 996.00
1814, 999.00
1815, 998.00
1816, 994.00
1817, 999.00
1818, 997.00
1819, 995.00
1820, 996.00
1821, 996.00
1822, 994.00
1823, 993.00
1824, 995.00
1825, 994.00
1826, 993.00
1827, 992.00
1828, 993.00
1829, 991.00
1830, 990.00
1831, 991.00
1832, 989.00
1833, 990.00
1834, 988.00
1835, 989.00
1836, 987.00
1837, 986.00
1838, 986.00
1839, 985.00
1840, 984.00
1841, 983.00
1842, 981.00
1843, 980.00
1844, 981.00
1845, 979.00
1846, 979.00
1847, 978.00
1848, 976.00
1849, 976.00
1850, 975.00
1851, 975.00
1852, 974.00
1853, 972.00
1854, 974.00
1855, 971.00
1856, 970.00
1857, 970.00
1858, 970.00
1859, 971.00
1860, 968.00
1861, 966.00
1862, 966.00
1863, 967.00
1864, 966.00
1865, 965.00
1866, 966.00
1867, 961.00
1868, 963.00
1869, 963.00
1870, 964.00
1871, 960.00
1872, 961.00
1873, 961.00
1874, 959.00
1875, 960.00
1876, 959.00
1877, 959.00
1878, 960.00
1879, 959.00
1880, 958.00
1881, 959.00
1882, 957.00
1883, 957.00
1884, 958.00
1885, 957.00
1886, 955.00
1887, 958.00
1888, 957.00
1889, 955.00
1890, 957.00
1891, 955.00
1892, 956.00
1893, 954.00
1894, 956.00
1895, 955.00
1896, 954.00
1897, 955.00
1898, 955.00
1899, 954.00
1900, 953.00
1901, 955.00
1902, 954.00
1903, 954.00
1904, 954.00
1905, 955.00
1906, 953.00
1907, 954.00
1908, 954.00
1909, 954.00
1910, 953.00
1911, 953.00
1912, 951.00
1913, 954.00
1914, 953.00
1915, 956.00
1916, 952.00
1917, 953.00
1918, 955.00
1919, 953.00
1920, 952.00
1921, 952.00
1922, 953.00
1923, 953.00
1924, 953.00
1925, 953.00
1926, 952.00
1927, 954.00
1928, 954.00
1929, 954.00
1930, 953.00
1931, 953.00
1932, 951.00
1933, 953.00
1934, 952.00
1935, 951.00
1936, 953.00
1937, 953.00
1938, 951.00
1939, 954.00
1940, 953.00
1941, 953.00
1942, 954.00
1943, 953.00
1944, 953.00
1945, 953.00
1946, 955.00
1947, 954.00
1948, 953.00
1949, 953.00
1950, 954.00
1951, 954.00
1952, 953.00
1953, 954.00
1954, 954.00
1955, 954.00
1956, 954.00
1957, 954.00
1958, 954.00
1959, 954.00
1960, 954.00
1961, 956.00
1962, 954.00
1963, 957.00
1964, 955.00
1965, 955.00
1966, 954.00
1967, 955.00
1968, 956.00
1969, 956.00
1970, 957.00
1971, 957.00
1972, 957.00
1973, 958.00
1974, 958.00
1975, 956.00
1976, 957.00
1977, 956.00
1978, 958.00
1979, 957.00
1980, 959.00
1981, 958.00
1982, 959.00
1983, 959.00
1984, 960.00
1985, 959.00
1986, 960.00
1987, 959.00
1988, 961.00
1989, 961.00
1990, 960.00
1991, 962.00
1992, 960.00
1993, 961.00
1994, 960.00
1995, 962.00
1996, 961.00
1997, 963.00
1998, 962.00
1999, 963.00
2000, 960.00
2001, 963.00
2002, 962.00
2003, 961.00
2004, 962.00
2005, 965.00
2006, 961.00
2007, 963.00
2008, 963.00
2009, 964.00
2010, 965.00
2011, 965.00
2012, 963.00
2013, 965.00
2014, 966.00
2015, 964.00
2016, 966.00
2017, 967.00
2018, 965.00
2019, 968.00
2020, 966.00
2021, 966.00
2022, 966.00
2023, 968.00
2024, 967.00
2025, 969.00
2026, 967.00
2027, 967.00
2028, 967.00
2029, 968.00
2030, 969.00
2031, 967.00
2032, 970.00
2033, 967.00
2034, 967.00
2035, 970.00
2036, 969.00
2037, 968.00
2038, 971.00
2039, 971.00
2040, 969.00
2041, 970.00
2042, 971.00
2043, 972.00
2044, 972.00
2045, 973.00
2046, 973.00
2047, 974.00
2048, 974.00
2049, 972.00
2050, 973.00
2051, 974.00
2052, 976.00
2053, 974.00
2054, 973.00
2055, 976.00
2056, 974.00
2057, 976.00
2058, 976.00
2059, 977.00
2060, 978.00
2061, 975.00
2062, 977.00
2063, 978.00
2064, 978.00
2065, 979.00
2066, 979.00
2067, 979.00
2068, 980.00
2069, 980.00
2070, 981.00
2071, 980.00
2072, 978.00
2073, 982.00
2074, 981.00
2075, 980.00
2076, 983.00
2077, 983.00
2078, 982.00
2079, 981.00
2080, 983.00
2081, 983.00
2082, 984.00
2083, 984.00
2084, 984.00
2085, 984.00
2086, 984.00
2087, 986.00
2088, 986.00
2089, 985.00
2090, 986.00
2091, 986.00
2092, 987.00
2093, 985.00
2094, 987.00
2095, 985.00
2096, 987.00
2097, 987.00
2098, 989.00
2099, 988.00
2100, 986.00
2101, 988.00
2102, 990.00
2103, 989.00
2104, 989.00
2105, 989.00
2106, 990.00
2107, 990.00
2108, 989.00
2109, 989.00
2110, 990.00
2111, 990.00
2112, 991.00
2113, 991.00
2114, 990.00
2115, 990.00
2116, 991.00
2117, 992.00
2118, 991.00
2119, 992.00
2120, 991.00
2121, 989.00
2122, 992.00
2123, 991.00
2124, 991.00
2125, 992.00
2126, 991.00
2127, 992.00
2128, 991.00
2129, 993.00
2130, 992.00
2131, 993.00
2132, 995.00
2133, 994.00
2134, 994.00
2135, 995.00
2136, 995.00
2137, 993.00
2138, 995.00
2139, 995.00
2140, 995.00
2141, 995.00
2142, 995.00
2143, 995.00
2144, 995.00
2145, 994.00
2146, 997.00
2147, 995.00
2148, 995.00
2149, 996.00
2150, 995.00
