FW version: 24
Log Version: 3.0.3

General Info:
       Command/Macro Performed,            Timestamp,             Device ID, COM Port, UART/I2C, Test Name, Host Major, Host Minor, Host Revision, Host Git Commit
            Single_measurement,  2023_06_28_12_02_25,       Insight2_F4_xxx,    USB-C,      USB,          ,          0,          1,             1,      4031237645

Show Spectrometer Status:
l0_version, f4_version, battery_perc, battery_mVolt, accelerometer_temp, accelerometer_x, accelerometer_y, accelerometer_z, compass_temp, compass_x, compass_y, compass_z, lamp_0, lamp_1, gain_0, gain_1
        17,         24,           48,          1901,               6624,           65124,            1084,           18756,            0,     65398,     65470,     18790,   3276,   3276,      1,      1

Temperature Statistic Info:
NTC AVG [°C], NTC2 AVG [°C]
      40.646,        40.263

Statistic Info:
M1:  num,      min,      max,   median,      AVG,      STD,M2:  num,      min,      max,   median,      AVG,      STD
     301,  1565.00,  1795.00,  1614.00,  1641.45,  70.9467,     401,  2118.00,  2243.00,  2165.00,  2170.60,  39.0779,

Measurements:
Wavelength, Data Amplitude
1350, 1609.00
1351, 1607.00
1352, 1607.00
1353, 1607.00
1354, 1604.00
1355, 1604.00
1356, 1604.00
1357, 1602.00
1358, 1601.00
1359, 1601.00
1360, 1601.00
1361, 1600.00
1362, 1598.00
1363, 1597.00
1364, 1594.00
1365, 1595.00
1366, 1593.00
1367, 1593.00
1368, 1591.00
1369, 1589.00
1370, 1588.00
1371, 1587.00
1372, 1587.00
1373, 1585.00
1374, 1584.00
1375, 1584.00
1376, 1583.00
1377, 1580.00
1378, 1581.00
1379, 1580.00
1380, 1578.00
1381, 1579.00
1382, 1577.00
1383, 1576.00
1384, 1576.00
1385, 1574.00
1386, 1575.00
1387, 1574.00
1388, 1574.00
1389, 1572.00
1390, 1573.00
1391, 1573.00
1392, 1572.00
1393, 1572.00
1394, 1571.00
1395, 1570.00
1396, 1570.00
1397, 1570.00
1398, 1570.00
1399, 1570.00
1400, 1568.00
1401, 1570.00
1402, 1569.00
1403, 1569.00
1404, 1569.00
1405, 1570.00
1406, 1569.00
1407, 1568.00
1408, 1568.00
1409, 1568.00
1410, 1568.00
1411, 1568.00
1412, 1568.00
1413, 1567.00
1414, 1568.00
1415, 1566.00
1416, 1566.00
1417, 1568.00
1418, 1567.00
1419, 1565.00
1420, 1567.00
1421, 1567.00
1422, 1567.00
1423, 1567.00
1424, 1567.00
1425, 1568.00
1426, 1567.00
1427, 1568.00
1428, 1568.00
1429, 1567.00
1430, 1567.00
1431, 1568.00
1432, 1569.00
1433, 1569.00
1434, 1569.00
1435, 1569.00
1436, 1570.00
1437, 1570.00
1438, 1571.00
1439, 1571.00
1440, 1571.00
1441, 1571.00
1442, 1571.00
1443, 1572.00
1444, 1572.00
1445, 1573.00
1446, 1573.00
1447, 1574.00
1448, 1574.00
1449, 1573.00
1450, 1575.00
1451, 1575.00
1452, 1576.00
1453, 1577.00
1454, 1578.00
1455, 1577.00
1456, 1578.00
1457, 1579.00
1458, 1579.00
1459, 1580.00
1460, 1579.00
1461, 1581.00
1462, 1581.00
1463, 1583.00
1464, 1583.00
1465, 1584.00
1466, 1585.00
1467, 1585.00
1468, 1586.00
1469, 1586.00
1470, 1588.00
1471, 1588.00
1472, 1588.00
1473, 1588.00
1474, 1589.00
1475, 1591.00
1476, 1592.00
1477, 1592.00
1478, 1593.00
1479, 1594.00
1480, 1595.00
1481, 1596.00
1482, 1596.00
1483, 1597.00
1484, 1598.00
1485, 1600.00
1486, 1600.00
1487, 1602.00
1488, 1602.00
1489, 1603.00
1490, 1604.00
1491, 1604.00
1492, 1605.00
1493, 1607.00
1494, 1608.00
1495, 1609.00
1496, 1609.00
1497, 1610.00
1498, 1611.00
1499, 1612.00
1500, 1614.00
1501, 1614.00
1502, 1615.00
1503, 1615.00
1504, 1618.00
1505, 1618.00
1506, 1619.00
1507, 1620.00
1508, 1621.00
1509, 1622.00
1510, 1623.00
1511, 1624.00
1512, 1625.00
1513, 1625.00
1514, 1627.00
1515, 1629.00
1516, 1629.00
1517, 1631.00
1518, 1631.00
1519, 1633.00
1520, 1635.00
1521, 1635.00
1522, 1635.00
1523, 1637.00
1524, 1639.00
1525, 1640.00
1526, 1640.00
1527, 1642.00
1528, 1643.00
1529, 1644.00
1530, 1645.00
1531, 1645.00
1532, 1647.00
1533, 1649.00
1534, 1650.00
1535, 1650.00
1536, 1652.00
1537, 1653.00
1538, 1655.00
1539, 1655.00
1540, 1656.00
1541, 1657.00
1542, 1659.00
1543, 1660.00
1544, 1661.00
1545, 1662.00
1546, 1663.00
1547, 1665.00
1548, 1666.00
1549, 1667.00
1550, 1667.00
1551, 1670.00
1552, 1670.00
1553, 1672.00
1554, 1672.00
1555, 1673.00
1556, 1674.00
1557, 1676.00
1558, 1677.00
1559, 1679.00
1560, 1680.00
1561, 1681.00
1562, 1683.00
1563, 1683.00
1564, 1685.00
1565, 1685.00
1566, 1688.00
1567, 1689.00
1568, 1690.00
1569, 1693.00
1570, 1693.00
1571, 1694.00
1572, 1696.00
1573, 1697.00
1574, 1699.00
1575, 1700.00
1576, 1701.00
1577, 1703.00
1578, 1703.00
1579, 1705.00
1580, 1706.00
1581, 1707.00
1582, 1707.00
1583, 1709.00
1584, 1710.00
1585, 1711.00
1586, 1711.00
1587, 1713.00
1588, 1715.00
1589, 1716.00
1590, 1716.00
1591, 1718.00
1592, 1719.00
1593, 1721.00
1594, 1721.00
1595, 1723.00
1596, 1724.00
1597, 1725.00
1598, 1726.00
1599, 1728.00
1600, 1729.00
1601, 1730.00
1602, 1732.00
1603, 1733.00
1604, 1733.00
1605, 1735.00
1606, 1736.00
1607, 1738.00
1608, 1739.00
1609, 1740.00
1610, 1742.00
1611, 1743.00
1612, 1744.00
1613, 1746.00
1614, 1747.00
1615, 1749.00
1616, 1750.00
1617, 1750.00
1618, 1753.00
1619, 1755.00
1620, 1756.00
1621, 1757.00
1622, 1759.00
1623, 1761.00
1624, 1762.00
1625, 1763.00
1626, 1764.00
1627, 1766.00
1628, 1767.00
1629, 1769.00
1630, 1771.00
1631, 1771.00
1632, 1773.00
1633, 1774.00
1634, 1775.00
1635, 1778.00
1636, 1778.00
1637, 1780.00
1638, 1780.00
1639, 1782.00
1640, 1783.00
1641, 1783.00
1642, 1785.00
1643, 1786.00
1644, 1788.00
1645, 1788.00
1646, 1789.00
1647, 1791.00
1648, 1791.00
1649, 1793.00
1650, 1795.00

1750, 2239.00
1751, 2239.00
1752, 2240.00
1753, 2241.00
1754, 2243.00
1755, 2238.00
1756, 2239.00
1757, 2240.00
1758, 2240.00
1759, 2239.00
1760, 2239.00
1761, 2241.00
1762, 2240.00
1763, 2239.00
1764, 2239.00
1765, 2239.00
1766, 2239.00
1767, 2240.00
1768, 2238.00
1769, 2239.00
1770, 2238.00
1771, 2238.00
1772, 2239.00
1773, 2237.00
1774, 2237.00
1775, 2236.00
1776, 2237.00
1777, 2235.00
1778, 2235.00
1779, 2236.00
1780, 2233.00
1781, 2236.00
1782, 2234.00
1783, 2231.00
1784, 2231.00
1785, 2233.00
1786, 2231.00
1787, 2231.00
1788, 2232.00
1789, 2229.00
1790, 2232.00
1791, 2231.00
1792, 2227.00
1793, 2227.00
1794, 2229.00
1795, 2231.00
1796, 2227.00
1797, 2227.00
1798, 2226.00
1799, 2225.00
1800, 2225.00
1801, 2225.00
1802, 2223.00
1803, 2224.00
1804, 2223.00
1805, 2223.00
1806, 2224.00
1807, 2224.00
1808, 2223.00
1809, 2221.00
1810, 2222.00
1811, 2221.00
1812, 2220.00
1813, 2219.00
1814, 2219.00
1815, 2218.00
1816, 2218.00
1817, 2217.00
1818, 2216.00
1819, 2216.00
1820, 2215.00
1821, 2215.00
1822, 2212.00
1823, 2212.00
1824, 2211.00
1825, 2211.00
1826, 2207.00
1827, 2207.00
1828, 2204.00
1829, 2206.00
1830, 2205.00
1831, 2203.00
1832, 2202.00
1833, 2200.00
1834, 2199.00
1835, 2197.00
1836, 2197.00
1837, 2195.00
1838, 2191.00
1839, 2192.00
1840, 2190.00
1841, 2188.00
1842, 2186.00
1843, 2185.00
1844, 2182.00
1845, 2181.00
1846, 2178.00
1847, 2178.00
1848, 2175.00
1849, 2172.00
1850, 2171.00
1851, 2169.00
1852, 2167.00
1853, 2166.00
1854, 2164.00
1855, 2163.00
1856, 2160.00
1857, 2158.00
1858, 2157.00
1859, 2156.00
1860, 2155.00
1861, 2153.00
1862, 2151.00
1863, 2148.00
1864, 2148.00
1865, 2148.00
1866, 2146.00
1867, 2146.00
1868, 2144.00
1869, 2142.00
1870, 2140.00
1871, 2141.00
1872, 2139.00
1873, 2140.00
1874, 2137.00
1875, 2137.00
1876, 2138.00
1877, 2135.00
1878, 2133.00
1879, 2134.00
1880, 2134.00
1881, 2134.00
1882, 2133.00
1883, 2130.00
1884, 2131.00
1885, 2131.00
1886, 2131.00
1887, 2129.00
1888, 2130.00
1889, 2129.00
1890, 2128.00
1891, 2128.00
1892, 2126.00
1893, 2129.00
1894, 2128.00
1895, 2128.00
1896, 2126.00
1897, 2126.00
1898, 2126.00
1899, 2124.00
1900, 2126.00
1901, 2126.00
1902, 2124.00
1903, 2124.00
1904, 2123.00
1905, 2122.00
1906, 2125.00
1907, 2122.00
1908, 2123.00
1909, 2122.00
1910, 2122.00
1911, 2123.00
1912, 2122.00
1913, 2123.00
1914, 2122.00
1915, 2123.00
1916, 2120.00
1917, 2118.00
1918, 2122.00
1919, 2119.00
1920, 2122.00
1921, 2120.00
1922, 2120.00
1923, 2121.00
1924, 2122.00
1925, 2121.00
1926, 2121.00
1927, 2121.00
1928, 2122.00
1929, 2121.00
1930, 2123.00
1931, 2121.00
1932, 2121.00
1933, 2120.00
1934, 2121.00
1935, 2119.00
1936, 2121.00
1937, 2123.00
1938, 2122.00
1939, 2121.00
1940, 2122.00
1941, 2121.00
1942, 2121.00
1943, 2121.00
1944, 2122.00
1945, 2123.00
1946, 2121.00
1947, 2122.00
1948, 2121.00
1949, 2123.00
1950, 2122.00
1951, 2125.00
1952, 2124.00
1953, 2123.00
1954, 2125.00
1955, 2124.00
1956, 2125.00
1957, 2127.00
1958, 2125.00
1959, 2127.00
1960, 2125.00
1961, 2125.00
1962, 2127.00
1963, 2128.00
1964, 2127.00
1965, 2125.00
1966, 2127.00
1967, 2129.00
1968, 2126.00
1969, 2131.00
1970, 2128.00
1971, 2130.00
1972, 2131.00
1973, 2129.00
1974, 2130.00
1975, 2131.00
1976, 2130.00
1977, 2131.00
1978, 2133.00
1979, 2132.00
1980, 2134.00
1981, 2132.00
1982, 2135.00
1983, 2133.00
1984, 2135.00
1985, 2134.00
1986, 2134.00
1987, 2135.00
1988, 2137.00
1989, 2136.00
1990, 2135.00
1991, 2138.00
1992, 2138.00
1993, 2136.00
1994, 2137.00
1995, 2138.00
1996, 2139.00
1997, 2141.00
1998, 2139.00
1999, 2140.00
2000, 2141.00
2001, 2141.00
2002, 2141.00
2003, 2141.00
2004, 2144.00
2005, 2143.00
2006, 2141.00
2007, 2143.00
2008, 2145.00
2009, 2144.00
2010, 2143.00
2011, 2145.00
2012, 2143.00
2013, 2146.00
2014, 2145.00
2015, 2145.00
2016, 2148.00
2017, 2147.00
2018, 2148.00
2019, 2147.00
2020, 2148.00
2021, 2148.00
2022, 2150.00
2023, 2148.00
2024, 2150.00
2025, 2150.00
2026, 2151.00
2027, 2152.00
2028, 2150.00
2029, 2151.00
2030, 2153.00
2031, 2152.00
2032, 2153.00
2033, 2153.00
2034, 2154.00
2035, 2156.00
2036, 2154.00
2037, 2155.00
2038, 2157.00
2039, 2158.00
2040, 2155.00
2041, 2159.00
2042, 2161.00
2043, 2159.00
2044, 2159.00
2045, 2160.00
2046, 2161.00
2047, 2161.00
2048, 2161.00
2049, 2161.00
2050, 2164.00
2051, 2165.00
2052, 2165.00
2053, 2163.00
2054, 2164.00
2055, 2167.00
2056, 2166.00
2057, 2167.00
2058, 2167.00
2059, 2170.00
2060, 2169.00
2061, 2169.00
2062, 2171.00
2063, 2171.00
2064, 2172.00
2065, 2173.00
2066, 2172.00
2067, 2175.00
2068, 2174.00
2069, 2176.00
2070, 2174.00
2071, 2176.00
2072, 2176.00
2073, 2177.00
2074, 2178.00
2075, 2180.00
2076, 2180.00
2077, 2179.00
2078, 2182.00
2079, 2181.00
2080, 2182.00
2081, 2183.00
2082, 2185.00
2083, 2185.00
2084, 2183.00
2085, 2184.00
2086, 2186.00
2087, 2184.00
2088, 2186.00
2089, 2187.00
2090, 2189.00
2091, 2190.00
2092, 2188.00
2093, 2190.00
2094, 2190.00
2095, 2188.00
2096, 2192.00
2097, 2190.00
2098, 2191.00
2099, 2192.00
2100, 2193.00
2101, 2192.00
2102, 2191.00
2103, 2193.00
2104, 2195.00
2105, 2193.00
2106, 2195.00
2107, 2195.00
2108, 2196.00
2109, 2194.00
2110, 2196.00
2111, 2195.00
2112, 2197.00
2113, 2196.00
2114, 2198.00
2115, 2197.00
2116, 2197.00
2117, 2199.00
2118, 2198.00
2119, 2200.00
2120, 2198.00
2121, 2200.00
2122, 2200.00
2123, 2200.00
2124, 2199.00
2125, 2201.00
2126, 2201.00
2127, 2200.00
2128, 2199.00
2129, 2201.00
2130, 2201.00
2131, 2201.00
2132, 2201.00
2133, 2202.00
2134, 2203.00
2135, 2205.00
2136, 2203.00
2137, 2202.00
2138, 2203.00
2139, 2205.00
2140, 2205.00
2141, 2203.00
2142, 2205.00
2143, 2205.00
2144, 2205.00
2145, 2205.00
2146, 2208.00
2147, 2207.00
2148, 2206.00
2149, 2208.00
2150, 2206.00
