FW version: 24
Log Version: 3.0.3

General Info:
       Command/Macro Performed,            Timestamp,             Device ID, COM Port, UART/I2C, Test Name, Host Major, Host Minor, Host Revision, Host Git Commit
            Single_measurement,  2023_06_28_12_01_16,       Insight2_F4_xxx,    USB-C,      USB,          ,          0,          1,             1,      4031237645

Show Spectrometer Status:
l0_version, f4_version, battery_perc, battery_mVolt, accelerometer_temp, accelerometer_x, accelerometer_y, accelerometer_z, compass_temp, compass_x, compass_y, compass_z, lamp_0, lamp_1, gain_0, gain_1
        17,         24,           48,          1904,               6576,           65196,            1084,           18476,            0,     65533,     65469,     18477,   3276,   3276,      0,      0

Temperature Statistic Info:
NTC AVG [°C], NTC2 AVG [°C]
      40.114,        39.879

Statistic Info:
M1:  num,      min,      max,   median,      AVG,      STD,M2:  num,      min,      max,   median,      AVG,      STD
     301,   535.00,   612.00,   551.00,   560.49,  24.1209,     401,   724.00,   766.00,   740.00,   741.61,  13.4038,

Measurements:
Wavelength, Data Amplitude
1350, 550.00
1351, 549.00
1352, 548.00
1353, 548.00
1354, 548.00
1355, 548.00
1356, 547.00
1357, 547.00
1358, 547.00
1359, 547.00
1360, 546.00
1361, 546.00
1362, 546.00
1363, 546.00
1364, 545.00
1365, 545.00
1366, 544.00
1367, 544.00
1368, 544.00
1369, 543.00
1370, 543.00
1371, 542.00
1372, 542.00
1373, 541.00
1374, 542.00
1375, 541.00
1376, 540.00
1377, 540.00
1378, 539.00
1379, 540.00
1380, 539.00
1381, 539.00
1382, 538.00
1383, 538.00
1384, 538.00
1385, 538.00
1386, 538.00
1387, 537.00
1388, 538.00
1389, 537.00
1390, 537.00
1391, 537.00
1392, 537.00
1393, 536.00
1394, 537.00
1395, 536.00
1396, 536.00
1397, 536.00
1398, 536.00
1399, 536.00
1400, 536.00
1401, 536.00
1402, 536.00
1403, 536.00
1404, 536.00
1405, 536.00
1406, 536.00
1407, 536.00
1408, 535.00
1409, 535.00
1410, 535.00
1411, 535.00
1412, 535.00
1413, 536.00
1414, 535.00
1415, 536.00
1416, 535.00
1417, 535.00
1418, 536.00
1419, 535.00
1420, 535.00
1421, 535.00
1422, 535.00
1423, 536.00
1424, 535.00
1425, 536.00
1426, 535.00
1427, 535.00
1428, 536.00
1429, 536.00
1430, 536.00
1431, 536.00
1432, 536.00
1433, 536.00
1434, 536.00
1435, 536.00
1436, 537.00
1437, 536.00
1438, 536.00
1439, 536.00
1440, 536.00
1441, 537.00
1442, 537.00
1443, 537.00
1444, 537.00
1445, 537.00
1446, 538.00
1447, 537.00
1448, 538.00
1449, 538.00
1450, 538.00
1451, 538.00
1452, 538.00
1453, 538.00
1454, 539.00
1455, 539.00
1456, 539.00
1457, 539.00
1458, 539.00
1459, 540.00
1460, 540.00
1461, 540.00
1462, 540.00
1463, 540.00
1464, 540.00
1465, 541.00
1466, 541.00
1467, 541.00
1468, 541.00
1469, 542.00
1470, 542.00
1471, 542.00
1472, 542.00
1473, 543.00
1474, 543.00
1475, 544.00
1476, 544.00
1477, 544.00
1478, 544.00
1479, 544.00
1480, 545.00
1481, 545.00
1482, 545.00
1483, 545.00
1484, 546.00
1485, 546.00
1486, 547.00
1487, 547.00
1488, 547.00
1489, 547.00
1490, 547.00
1491, 548.00
1492, 548.00
1493, 549.00
1494, 549.00
1495, 549.00
1496, 550.00
1497, 550.00
1498, 550.00
1499, 550.00
1500, 551.00
1501, 551.00
1502, 552.00
1503, 552.00
1504, 552.00
1505, 552.00
1506, 553.00
1507, 553.00
1508, 553.00
1509, 554.00
1510, 554.00
1511, 554.00
1512, 555.00
1513, 555.00
1514, 555.00
1515, 556.00
1516, 556.00
1517, 556.00
1518, 557.00
1519, 558.00
1520, 558.00
1521, 558.00
1522, 559.00
1523, 559.00
1524, 560.00
1525, 559.00
1526, 560.00
1527, 560.00
1528, 561.00
1529, 561.00
1530, 561.00
1531, 562.00
1532, 562.00
1533, 562.00
1534, 563.00
1535, 563.00
1536, 564.00
1537, 564.00
1538, 565.00
1539, 565.00
1540, 566.00
1541, 566.00
1542, 566.00
1543, 567.00
1544, 567.00
1545, 567.00
1546, 568.00
1547, 568.00
1548, 569.00
1549, 569.00
1550, 570.00
1551, 570.00
1552, 570.00
1553, 571.00
1554, 571.00
1555, 571.00
1556, 572.00
1557, 572.00
1558, 573.00
1559, 573.00
1560, 574.00
1561, 574.00
1562, 575.00
1563, 576.00
1564, 576.00
1565, 576.00
1566, 576.00
1567, 577.00
1568, 578.00
1569, 578.00
1570, 578.00
1571, 579.00
1572, 579.00
1573, 580.00
1574, 579.00
1575, 580.00
1576, 581.00
1577, 581.00
1578, 582.00
1579, 582.00
1580, 583.00
1581, 582.00
1582, 583.00
1583, 583.00
1584, 584.00
1585, 584.00
1586, 585.00
1587, 585.00
1588, 585.00
1589, 586.00
1590, 586.00
1591, 586.00
1592, 587.00
1593, 588.00
1594, 588.00
1595, 588.00
1596, 588.00
1597, 589.00
1598, 589.00
1599, 590.00
1600, 590.00
1601, 591.00
1602, 591.00
1603, 592.00
1604, 592.00
1605, 592.00
1606, 593.00
1607, 593.00
1608, 593.00
1609, 594.00
1610, 595.00
1611, 595.00
1612, 596.00
1613, 596.00
1614, 597.00
1615, 597.00
1616, 597.00
1617, 598.00
1618, 598.00
1619, 599.00
1620, 600.00
1621, 600.00
1622, 600.00
1623, 601.00
1624, 601.00
1625, 602.00
1626, 602.00
1627, 603.00
1628, 603.00
1629, 604.00
1630, 604.00
1631, 605.00
1632, 605.00
1633, 606.00
1634, 606.00
1635, 606.00
1636, 607.00
1637, 607.00
1638, 608.00
1639, 608.00
1640, 608.00
1641, 609.00
1642, 609.00
1643, 610.00
1644, 610.00
1645, 611.00
1646, 611.00
1647, 611.00
1648, 612.00
1649, 612.00
1650, 612.00

1750, 765.00
1751, 766.00
1752, 766.00
1753, 765.00
1754, 766.00
1755, 766.00
1756, 766.00
1757, 766.00
1758, 765.00
1759, 765.00
1760, 765.00
1761, 766.00
1762, 766.00
1763, 765.00
1764, 765.00
1765, 766.00
1766, 765.00
1767, 765.00
1768, 766.00
1769, 765.00
1770, 765.00
1771, 765.00
1772, 765.00
1773, 764.00
1774, 764.00
1775, 765.00
1776, 764.00
1777, 763.00
1778, 764.00
1779, 763.00
1780, 764.00
1781, 763.00
1782, 763.00
1783, 763.00
1784, 763.00
1785, 763.00
1786, 763.00
1787, 763.00
1788, 762.00
1789, 762.00
1790, 762.00
1791, 762.00
1792, 761.00
1793, 761.00
1794, 761.00
1795, 762.00
1796, 761.00
1797, 761.00
1798, 761.00
1799, 760.00
1800, 761.00
1801, 760.00
1802, 759.00
1803, 760.00
1804, 760.00
1805, 760.00
1806, 759.00
1807, 759.00
1808, 759.00
1809, 759.00
1810, 759.00
1811, 759.00
1812, 758.00
1813, 758.00
1814, 758.00
1815, 758.00
1816, 758.00
1817, 758.00
1818, 757.00
1819, 756.00
1820, 756.00
1821, 756.00
1822, 756.00
1823, 756.00
1824, 756.00
1825, 755.00
1826, 755.00
1827, 754.00
1828, 754.00
1829, 754.00
1830, 753.00
1831, 753.00
1832, 753.00
1833, 751.00
1834, 751.00
1835, 751.00
1836, 750.00
1837, 750.00
1838, 749.00
1839, 749.00
1840, 749.00
1841, 748.00
1842, 747.00
1843, 746.00
1844, 746.00
1845, 745.00
1846, 744.00
1847, 744.00
1848, 744.00
1849, 742.00
1850, 742.00
1851, 742.00
1852, 741.00
1853, 740.00
1854, 740.00
1855, 739.00
1856, 739.00
1857, 738.00
1858, 738.00
1859, 737.00
1860, 736.00
1861, 735.00
1862, 735.00
1863, 735.00
1864, 734.00
1865, 734.00
1866, 733.00
1867, 733.00
1868, 732.00
1869, 732.00
1870, 732.00
1871, 731.00
1872, 731.00
1873, 731.00
1874, 730.00
1875, 730.00
1876, 730.00
1877, 729.00
1878, 729.00
1879, 728.00
1880, 729.00
1881, 728.00
1882, 728.00
1883, 728.00
1884, 728.00
1885, 728.00
1886, 728.00
1887, 728.00
1888, 728.00
1889, 727.00
1890, 727.00
1891, 727.00
1892, 727.00
1893, 727.00
1894, 727.00
1895, 726.00
1896, 727.00
1897, 726.00
1898, 726.00
1899, 726.00
1900, 726.00
1901, 725.00
1902, 726.00
1903, 727.00
1904, 726.00
1905, 725.00
1906, 725.00
1907, 725.00
1908, 725.00
1909, 725.00
1910, 725.00
1911, 725.00
1912, 725.00
1913, 725.00
1914, 724.00
1915, 725.00
1916, 725.00
1917, 725.00
1918, 724.00
1919, 724.00
1920, 725.00
1921, 725.00
1922, 725.00
1923, 724.00
1924, 725.00
1925, 725.00
1926, 725.00
1927, 724.00
1928, 724.00
1929, 724.00
1930, 724.00
1931, 724.00
1932, 725.00
1933, 725.00
1934, 725.00
1935, 725.00
1936, 724.00
1937, 725.00
1938, 725.00
1939, 725.00
1940, 725.00
1941, 725.00
1942, 725.00
1943, 724.00
1944, 725.00
1945, 726.00
1946, 725.00
1947, 725.00
1948, 726.00
1949, 726.00
1950, 726.00
1951, 725.00
1952, 726.00
1953, 726.00
1954, 725.00
1955, 726.00
1956, 726.00
1957, 726.00
1958, 726.00
1959, 727.00
1960, 726.00
1961, 727.00
1962, 726.00
1963, 727.00
1964, 726.00
1965, 728.00
1966, 727.00
1967, 727.00
1968, 727.00
1969, 727.00
1970, 727.00
1971, 727.00
1972, 728.00
1973, 727.00
1974, 728.00
1975, 728.00
1976, 728.00
1977, 728.00
1978, 728.00
1979, 728.00
1980, 728.00
1981, 729.00
1982, 729.00
1983, 729.00
1984, 730.00
1985, 729.00
1986, 729.00
1987, 730.00
1988, 730.00
1989, 729.00
1990, 730.00
1991, 731.00
1992, 730.00
1993, 730.00
1994, 731.00
1995, 730.00
1996, 731.00
1997, 731.00
1998, 731.00
1999, 731.00
2000, 731.00
2001, 732.00
2002, 732.00
2003, 731.00
2004, 731.00
2005, 732.00
2006, 732.00
2007, 732.00
2008, 732.00
2009, 733.00
2010, 732.00
2011, 732.00
2012, 733.00
2013, 733.00
2014, 733.00
2015, 734.00
2016, 733.00
2017, 733.00
2018, 734.00
2019, 734.00
2020, 734.00
2021, 734.00
2022, 733.00
2023, 734.00
2024, 735.00
2025, 735.00
2026, 735.00
2027, 734.00
2028, 735.00
2029, 734.00
2030, 736.00
2031, 735.00
2032, 736.00
2033, 736.00
2034, 736.00
2035, 736.00
2036, 736.00
2037, 736.00
2038, 737.00
2039, 737.00
2040, 737.00
2041, 736.00
2042, 737.00
2043, 738.00
2044, 738.00
2045, 738.00
2046, 738.00
2047, 738.00
2048, 738.00
2049, 739.00
2050, 739.00
2051, 739.00
2052, 740.00
2053, 740.00
2054, 739.00
2055, 741.00
2056, 741.00
2057, 741.00
2058, 741.00
2059, 741.00
2060, 741.00
2061, 741.00
2062, 742.00
2063, 742.00
2064, 742.00
2065, 742.00
2066, 742.00
2067, 743.00
2068, 743.00
2069, 743.00
2070, 743.00
2071, 743.00
2072, 744.00
2073, 743.00
2074, 744.00
2075, 744.00
2076, 745.00
2077, 745.00
2078, 744.00
2079, 745.00
2080, 746.00
2081, 746.00
2082, 746.00
2083, 746.00
2084, 747.00
2085, 746.00
2086, 747.00
2087, 747.00
2088, 748.00
2089, 746.00
2090, 748.00
2091, 747.00
2092, 748.00
2093, 747.00
2094, 748.00
2095, 749.00
2096, 748.00
2097, 747.00
2098, 749.00
2099, 749.00
2100, 749.00
2101, 749.00
2102, 749.00
2103, 749.00
2104, 749.00
2105, 750.00
2106, 750.00
2107, 750.00
2108, 750.00
2109, 750.00
2110, 751.00
2111, 750.00
2112, 750.00
2113, 750.00
2114, 751.00
2115, 751.00
2116, 751.00
2117, 751.00
2118, 751.00
2119, 751.00
2120, 751.00
2121, 751.00
2122, 751.00
2123, 751.00
2124, 751.00
2125, 751.00
2126, 752.00
2127, 752.00
2128, 752.00
2129, 752.00
2130, 752.00
2131, 752.00
2132, 752.00
2133, 752.00
2134, 752.00
2135, 753.00
2136, 753.00
2137, 753.00
2138, 752.00
2139, 753.00
2140, 753.00
2141, 754.00
2142, 754.00
2143, 754.00
2144, 754.00
2145, 753.00
2146, 753.00
2147, 755.00
2148, 754.00
2149, 754.00
2150, 755.00
