FW version: 24
Log Version: 3.0.3

General Info:
       Command/Macro Performed,            Timestamp,             Device ID, COM Port, UART/I2C, Test Name, Host Major, Host Minor, Host Revision, Host Git Commit
            Single_measurement,  2023_06_28_12_01_31,       Insight2_F4_xxx,    USB-C,      USB,          ,          0,          1,             1,      4031237645

Show Spectrometer Status:
l0_version, f4_version, battery_perc, battery_mVolt, accelerometer_temp, accelerometer_x, accelerometer_y, accelerometer_z, compass_temp, compass_x, compass_y, compass_z, lamp_0, lamp_1, gain_0, gain_1
        17,         24,           48,          1907,               6576,           65152,            1080,           18760,            0,     65493,     65466,     18792,   2047,   2047,      1,      1

Temperature Statistic Info:
NTC AVG [°C], NTC2 AVG [°C]
      40.173,        39.908

Statistic Info:
M1:  num,      min,      max,   median,      AVG,      STD,M2:  num,      min,      max,   median,      AVG,      STD
     301,   618.00,   719.00,   643.00,   652.89,  31.3058,     401,   950.00,  1007.00,   974.00,   975.26,  17.8866,

Measurements:
Wavelength, Data Amplitude
1350, 633.00
1351, 634.00
1352, 632.00
1353, 633.00
1354, 632.00
1355, 633.00
1356, 632.00
1357, 632.00
1358, 631.00
1359, 629.00
1360, 630.00
1361, 630.00
1362, 630.00
1363, 630.00
1364, 630.00
1365, 628.00
1366, 628.00
1367, 629.00
1368, 627.00
1369, 627.00
1370, 627.00
1371, 626.00
1372, 626.00
1373, 625.00
1374, 625.00
1375, 625.00
1376, 624.00
1377, 624.00
1378, 623.00
1379, 624.00
1380, 623.00
1381, 624.00
1382, 624.00
1383, 623.00
1384, 622.00
1385, 623.00
1386, 622.00
1387, 623.00
1388, 621.00
1389, 621.00
1390, 622.00
1391, 621.00
1392, 621.00
1393, 622.00
1394, 621.00
1395, 620.00
1396, 621.00
1397, 620.00
1398, 620.00
1399, 620.00
1400, 621.00
1401, 621.00
1402, 620.00
1403, 619.00
1404, 620.00
1405, 620.00
1406, 620.00
1407, 620.00
1408, 618.00
1409, 620.00
1410, 620.00
1411, 619.00
1412, 620.00
1413, 619.00
1414, 620.00
1415, 620.00
1416, 620.00
1417, 620.00
1418, 620.00
1419, 619.00
1420, 620.00
1421, 620.00
1422, 620.00
1423, 621.00
1424, 621.00
1425, 621.00
1426, 620.00
1427, 621.00
1428, 620.00
1429, 620.00
1430, 621.00
1431, 621.00
1432, 621.00
1433, 621.00
1434, 621.00
1435, 622.00
1436, 622.00
1437, 622.00
1438, 622.00
1439, 623.00
1440, 622.00
1441, 622.00
1442, 623.00
1443, 623.00
1444, 623.00
1445, 623.00
1446, 622.00
1447, 623.00
1448, 624.00
1449, 623.00
1450, 624.00
1451, 624.00
1452, 626.00
1453, 625.00
1454, 625.00
1455, 625.00
1456, 626.00
1457, 626.00
1458, 627.00
1459, 626.00
1460, 627.00
1461, 626.00
1462, 627.00
1463, 628.00
1464, 628.00
1465, 628.00
1466, 628.00
1467, 627.00
1468, 629.00
1469, 629.00
1470, 630.00
1471, 630.00
1472, 630.00
1473, 631.00
1474, 631.00
1475, 632.00
1476, 632.00
1477, 632.00
1478, 632.00
1479, 633.00
1480, 634.00
1481, 634.00
1482, 634.00
1483, 634.00
1484, 635.00
1485, 636.00
1486, 636.00
1487, 636.00
1488, 637.00
1489, 637.00
1490, 638.00
1491, 638.00
1492, 638.00
1493, 639.00
1494, 640.00
1495, 640.00
1496, 641.00
1497, 641.00
1498, 642.00
1499, 643.00
1500, 643.00
1501, 643.00
1502, 643.00
1503, 643.00
1504, 643.00
1505, 644.00
1506, 645.00
1507, 645.00
1508, 646.00
1509, 646.00
1510, 646.00
1511, 647.00
1512, 647.00
1513, 648.00
1514, 650.00
1515, 648.00
1516, 649.00
1517, 650.00
1518, 650.00
1519, 651.00
1520, 651.00
1521, 652.00
1522, 652.00
1523, 652.00
1524, 653.00
1525, 654.00
1526, 655.00
1527, 655.00
1528, 655.00
1529, 656.00
1530, 657.00
1531, 656.00
1532, 658.00
1533, 659.00
1534, 659.00
1535, 659.00
1536, 659.00
1537, 660.00
1538, 661.00
1539, 661.00
1540, 661.00
1541, 662.00
1542, 662.00
1543, 664.00
1544, 663.00
1545, 664.00
1546, 665.00
1547, 664.00
1548, 666.00
1549, 665.00
1550, 667.00
1551, 667.00
1552, 667.00
1553, 666.00
1554, 669.00
1555, 669.00
1556, 669.00
1557, 669.00
1558, 670.00
1559, 672.00
1560, 671.00
1561, 672.00
1562, 672.00
1563, 673.00
1564, 673.00
1565, 675.00
1566, 675.00
1567, 674.00
1568, 675.00
1569, 676.00
1570, 676.00
1571, 677.00
1572, 677.00
1573, 678.00
1574, 678.00
1575, 679.00
1576, 679.00
1577, 680.00
1578, 680.00
1579, 681.00
1580, 681.00
1581, 681.00
1582, 681.00
1583, 682.00
1584, 684.00
1585, 684.00
1586, 683.00
1587, 684.00
1588, 685.00
1589, 685.00
1590, 687.00
1591, 686.00
1592, 688.00
1593, 687.00
1594, 688.00
1595, 688.00
1596, 689.00
1597, 690.00
1598, 691.00
1599, 691.00
1600, 691.00
1601, 692.00
1602, 693.00
1603, 692.00
1604, 693.00
1605, 694.00
1606, 696.00
1607, 695.00
1608, 696.00
1609, 696.00
1610, 696.00
1611, 698.00
1612, 698.00
1613, 698.00
1614, 699.00
1615, 700.00
1616, 701.00
1617, 701.00
1618, 702.00
1619, 703.00
1620, 703.00
1621, 704.00
1622, 704.00
1623, 706.00
1624, 706.00
1625, 705.00
1626, 707.00
1627, 707.00
1628, 708.00
1629, 709.00
1630, 709.00
1631, 710.00
1632, 710.00
1633, 711.00
1634, 710.00
1635, 711.00
1636, 712.00
1637, 712.00
1638, 712.00
1639, 714.00
1640, 713.00
1641, 714.00
1642, 714.00
1643, 715.00
1644, 716.00
1645, 716.00
1646, 716.00
1647, 716.00
1648, 717.00
1649, 717.00
1650, 719.00

1750, 1004.00
1751, 1004.00
1752, 1005.00
1753, 1003.00
1754, 1003.00
1755, 1005.00
1756, 1002.00
1757, 1005.00
1758, 1004.00
1759, 1004.00
1760, 1005.00
1761, 1006.00
1762, 1004.00
1763, 1004.00
1764, 1007.00
1765, 1007.00
1766, 1006.00
1767, 1003.00
1768, 1003.00
1769, 1005.00
1770, 1005.00
1771, 1004.00
1772, 1004.00
1773, 1004.00
1774, 1002.00
1775, 1004.00
1776, 1003.00
1777, 1003.00
1778, 1003.00
1779, 1001.00
1780, 1004.00
1781, 1001.00
1782, 1003.00
1783, 1000.00
1784, 1002.00
1785, 1002.00
1786, 1001.00
1787, 1001.00
1788, 1001.00
1789, 1001.00
1790, 1000.00
1791, 1000.00
1792, 1002.00
1793, 1000.00
1794, 1000.00
1795, 1000.00
1796, 1002.00
1797, 1000.00
1798, 1000.00
1799, 999.00
1800, 999.00
1801, 999.00
1802, 998.00
1803, 1000.00
1804, 999.00
1805, 998.00
1806, 998.00
1807, 997.00
1808, 997.00
1809, 998.00
1810, 997.00
1811, 998.00
1812, 997.00
1813, 997.00
1814, 997.00
1815, 995.00
1816, 996.00
1817, 996.00
1818, 995.00
1819, 995.00
1820, 994.00
1821, 994.00
1822, 996.00
1823, 993.00
1824, 993.00
1825, 993.00
1826, 992.00
1827, 991.00
1828, 992.00
1829, 991.00
1830, 990.00
1831, 990.00
1832, 989.00
1833, 988.00
1834, 989.00
1835, 989.00
1836, 985.00
1837, 987.00
1838, 986.00
1839, 984.00
1840, 984.00
1841, 982.00
1842, 982.00
1843, 981.00
1844, 979.00
1845, 980.00
1846, 979.00
1847, 978.00
1848, 977.00
1849, 976.00
1850, 977.00
1851, 975.00
1852, 974.00
1853, 972.00
1854, 971.00
1855, 971.00
1856, 969.00
1857, 969.00
1858, 970.00
1859, 969.00
1860, 966.00
1861, 967.00
1862, 965.00
1863, 964.00
1864, 964.00
1865, 963.00
1866, 962.00
1867, 963.00
1868, 963.00
1869, 962.00
1870, 961.00
1871, 962.00
1872, 961.00
1873, 961.00
1874, 961.00
1875, 959.00
1876, 959.00
1877, 958.00
1878, 959.00
1879, 958.00
1880, 957.00
1881, 959.00
1882, 958.00
1883, 956.00
1884, 957.00
1885, 954.00
1886, 955.00
1887, 956.00
1888, 956.00
1889, 955.00
1890, 955.00
1891, 954.00
1892, 956.00
1893, 954.00
1894, 954.00
1895, 953.00
1896, 953.00
1897, 955.00
1898, 953.00
1899, 954.00
1900, 954.00
1901, 952.00
1902, 953.00
1903, 954.00
1904, 952.00
1905, 952.00
1906, 951.00
1907, 955.00
1908, 953.00
1909, 953.00
1910, 954.00
1911, 953.00
1912, 953.00
1913, 953.00
1914, 952.00
1915, 950.00
1916, 952.00
1917, 952.00
1918, 951.00
1919, 952.00
1920, 953.00
1921, 953.00
1922, 953.00
1923, 953.00
1924, 952.00
1925, 952.00
1926, 953.00
1927, 952.00
1928, 951.00
1929, 951.00
1930, 952.00
1931, 952.00
1932, 950.00
1933, 952.00
1934, 952.00
1935, 954.00
1936, 952.00
1937, 953.00
1938, 952.00
1939, 952.00
1940, 951.00
1941, 953.00
1942, 953.00
1943, 952.00
1944, 952.00
1945, 952.00
1946, 953.00
1947, 953.00
1948, 954.00
1949, 953.00
1950, 953.00
1951, 954.00
1952, 953.00
1953, 953.00
1954, 954.00
1955, 954.00
1956, 952.00
1957, 954.00
1958, 953.00
1959, 955.00
1960, 955.00
1961, 955.00
1962, 953.00
1963, 954.00
1964, 955.00
1965, 955.00
1966, 955.00
1967, 957.00
1968, 957.00
1969, 955.00
1970, 956.00
1971, 955.00
1972, 955.00
1973, 958.00
1974, 955.00
1975, 956.00
1976, 957.00
1977, 956.00
1978, 960.00
1979, 958.00
1980, 956.00
1981, 957.00
1982, 957.00
1983, 959.00
1984, 958.00
1985, 960.00
1986, 961.00
1987, 958.00
1988, 958.00
1989, 961.00
1990, 959.00
1991, 960.00
1992, 960.00
1993, 960.00
1994, 959.00
1995, 962.00
1996, 961.00
1997, 961.00
1998, 962.00
1999, 961.00
2000, 961.00
2001, 962.00
2002, 962.00
2003, 960.00
2004, 962.00
2005, 962.00
2006, 961.00
2007, 962.00
2008, 964.00
2009, 964.00
2010, 962.00
2011, 965.00
2012, 963.00
2013, 965.00
2014, 965.00
2015, 964.00
2016, 965.00
2017, 965.00
2018, 965.00
2019, 965.00
2020, 965.00
2021, 965.00
2022, 965.00
2023, 966.00
2024, 966.00
2025, 965.00
2026, 965.00
2027, 965.00
2028, 966.00
2029, 968.00
2030, 967.00
2031, 968.00
2032, 968.00
2033, 967.00
2034, 968.00
2035, 969.00
2036, 970.00
2037, 969.00
2038, 968.00
2039, 971.00
2040, 971.00
2041, 970.00
2042, 971.00
2043, 969.00
2044, 970.00
2045, 971.00
2046, 971.00
2047, 973.00
2048, 971.00
2049, 972.00
2050, 972.00
2051, 972.00
2052, 974.00
2053, 973.00
2054, 974.00
2055, 975.00
2056, 975.00
2057, 975.00
2058, 976.00
2059, 975.00
2060, 976.00
2061, 976.00
2062, 977.00
2063, 977.00
2064, 978.00
2065, 978.00
2066, 979.00
2067, 979.00
2068, 978.00
2069, 981.00
2070, 979.00
2071, 979.00
2072, 981.00
2073, 981.00
2074, 980.00
2075, 982.00
2076, 982.00
2077, 983.00
2078, 980.00
2079, 982.00
2080, 983.00
2081, 981.00
2082, 983.00
2083, 982.00
2084, 985.00
2085, 983.00
2086, 984.00
2087, 984.00
2088, 984.00
2089, 984.00
2090, 985.00
2091, 985.00
2092, 985.00
2093, 984.00
2094, 986.00
2095, 985.00
2096, 986.00
2097, 985.00
2098, 987.00
2099, 988.00
2100, 986.00
2101, 989.00
2102, 987.00
2103, 986.00
2104, 986.00
2105, 988.00
2106, 987.00
2107, 989.00
2108, 987.00
2109, 988.00
2110, 988.00
2111, 990.00
2112, 990.00
2113, 988.00
2114, 990.00
2115, 988.00
2116, 991.00
2117, 989.00
2118, 991.00
2119, 991.00
2120, 990.00
2121, 990.00
2122, 993.00
2123, 991.00
2124, 991.00
2125, 990.00
2126, 991.00
2127, 990.00
2128, 992.00
2129, 990.00
2130, 992.00
2131, 993.00
2132, 991.00
2133, 992.00
2134, 993.00
2135, 993.00
2136, 993.00
2137, 992.00
2138, 993.00
2139, 992.00
2140, 993.00
2141, 995.00
2142, 994.00
2143, 993.00
2144, 993.00
2145, 993.00
2146, 994.00
2147, 994.00
2148, 995.00
2149, 995.00
2150, 996.00
