FW version: 24
Log Version: 3.0.3

General Info:
       Command/Macro Performed,            Timestamp,             Device ID, COM Port, UART/I2C, Test Name, Host Major, Host Minor, Host Revision, Host Git Commit
            Single_measurement,  2023_06_29_10_40_03,       Insight2_F4_xxx,    USB-C,      USB,          ,          0,          1,             1,      4031237645

Show Spectrometer Status:
l0_version, f4_version, battery_perc, battery_mVolt, accelerometer_temp, accelerometer_x, accelerometer_y, accelerometer_z, compass_temp, compass_x, compass_y, compass_z, lamp_0, lamp_1, gain_0, gain_1
        17,         24,           92,          2059,               5744,           65476,              76,           18404,            0,     65519,     65406,     65532,   3276,   3276,      0,      0

Temperature Statistic Info:
NTC AVG [°C], NTC2 AVG [°C]
      36.750,        36.494

Statistic Info:
M1:  num,      min,      max,   median,      AVG,      STD,M2:  num,      min,      max,   median,      AVG,      STD
     301,   544.00,   616.00,   559.00,   567.45,  22.3346,     401,   724.00,   766.00,   742.00,   742.62,  13.6562,

Measurements:
Wavelength, Data Amplitude
1350, 557.00
1351, 557.00
1352, 556.00
1353, 556.00
1354, 556.00
1355, 555.00
1356, 556.00
1357, 555.00
1358, 555.00
1359, 554.00
1360, 554.00
1361, 555.00
1362, 554.00
1363, 554.00
1364, 553.00
1365, 553.00
1366, 553.00
1367, 553.00
1368, 552.00
1369, 551.00
1370, 551.00
1371, 551.00
1372, 550.00
1373, 550.00
1374, 550.00
1375, 549.00
1376, 549.00
1377, 549.00
1378, 548.00
1379, 549.00
1380, 548.00
1381, 548.00
1382, 548.00
1383, 547.00
1384, 547.00
1385, 546.00
1386, 546.00
1387, 546.00
1388, 546.00
1389, 546.00
1390, 546.00
1391, 546.00
1392, 546.00
1393, 546.00
1394, 545.00
1395, 545.00
1396, 545.00
1397, 545.00
1398, 545.00
1399, 545.00
1400, 545.00
1401, 545.00
1402, 544.00
1403, 544.00
1404, 545.00
1405, 544.00
1406, 544.00
1407, 544.00
1408, 545.00
1409, 545.00
1410, 544.00
1411, 544.00
1412, 544.00
1413, 544.00
1414, 544.00
1415, 544.00
1416, 544.00
1417, 544.00
1418, 544.00
1419, 544.00
1420, 544.00
1421, 544.00
1422, 544.00
1423, 544.00
1424, 544.00
1425, 544.00
1426, 544.00
1427, 544.00
1428, 544.00
1429, 544.00
1430, 544.00
1431, 544.00
1432, 544.00
1433, 544.00
1434, 545.00
1435, 545.00
1436, 545.00
1437, 545.00
1438, 545.00
1439, 545.00
1440, 545.00
1441, 545.00
1442, 545.00
1443, 547.00
1444, 545.00
1445, 546.00
1446, 546.00
1447, 546.00
1448, 546.00
1449, 546.00
1450, 546.00
1451, 546.00
1452, 547.00
1453, 547.00
1454, 547.00
1455, 547.00
1456, 547.00
1457, 548.00
1458, 548.00
1459, 548.00
1460, 547.00
1461, 548.00
1462, 548.00
1463, 549.00
1464, 549.00
1465, 549.00
1466, 549.00
1467, 549.00
1468, 550.00
1469, 550.00
1470, 550.00
1471, 550.00
1472, 550.00
1473, 551.00
1474, 551.00
1475, 551.00
1476, 552.00
1477, 552.00
1478, 552.00
1479, 552.00
1480, 553.00
1481, 553.00
1482, 553.00
1483, 554.00
1484, 554.00
1485, 554.00
1486, 554.00
1487, 555.00
1488, 555.00
1489, 555.00
1490, 556.00
1491, 556.00
1492, 556.00
1493, 557.00
1494, 557.00
1495, 557.00
1496, 557.00
1497, 557.00
1498, 558.00
1499, 558.00
1500, 559.00
1501, 559.00
1502, 559.00
1503, 560.00
1504, 559.00
1505, 560.00
1506, 560.00
1507, 561.00
1508, 561.00
1509, 562.00
1510, 562.00
1511, 562.00
1512, 562.00
1513, 563.00
1514, 563.00
1515, 563.00
1516, 564.00
1517, 564.00
1518, 564.00
1519, 564.00
1520, 565.00
1521, 565.00
1522, 566.00
1523, 566.00
1524, 567.00
1525, 567.00
1526, 567.00
1527, 568.00
1528, 568.00
1529, 569.00
1530, 569.00
1531, 569.00
1532, 570.00
1533, 570.00
1534, 570.00
1535, 570.00
1536, 571.00
1537, 571.00
1538, 572.00
1539, 572.00
1540, 572.00
1541, 573.00
1542, 573.00
1543, 574.00
1544, 574.00
1545, 574.00
1546, 574.00
1547, 575.00
1548, 576.00
1549, 576.00
1550, 576.00
1551, 576.00
1552, 577.00
1553, 577.00
1554, 578.00
1555, 578.00
1556, 578.00
1557, 578.00
1558, 579.00
1559, 579.00
1560, 580.00
1561, 580.00
1562, 580.00
1563, 581.00
1564, 582.00
1565, 582.00
1566, 582.00
1567, 583.00
1568, 583.00
1569, 584.00
1570, 584.00
1571, 584.00
1572, 584.00
1573, 585.00
1574, 586.00
1575, 586.00
1576, 586.00
1577, 586.00
1578, 587.00
1579, 587.00
1580, 588.00
1581, 588.00
1582, 588.00
1583, 588.00
1584, 589.00
1585, 590.00
1586, 590.00
1587, 590.00
1588, 590.00
1589, 591.00
1590, 590.00
1591, 592.00
1592, 592.00
1593, 592.00
1594, 593.00
1595, 593.00
1596, 593.00
1597, 593.00
1598, 594.00
1599, 595.00
1600, 595.00
1601, 596.00
1602, 596.00
1603, 596.00
1604, 596.00
1605, 597.00
1606, 597.00
1607, 597.00
1608, 598.00
1609, 598.00
1610, 599.00
1611, 599.00
1612, 600.00
1613, 600.00
1614, 601.00
1615, 601.00
1616, 602.00
1617, 602.00
1618, 602.00
1619, 603.00
1620, 603.00
1621, 604.00
1622, 604.00
1623, 604.00
1624, 605.00
1625, 606.00
1626, 606.00
1627, 607.00
1628, 607.00
1629, 608.00
1630, 608.00
1631, 608.00
1632, 609.00
1633, 609.00
1634, 609.00
1635, 610.00
1636, 610.00
1637, 610.00
1638, 611.00
1639, 611.00
1640, 612.00
1641, 612.00
1642, 613.00
1643, 614.00
1644, 614.00
1645, 614.00
1646, 614.00
1647, 614.00
1648, 615.00
1649, 615.00
1650, 616.00

1750, 765.00
1751, 766.00
1752, 766.00
1753, 766.00
1754, 766.00
1755, 766.00
1756, 766.00
1757, 766.00
1758, 766.00
1759, 766.00
1760, 765.00
1761, 766.00
1762, 766.00
1763, 765.00
1764, 765.00
1765, 765.00
1766, 766.00
1767, 765.00
1768, 765.00
1769, 765.00
1770, 765.00
1771, 765.00
1772, 765.00
1773, 765.00
1774, 765.00
1775, 765.00
1776, 765.00
1777, 764.00
1778, 764.00
1779, 764.00
1780, 764.00
1781, 764.00
1782, 764.00
1783, 763.00
1784, 763.00
1785, 763.00
1786, 763.00
1787, 763.00
1788, 763.00
1789, 763.00
1790, 763.00
1791, 762.00
1792, 763.00
1793, 762.00
1794, 762.00
1795, 762.00
1796, 761.00
1797, 762.00
1798, 762.00
1799, 761.00
1800, 761.00
1801, 761.00
1802, 761.00
1803, 761.00
1804, 761.00
1805, 760.00
1806, 761.00
1807, 760.00
1808, 760.00
1809, 760.00
1810, 760.00
1811, 760.00
1812, 760.00
1813, 759.00
1814, 759.00
1815, 759.00
1816, 758.00
1817, 759.00
1818, 758.00
1819, 759.00
1820, 758.00
1821, 757.00
1822, 758.00
1823, 757.00
1824, 757.00
1825, 757.00
1826, 756.00
1827, 756.00
1828, 756.00
1829, 755.00
1830, 755.00
1831, 755.00
1832, 754.00
1833, 753.00
1834, 752.00
1835, 753.00
1836, 752.00
1837, 752.00
1838, 751.00
1839, 751.00
1840, 750.00
1841, 750.00
1842, 749.00
1843, 748.00
1844, 748.00
1845, 747.00
1846, 747.00
1847, 746.00
1848, 745.00
1849, 744.00
1850, 743.00
1851, 742.00
1852, 743.00
1853, 742.00
1854, 741.00
1855, 740.00
1856, 740.00
1857, 740.00
1858, 739.00
1859, 738.00
1860, 737.00
1861, 737.00
1862, 736.00
1863, 736.00
1864, 736.00
1865, 735.00
1866, 734.00
1867, 734.00
1868, 733.00
1869, 732.00
1870, 732.00
1871, 732.00
1872, 731.00
1873, 732.00
1874, 730.00
1875, 731.00
1876, 731.00
1877, 730.00
1878, 730.00
1879, 730.00
1880, 729.00
1881, 729.00
1882, 729.00
1883, 728.00
1884, 728.00
1885, 728.00
1886, 728.00
1887, 728.00
1888, 728.00
1889, 728.00
1890, 727.00
1891, 727.00
1892, 727.00
1893, 727.00
1894, 727.00
1895, 726.00
1896, 726.00
1897, 726.00
1898, 726.00
1899, 726.00
1900, 726.00
1901, 726.00
1902, 726.00
1903, 726.00
1904, 725.00
1905, 725.00
1906, 726.00
1907, 726.00
1908, 726.00
1909, 725.00
1910, 725.00
1911, 726.00
1912, 725.00
1913, 725.00
1914, 725.00
1915, 725.00
1916, 725.00
1917, 724.00
1918, 725.00
1919, 725.00
1920, 725.00
1921, 725.00
1922, 725.00
1923, 725.00
1924, 725.00
1925, 725.00
1926, 725.00
1927, 725.00
1928, 725.00
1929, 725.00
1930, 725.00
1931, 724.00
1932, 724.00
1933, 725.00
1934, 724.00
1935, 725.00
1936, 725.00
1937, 725.00
1938, 724.00
1939, 725.00
1940, 725.00
1941, 725.00
1942, 725.00
1943, 726.00
1944, 725.00
1945, 725.00
1946, 726.00
1947, 725.00
1948, 725.00
1949, 725.00
1950, 726.00
1951, 726.00
1952, 726.00
1953, 726.00
1954, 726.00
1955, 726.00
1956, 726.00
1957, 726.00
1958, 726.00
1959, 726.00
1960, 727.00
1961, 727.00
1962, 727.00
1963, 727.00
1964, 727.00
1965, 727.00
1966, 728.00
1967, 728.00
1968, 728.00
1969, 728.00
1970, 727.00
1971, 728.00
1972, 728.00
1973, 729.00
1974, 727.00
1975, 728.00
1976, 729.00
1977, 729.00
1978, 729.00
1979, 729.00
1980, 729.00
1981, 730.00
1982, 729.00
1983, 729.00
1984, 730.00
1985, 730.00
1986, 730.00
1987, 730.00
1988, 731.00
1989, 730.00
1990, 731.00
1991, 730.00
1992, 732.00
1993, 731.00
1994, 732.00
1995, 731.00
1996, 731.00
1997, 731.00
1998, 732.00
1999, 732.00
2000, 732.00
2001, 732.00
2002, 732.00
2003, 732.00
2004, 733.00
2005, 733.00
2006, 733.00
2007, 733.00
2008, 733.00
2009, 733.00
2010, 734.00
2011, 733.00
2012, 734.00
2013, 734.00
2014, 734.00
2015, 734.00
2016, 735.00
2017, 735.00
2018, 734.00
2019, 734.00
2020, 735.00
2021, 735.00
2022, 735.00
2023, 735.00
2024, 736.00
2025, 736.00
2026, 736.00
2027, 736.00
2028, 737.00
2029, 736.00
2030, 736.00
2031, 737.00
2032, 737.00
2033, 738.00
2034, 737.00
2035, 737.00
2036, 737.00
2037, 738.00
2038, 738.00
2039, 738.00
2040, 738.00
2041, 739.00
2042, 739.00
2043, 739.00
2044, 739.00
2045, 740.00
2046, 740.00
2047, 740.00
2048, 740.00
2049, 740.00
2050, 740.00
2051, 740.00
2052, 741.00
2053, 741.00
2054, 742.00
2055, 742.00
2056, 742.00
2057, 742.00
2058, 743.00
2059, 742.00
2060, 743.00
2061, 743.00
2062, 743.00
2063, 744.00
2064, 744.00
2065, 744.00
2066, 744.00
2067, 744.00
2068, 745.00
2069, 745.00
2070, 745.00
2071, 745.00
2072, 745.00
2073, 746.00
2074, 746.00
2075, 746.00
2076, 746.00
2077, 747.00
2078, 747.00
2079, 747.00
2080, 747.00
2081, 747.00
2082, 748.00
2083, 748.00
2084, 749.00
2085, 749.00
2086, 749.00
2087, 749.00
2088, 749.00
2089, 749.00
2090, 749.00
2091, 749.00
2092, 749.00
2093, 749.00
2094, 750.00
2095, 751.00
2096, 751.00
2097, 751.00
2098, 751.00
2099, 751.00
2100, 750.00
2101, 751.00
2102, 751.00
2103, 751.00
2104, 751.00
2105, 752.00
2106, 752.00
2107, 751.00
2108, 751.00
2109, 751.00
2110, 752.00
2111, 752.00
2112, 752.00
2113, 753.00
2114, 753.00
2115, 752.00
2116, 752.00
2117, 753.00
2118, 753.00
2119, 753.00
2120, 753.00
2121, 754.00
2122, 754.00
2123, 753.00
2124, 754.00
2125, 754.00
2126, 754.00
2127, 754.00
2128, 754.00
2129, 754.00
2130, 754.00
2131, 754.00
2132, 754.00
2133, 754.00
2134, 755.00
2135, 755.00
2136, 754.00
2137, 755.00
2138, 755.00
2139, 755.00
2140, 754.00
2141, 755.00
2142, 755.00
2143, 755.00
2144, 755.00
2145, 754.00
2146, 755.00
2147, 755.00
2148, 755.00
2149, 756.00
2150, 755.00
