FW version: 24
Log Version: 3.0.3

General Info:
       Command/Macro Performed,            Timestamp,             Device ID, COM Port, UART/I2C, Test Name, Host Major, Host Minor, Host Revision, Host Git Commit
            Single_measurement,  2023_06_29_10_40_14,       Insight2_F4_xxx,    USB-C,      USB,          ,          0,          1,             1,      4031237645

Show Spectrometer Status:
l0_version, f4_version, battery_perc, battery_mVolt, accelerometer_temp, accelerometer_x, accelerometer_y, accelerometer_z, compass_temp, compass_x, compass_y, compass_z, lamp_0, lamp_1, gain_0, gain_1
        17,         24,           92,          2059,               5760,           65492,              76,           18420,            0,     65527,     65391,     65532,   2047,   2047,      1,      1

Temperature Statistic Info:
NTC AVG [°C], NTC2 AVG [°C]
      36.835,        36.523

Statistic Info:
M1:  num,      min,      max,   median,      AVG,      STD,M2:  num,      min,      max,   median,      AVG,      STD
     301,   627.00,   719.00,   649.00,   658.77,  28.8811,     401,   947.00,  1004.00,   972.00,   973.54,  18.5111,

Measurements:
Wavelength, Data Amplitude
1350, 639.00
1351, 640.00
1352, 639.00
1353, 640.00
1354, 640.00
1355, 639.00
1356, 640.00
1357, 639.00
1358, 639.00
1359, 637.00
1360, 638.00
1361, 638.00
1362, 637.00
1363, 638.00
1364, 637.00
1365, 636.00
1366, 635.00
1367, 636.00
1368, 635.00
1369, 634.00
1370, 636.00
1371, 635.00
1372, 634.00
1373, 634.00
1374, 634.00
1375, 633.00
1376, 632.00
1377, 632.00
1378, 632.00
1379, 633.00
1380, 632.00
1381, 632.00
1382, 631.00
1383, 630.00
1384, 631.00
1385, 631.00
1386, 630.00
1387, 630.00
1388, 630.00
1389, 630.00
1390, 629.00
1391, 629.00
1392, 629.00
1393, 630.00
1394, 629.00
1395, 629.00
1396, 629.00
1397, 628.00
1398, 629.00
1399, 629.00
1400, 628.00
1401, 628.00
1402, 629.00
1403, 629.00
1404, 629.00
1405, 629.00
1406, 628.00
1407, 628.00
1408, 627.00
1409, 629.00
1410, 628.00
1411, 628.00
1412, 628.00
1413, 629.00
1414, 629.00
1415, 628.00
1416, 629.00
1417, 628.00
1418, 628.00
1419, 628.00
1420, 628.00
1421, 629.00
1422, 628.00
1423, 629.00
1424, 629.00
1425, 628.00
1426, 628.00
1427, 629.00
1428, 628.00
1429, 629.00
1430, 629.00
1431, 629.00
1432, 628.00
1433, 630.00
1434, 629.00
1435, 630.00
1436, 629.00
1437, 630.00
1438, 630.00
1439, 630.00
1440, 630.00
1441, 630.00
1442, 630.00
1443, 631.00
1444, 630.00
1445, 631.00
1446, 631.00
1447, 631.00
1448, 631.00
1449, 632.00
1450, 632.00
1451, 632.00
1452, 633.00
1453, 633.00
1454, 633.00
1455, 633.00
1456, 634.00
1457, 633.00
1458, 634.00
1459, 634.00
1460, 635.00
1461, 635.00
1462, 635.00
1463, 636.00
1464, 636.00
1465, 636.00
1466, 637.00
1467, 637.00
1468, 636.00
1469, 637.00
1470, 637.00
1471, 638.00
1472, 638.00
1473, 638.00
1474, 639.00
1475, 639.00
1476, 640.00
1477, 640.00
1478, 640.00
1479, 640.00
1480, 641.00
1481, 641.00
1482, 642.00
1483, 642.00
1484, 642.00
1485, 643.00
1486, 644.00
1487, 644.00
1488, 644.00
1489, 644.00
1490, 644.00
1491, 645.00
1492, 646.00
1493, 645.00
1494, 647.00
1495, 647.00
1496, 648.00
1497, 647.00
1498, 648.00
1499, 648.00
1500, 649.00
1501, 649.00
1502, 649.00
1503, 649.00
1504, 651.00
1505, 651.00
1506, 651.00
1507, 652.00
1508, 652.00
1509, 653.00
1510, 653.00
1511, 653.00
1512, 654.00
1513, 654.00
1514, 655.00
1515, 655.00
1516, 656.00
1517, 655.00
1518, 658.00
1519, 658.00
1520, 658.00
1521, 657.00
1522, 659.00
1523, 659.00
1524, 659.00
1525, 659.00
1526, 661.00
1527, 662.00
1528, 661.00
1529, 663.00
1530, 663.00
1531, 663.00
1532, 664.00
1533, 663.00
1534, 664.00
1535, 665.00
1536, 665.00
1537, 665.00
1538, 666.00
1539, 667.00
1540, 668.00
1541, 668.00
1542, 669.00
1543, 669.00
1544, 670.00
1545, 669.00
1546, 670.00
1547, 670.00
1548, 670.00
1549, 671.00
1550, 672.00
1551, 672.00
1552, 673.00
1553, 672.00
1554, 673.00
1555, 674.00
1556, 675.00
1557, 674.00
1558, 674.00
1559, 676.00
1560, 675.00
1561, 677.00
1562, 677.00
1563, 677.00
1564, 678.00
1565, 679.00
1566, 679.00
1567, 680.00
1568, 679.00
1569, 680.00
1570, 681.00
1571, 681.00
1572, 681.00
1573, 682.00
1574, 682.00
1575, 683.00
1576, 684.00
1577, 683.00
1578, 685.00
1579, 684.00
1580, 685.00
1581, 686.00
1582, 686.00
1583, 687.00
1584, 687.00
1585, 687.00
1586, 688.00
1587, 688.00
1588, 688.00
1589, 689.00
1590, 690.00
1591, 689.00
1592, 690.00
1593, 690.00
1594, 691.00
1595, 692.00
1596, 692.00
1597, 692.00
1598, 693.00
1599, 694.00
1600, 694.00
1601, 695.00
1602, 694.00
1603, 696.00
1604, 697.00
1605, 696.00
1606, 697.00
1607, 697.00
1608, 698.00
1609, 698.00
1610, 699.00
1611, 700.00
1612, 700.00
1613, 700.00
1614, 701.00
1615, 701.00
1616, 702.00
1617, 703.00
1618, 703.00
1619, 704.00
1620, 705.00
1621, 705.00
1622, 705.00
1623, 707.00
1624, 707.00
1625, 708.00
1626, 708.00
1627, 709.00
1628, 709.00
1629, 709.00
1630, 710.00
1631, 711.00
1632, 711.00
1633, 711.00
1634, 712.00
1635, 713.00
1636, 713.00
1637, 713.00
1638, 715.00
1639, 714.00
1640, 715.00
1641, 715.00
1642, 715.00
1643, 716.00
1644, 717.00
1645, 717.00
1646, 718.00
1647, 717.00
1648, 718.00
1649, 719.00
1650, 719.00

1750, 1003.00
1751, 1004.00
1752, 1000.00
1753, 1003.00
1754, 1001.00
1755, 1003.00
1756, 1002.00
1757, 1003.00
1758, 1001.00
1759, 1004.00
1760, 1003.00
1761, 1003.00
1762, 1002.00
1763, 1003.00
1764, 1003.00
1765, 1002.00
1766, 1002.00
1767, 1003.00
1768, 1000.00
1769, 1001.00
1770, 1001.00
1771, 1001.00
1772, 1001.00
1773, 1001.00
1774, 1003.00
1775, 1001.00
1776, 1001.00
1777, 1000.00
1778, 1000.00
1779, 1000.00
1780, 999.00
1781, 1001.00
1782, 1000.00
1783, 1000.00
1784, 1001.00
1785, 999.00
1786, 1000.00
1787, 1000.00
1788, 999.00
1789, 999.00
1790, 999.00
1791, 999.00
1792, 1000.00
1793, 998.00
1794, 998.00
1795, 1000.00
1796, 997.00
1797, 997.00
1798, 997.00
1799, 997.00
1800, 997.00
1801, 996.00
1802, 996.00
1803, 997.00
1804, 997.00
1805, 997.00
1806, 997.00
1807, 996.00
1808, 996.00
1809, 997.00
1810, 996.00
1811, 995.00
1812, 995.00
1813, 994.00
1814, 996.00
1815, 995.00
1816, 996.00
1817, 994.00
1818, 994.00
1819, 993.00
1820, 992.00
1821, 993.00
1822, 991.00
1823, 993.00
1824, 992.00
1825, 991.00
1826, 991.00
1827, 990.00
1828, 989.00
1829, 991.00
1830, 991.00
1831, 989.00
1832, 988.00
1833, 987.00
1834, 988.00
1835, 986.00
1836, 985.00
1837, 985.00
1838, 984.00
1839, 984.00
1840, 984.00
1841, 982.00
1842, 982.00
1843, 980.00
1844, 979.00
1845, 978.00
1846, 977.00
1847, 976.00
1848, 977.00
1849, 974.00
1850, 974.00
1851, 971.00
1852, 972.00
1853, 971.00
1854, 970.00
1855, 968.00
1856, 969.00
1857, 969.00
1858, 968.00
1859, 967.00
1860, 965.00
1861, 967.00
1862, 963.00
1863, 963.00
1864, 962.00
1865, 963.00
1866, 962.00
1867, 960.00
1868, 960.00
1869, 958.00
1870, 960.00
1871, 959.00
1872, 958.00
1873, 958.00
1874, 957.00
1875, 956.00
1876, 957.00
1877, 955.00
1878, 957.00
1879, 955.00
1880, 955.00
1881, 955.00
1882, 954.00
1883, 955.00
1884, 953.00
1885, 952.00
1886, 952.00
1887, 953.00
1888, 952.00
1889, 952.00
1890, 952.00
1891, 951.00
1892, 952.00
1893, 953.00
1894, 953.00
1895, 952.00
1896, 951.00
1897, 951.00
1898, 950.00
1899, 950.00
1900, 949.00
1901, 950.00
1902, 950.00
1903, 950.00
1904, 950.00
1905, 951.00
1906, 951.00
1907, 949.00
1908, 949.00
1909, 950.00
1910, 950.00
1911, 951.00
1912, 949.00
1913, 950.00
1914, 949.00
1915, 949.00
1916, 949.00
1917, 949.00
1918, 948.00
1919, 949.00
1920, 948.00
1921, 948.00
1922, 950.00
1923, 950.00
1924, 947.00
1925, 949.00
1926, 948.00
1927, 949.00
1928, 949.00
1929, 950.00
1930, 951.00
1931, 950.00
1932, 950.00
1933, 949.00
1934, 949.00
1935, 949.00
1936, 949.00
1937, 951.00
1938, 949.00
1939, 950.00
1940, 950.00
1941, 950.00
1942, 950.00
1943, 949.00
1944, 949.00
1945, 949.00
1946, 949.00
1947, 950.00
1948, 950.00
1949, 949.00
1950, 950.00
1951, 951.00
1952, 952.00
1953, 950.00
1954, 950.00
1955, 951.00
1956, 950.00
1957, 951.00
1958, 953.00
1959, 952.00
1960, 952.00
1961, 951.00
1962, 951.00
1963, 952.00
1964, 951.00
1965, 953.00
1966, 951.00
1967, 953.00
1968, 952.00
1969, 952.00
1970, 954.00
1971, 953.00
1972, 955.00
1973, 953.00
1974, 955.00
1975, 953.00
1976, 954.00
1977, 954.00
1978, 954.00
1979, 955.00
1980, 956.00
1981, 954.00
1982, 956.00
1983, 956.00
1984, 955.00
1985, 955.00
1986, 958.00
1987, 958.00
1988, 956.00
1989, 956.00
1990, 956.00
1991, 958.00
1992, 958.00
1993, 957.00
1994, 957.00
1995, 958.00
1996, 958.00
1997, 959.00
1998, 960.00
1999, 959.00
2000, 959.00
2001, 959.00
2002, 960.00
2003, 958.00
2004, 960.00
2005, 961.00
2006, 959.00
2007, 961.00
2008, 962.00
2009, 961.00
2010, 960.00
2011, 961.00
2012, 962.00
2013, 962.00
2014, 961.00
2015, 962.00
2016, 963.00
2017, 962.00
2018, 963.00
2019, 965.00
2020, 964.00
2021, 963.00
2022, 964.00
2023, 964.00
2024, 963.00
2025, 964.00
2026, 965.00
2027, 966.00
2028, 967.00
2029, 968.00
2030, 965.00
2031, 966.00
2032, 965.00
2033, 966.00
2034, 967.00
2035, 968.00
2036, 967.00
2037, 966.00
2038, 967.00
2039, 968.00
2040, 969.00
2041, 969.00
2042, 968.00
2043, 969.00
2044, 970.00
2045, 971.00
2046, 972.00
2047, 970.00
2048, 971.00
2049, 971.00
2050, 968.00
2051, 972.00
2052, 972.00
2053, 972.00
2054, 974.00
2055, 974.00
2056, 973.00
2057, 973.00
2058, 975.00
2059, 975.00
2060, 975.00
2061, 976.00
2062, 976.00
2063, 974.00
2064, 976.00
2065, 976.00
2066, 976.00
2067, 978.00
2068, 978.00
2069, 979.00
2070, 977.00
2071, 978.00
2072, 979.00
2073, 979.00
2074, 980.00
2075, 979.00
2076, 979.00
2077, 980.00
2078, 982.00
2079, 982.00
2080, 981.00
2081, 983.00
2082, 982.00
2083, 983.00
2084, 981.00
2085, 984.00
2086, 984.00
2087, 984.00
2088, 983.00
2089, 984.00
2090, 985.00
2091, 984.00
2092, 984.00
2093, 985.00
2094, 985.00
2095, 985.00
2096, 985.00
2097, 988.00
2098, 987.00
2099, 987.00
2100, 987.00
2101, 987.00
2102, 987.00
2103, 987.00
2104, 987.00
2105, 989.00
2106, 987.00
2107, 988.00
2108, 989.00
2109, 988.00
2110, 988.00
2111, 988.00
2112, 989.00
2113, 991.00
2114, 992.00
2115, 989.00
2116, 990.00
2117, 991.00
2118, 990.00
2119, 991.00
2120, 989.00
2121, 990.00
2122, 991.00
2123, 991.00
2124, 991.00
2125, 990.00
2126, 990.00
2127, 992.00
2128, 991.00
2129, 993.00
2130, 992.00
2131, 992.00
2132, 994.00
2133, 992.00
2134, 994.00
2135, 993.00
2136, 993.00
2137, 992.00
2138, 993.00
2139, 993.00
2140, 993.00
2141, 994.00
2142, 993.00
2143, 995.00
2144, 994.00
2145, 995.00
2146, 994.00
2147, 995.00
2148, 994.00
2149, 992.00
2150, 994.00
