FW version: 24
Log Version: 3.0.3

General Info:
       Command/Macro Performed,            Timestamp,             Device ID, COM Port, UART/I2C, Test Name, Host Major, Host Minor, Host Revision, Host Git Commit
            Single_measurement,  2023_06_29_10_40_22,       Insight2_F4_xxx,    USB-C,      USB,          ,          0,          1,             1,      4031237645

Show Spectrometer Status:
l0_version, f4_version, battery_perc, battery_mVolt, accelerometer_temp, accelerometer_x, accelerometer_y, accelerometer_z, compass_temp, compass_x, compass_y, compass_z, lamp_0, lamp_1, gain_0, gain_1
        17,         24,           92,          2061,               5744,           65472,              24,           18460,            0,     65519,     65401,     65436,   2047,   2047,      1,      1

Temperature Statistic Info:
NTC AVG [°C], NTC2 AVG [°C]
      36.863,        36.580

Statistic Info:
M1:  num,      min,      max,   median,      AVG,      STD,M2:  num,      min,      max,   median,      AVG,      STD
     301,   627.00,   718.00,   649.00,   658.64,  28.8153,     401,   948.00,  1004.00,   973.00,   973.36,  18.4462,

Measurements:
Wavelength, Data Amplitude
1350, 641.00
1351, 641.00
1352, 639.00
1353, 640.00
1354, 640.00
1355, 640.00
1356, 639.00
1357, 639.00
1358, 639.00
1359, 638.00
1360, 638.00
1361, 638.00
1362, 637.00
1363, 637.00
1364, 637.00
1365, 635.00
1366, 636.00
1367, 636.00
1368, 636.00
1369, 635.00
1370, 635.00
1371, 634.00
1372, 634.00
1373, 634.00
1374, 633.00
1375, 633.00
1376, 632.00
1377, 632.00
1378, 631.00
1379, 632.00
1380, 631.00
1381, 631.00
1382, 631.00
1383, 631.00
1384, 631.00
1385, 630.00
1386, 631.00
1387, 630.00
1388, 630.00
1389, 629.00
1390, 629.00
1391, 629.00
1392, 630.00
1393, 629.00
1394, 629.00
1395, 628.00
1396, 628.00
1397, 629.00
1398, 629.00
1399, 630.00
1400, 628.00
1401, 629.00
1402, 628.00
1403, 628.00
1404, 629.00
1405, 628.00
1406, 628.00
1407, 628.00
1408, 628.00
1409, 627.00
1410, 628.00
1411, 629.00
1412, 629.00
1413, 628.00
1414, 627.00
1415, 629.00
1416, 628.00
1417, 629.00
1418, 628.00
1419, 627.00
1420, 628.00
1421, 628.00
1422, 628.00
1423, 628.00
1424, 628.00
1425, 629.00
1426, 628.00
1427, 629.00
1428, 629.00
1429, 629.00
1430, 629.00
1431, 629.00
1432, 629.00
1433, 629.00
1434, 629.00
1435, 629.00
1436, 629.00
1437, 630.00
1438, 630.00
1439, 630.00
1440, 630.00
1441, 629.00
1442, 630.00
1443, 631.00
1444, 631.00
1445, 631.00
1446, 632.00
1447, 632.00
1448, 632.00
1449, 632.00
1450, 632.00
1451, 633.00
1452, 633.00
1453, 633.00
1454, 634.00
1455, 633.00
1456, 633.00
1457, 634.00
1458, 634.00
1459, 634.00
1460, 634.00
1461, 634.00
1462, 635.00
1463, 636.00
1464, 635.00
1465, 636.00
1466, 636.00
1467, 636.00
1468, 637.00
1469, 636.00
1470, 636.00
1471, 638.00
1472, 638.00
1473, 638.00
1474, 639.00
1475, 639.00
1476, 640.00
1477, 640.00
1478, 640.00
1479, 640.00
1480, 641.00
1481, 640.00
1482, 641.00
1483, 641.00
1484, 642.00
1485, 643.00
1486, 642.00
1487, 643.00
1488, 644.00
1489, 644.00
1490, 645.00
1491, 644.00
1492, 645.00
1493, 646.00
1494, 646.00
1495, 647.00
1496, 647.00
1497, 647.00
1498, 648.00
1499, 649.00
1500, 649.00
1501, 649.00
1502, 650.00
1503, 650.00
1504, 651.00
1505, 651.00
1506, 652.00
1507, 652.00
1508, 652.00
1509, 652.00
1510, 653.00
1511, 654.00
1512, 654.00
1513, 654.00
1514, 656.00
1515, 655.00
1516, 657.00
1517, 656.00
1518, 657.00
1519, 658.00
1520, 658.00
1521, 659.00
1522, 659.00
1523, 659.00
1524, 660.00
1525, 661.00
1526, 661.00
1527, 661.00
1528, 661.00
1529, 662.00
1530, 662.00
1531, 662.00
1532, 663.00
1533, 664.00
1534, 664.00
1535, 666.00
1536, 666.00
1537, 666.00
1538, 667.00
1539, 666.00
1540, 668.00
1541, 668.00
1542, 669.00
1543, 669.00
1544, 669.00
1545, 670.00
1546, 669.00
1547, 669.00
1548, 670.00
1549, 672.00
1550, 672.00
1551, 671.00
1552, 672.00
1553, 672.00
1554, 673.00
1555, 674.00
1556, 673.00
1557, 674.00
1558, 675.00
1559, 675.00
1560, 676.00
1561, 676.00
1562, 676.00
1563, 676.00
1564, 677.00
1565, 677.00
1566, 679.00
1567, 679.00
1568, 679.00
1569, 680.00
1570, 681.00
1571, 680.00
1572, 681.00
1573, 682.00
1574, 682.00
1575, 682.00
1576, 683.00
1577, 684.00
1578, 684.00
1579, 684.00
1580, 685.00
1581, 686.00
1582, 686.00
1583, 687.00
1584, 686.00
1585, 687.00
1586, 688.00
1587, 688.00
1588, 688.00
1589, 687.00
1590, 689.00
1591, 690.00
1592, 690.00
1593, 690.00
1594, 691.00
1595, 691.00
1596, 692.00
1597, 692.00
1598, 692.00
1599, 693.00
1600, 693.00
1601, 693.00
1602, 694.00
1603, 695.00
1604, 697.00
1605, 696.00
1606, 696.00
1607, 697.00
1608, 697.00
1609, 698.00
1610, 698.00
1611, 699.00
1612, 701.00
1613, 701.00
1614, 701.00
1615, 702.00
1616, 702.00
1617, 703.00
1618, 704.00
1619, 704.00
1620, 705.00
1621, 705.00
1622, 706.00
1623, 706.00
1624, 707.00
1625, 708.00
1626, 709.00
1627, 708.00
1628, 709.00
1629, 710.00
1630, 710.00
1631, 710.00
1632, 711.00
1633, 712.00
1634, 712.00
1635, 713.00
1636, 713.00
1637, 713.00
1638, 714.00
1639, 713.00
1640, 715.00
1641, 715.00
1642, 716.00
1643, 716.00
1644, 716.00
1645, 717.00
1646, 716.00
1647, 717.00
1648, 717.00
1649, 718.00
1650, 718.00

1750, 1002.00
1751, 1002.00
1752, 1002.00
1753, 1001.00
1754, 1001.00
1755, 1001.00
1756, 1000.00
1757, 1001.00
1758, 1002.00
1759, 1004.00
1760, 1002.00
1761, 1001.00
1762, 1002.00
1763, 1003.00
1764, 1002.00
1765, 1001.00
1766, 1001.00
1767, 1002.00
1768, 1001.00
1769, 1001.00
1770, 1002.00
1771, 1002.00
1772, 1001.00
1773, 1002.00
1774, 1001.00
1775, 1000.00
1776, 1001.00
1777, 1000.00
1778, 1000.00
1779, 999.00
1780, 1001.00
1781, 999.00
1782, 1000.00
1783, 999.00
1784, 1001.00
1785, 999.00
1786, 998.00
1787, 999.00
1788, 1000.00
1789, 999.00
1790, 998.00
1791, 998.00
1792, 998.00
1793, 998.00
1794, 999.00
1795, 998.00
1796, 997.00
1797, 998.00
1798, 996.00
1799, 997.00
1800, 997.00
1801, 996.00
1802, 996.00
1803, 996.00
1804, 997.00
1805, 996.00
1806, 996.00
1807, 996.00
1808, 995.00
1809, 996.00
1810, 996.00
1811, 994.00
1812, 996.00
1813, 994.00
1814, 995.00
1815, 993.00
1816, 995.00
1817, 994.00
1818, 994.00
1819, 994.00
1820, 994.00
1821, 993.00
1822, 991.00
1823, 992.00
1824, 989.00
1825, 991.00
1826, 991.00
1827, 990.00
1828, 990.00
1829, 989.00
1830, 987.00
1831, 988.00
1832, 986.00
1833, 987.00
1834, 988.00
1835, 986.00
1836, 986.00
1837, 986.00
1838, 982.00
1839, 984.00
1840, 983.00
1841, 982.00
1842, 982.00
1843, 980.00
1844, 980.00
1845, 978.00
1846, 977.00
1847, 978.00
1848, 976.00
1849, 975.00
1850, 975.00
1851, 974.00
1852, 973.00
1853, 971.00
1854, 970.00
1855, 971.00
1856, 970.00
1857, 969.00
1858, 967.00
1859, 966.00
1860, 965.00
1861, 963.00
1862, 964.00
1863, 964.00
1864, 962.00
1865, 962.00
1866, 961.00
1867, 959.00
1868, 961.00
1869, 959.00
1870, 958.00
1871, 958.00
1872, 958.00
1873, 956.00
1874, 957.00
1875, 956.00
1876, 956.00
1877, 955.00
1878, 956.00
1879, 953.00
1880, 954.00
1881, 955.00
1882, 955.00
1883, 954.00
1884, 953.00
1885, 951.00
1886, 951.00
1887, 953.00
1888, 952.00
1889, 953.00
1890, 952.00
1891, 953.00
1892, 952.00
1893, 951.00
1894, 951.00
1895, 950.00
1896, 950.00
1897, 952.00
1898, 951.00
1899, 951.00
1900, 950.00
1901, 951.00
1902, 949.00
1903, 950.00
1904, 950.00
1905, 949.00
1906, 951.00
1907, 949.00
1908, 949.00
1909, 949.00
1910, 949.00
1911, 950.00
1912, 948.00
1913, 948.00
1914, 948.00
1915, 948.00
1916, 949.00
1917, 951.00
1918, 948.00
1919, 948.00
1920, 950.00
1921, 948.00
1922, 948.00
1923, 949.00
1924, 949.00
1925, 948.00
1926, 948.00
1927, 949.00
1928, 949.00
1929, 949.00
1930, 949.00
1931, 948.00
1932, 949.00
1933, 949.00
1934, 948.00
1935, 949.00
1936, 948.00
1937, 950.00
1938, 949.00
1939, 949.00
1940, 949.00
1941, 949.00
1942, 949.00
1943, 950.00
1944, 951.00
1945, 950.00
1946, 950.00
1947, 951.00
1948, 949.00
1949, 951.00
1950, 949.00
1951, 951.00
1952, 951.00
1953, 950.00
1954, 950.00
1955, 951.00
1956, 953.00
1957, 950.00
1958, 950.00
1959, 950.00
1960, 951.00
1961, 951.00
1962, 953.00
1963, 952.00
1964, 951.00
1965, 951.00
1966, 951.00
1967, 953.00
1968, 954.00
1969, 954.00
1970, 953.00
1971, 952.00
1972, 954.00
1973, 953.00
1974, 957.00
1975, 953.00
1976, 955.00
1977, 954.00
1978, 954.00
1979, 955.00
1980, 954.00
1981, 957.00
1982, 957.00
1983, 957.00
1984, 955.00
1985, 956.00
1986, 957.00
1987, 956.00
1988, 956.00
1989, 958.00
1990, 957.00
1991, 958.00
1992, 958.00
1993, 957.00
1994, 957.00
1995, 960.00
1996, 958.00
1997, 957.00
1998, 959.00
1999, 958.00
2000, 958.00
2001, 959.00
2002, 959.00
2003, 959.00
2004, 959.00
2005, 959.00
2006, 959.00
2007, 960.00
2008, 960.00
2009, 961.00
2010, 963.00
2011, 962.00
2012, 962.00
2013, 960.00
2014, 963.00
2015, 961.00
2016, 963.00
2017, 962.00
2018, 963.00
2019, 964.00
2020, 963.00
2021, 964.00
2022, 964.00
2023, 964.00
2024, 965.00
2025, 965.00
2026, 965.00
2027, 965.00
2028, 965.00
2029, 964.00
2030, 967.00
2031, 965.00
2032, 966.00
2033, 966.00
2034, 966.00
2035, 969.00
2036, 966.00
2037, 967.00
2038, 968.00
2039, 968.00
2040, 969.00
2041, 970.00
2042, 968.00
2043, 970.00
2044, 970.00
2045, 971.00
2046, 970.00
2047, 970.00
2048, 971.00
2049, 971.00
2050, 970.00
2051, 972.00
2052, 973.00
2053, 974.00
2054, 973.00
2055, 972.00
2056, 973.00
2057, 975.00
2058, 974.00
2059, 975.00
2060, 974.00
2061, 975.00
2062, 977.00
2063, 977.00
2064, 976.00
2065, 977.00
2066, 977.00
2067, 976.00
2068, 978.00
2069, 980.00
2070, 977.00
2071, 979.00
2072, 980.00
2073, 980.00
2074, 979.00
2075, 980.00
2076, 982.00
2077, 980.00
2078, 980.00
2079, 981.00
2080, 982.00
2081, 983.00
2082, 982.00
2083, 982.00
2084, 983.00
2085, 983.00
2086, 983.00
2087, 985.00
2088, 983.00
2089, 985.00
2090, 985.00
2091, 986.00
2092, 985.00
2093, 984.00
2094, 987.00
2095, 987.00
2096, 985.00
2097, 987.00
2098, 985.00
2099, 986.00
2100, 985.00
2101, 986.00
2102, 987.00
2103, 990.00
2104, 988.00
2105, 987.00
2106, 988.00
2107, 988.00
2108, 988.00
2109, 988.00
2110, 989.00
2111, 988.00
2112, 989.00
2113, 990.00
2114, 988.00
2115, 989.00
2116, 989.00
2117, 991.00
2118, 989.00
2119, 991.00
2120, 990.00
2121, 991.00
2122, 990.00
2123, 991.00
2124, 991.00
2125, 991.00
2126, 990.00
2127, 991.00
2128, 991.00
2129, 991.00
2130, 991.00
2131, 993.00
2132, 992.00
2133, 991.00
2134, 991.00
2135, 993.00
2136, 993.00
2137, 992.00
2138, 996.00
2139, 994.00
2140, 992.00
2141, 992.00
2142, 993.00
2143, 993.00
2144, 995.00
2145, 994.00
2146, 994.00
2147, 994.00
2148, 995.00
2149, 993.00
2150, 993.00
