FW version: 24
Log Version: 3.0.3

General Info:
       Command/Macro Performed,            Timestamp,             Device ID, COM Port, UART/I2C, Test Name, Host Major, Host Minor, Host Revision, Host Git Commit
            Single_measurement,  2023_06_30_12_06_19,       Insight2_F4_xxx,    USB-C,      USB,          ,          0,          1,             1,      4031237645

Show Spectrometer Status:
l0_version, f4_version, battery_perc, battery_mVolt, accelerometer_temp, accelerometer_x, accelerometer_y, accelerometer_z, compass_temp, compass_x, compass_y, compass_z, lamp_0, lamp_1, gain_0, gain_1
        17,         24,           95,          2078,               5808,             212,             992,           18516,            0,     65532,     65510,     65501,   2457,   2457,      1,      1

Temperature Statistic Info:
NTC AVG [°C], NTC2 AVG [°C]
      37.783,        37.497

Statistic Info:
M1:  num,      min,      max,   median,      AVG,      STD,M2:  num,      min,      max,   median,      AVG,      STD
     301,  1017.00,  1155.00,  1050.00,  1063.20,  43.0406,     401,  1498.00,  1583.00,  1545.00,  1542.04,  29.5330,

Measurements:
Wavelength, Data Amplitude
1350, 1031.00
1351, 1031.00
1352, 1030.00
1353, 1031.00
1354, 1030.00
1355, 1031.00
1356, 1030.00
1357, 1030.00
1358, 1029.00
1359, 1029.00
1360, 1029.00
1361, 1029.00
1362, 1028.00
1363, 1028.00
1364, 1027.00
1365, 1027.00
1366, 1027.00
1367, 1027.00
1368, 1026.00
1369, 1026.00
1370, 1026.00
1371, 1025.00
1372, 1024.00
1373, 1024.00
1374, 1024.00
1375, 1024.00
1376, 1023.00
1377, 1022.00
1378, 1022.00
1379, 1022.00
1380, 1022.00
1381, 1021.00
1382, 1021.00
1383, 1020.00
1384, 1021.00
1385, 1021.00
1386, 1019.00
1387, 1018.00
1388, 1020.00
1389, 1020.00
1390, 1019.00
1391, 1019.00
1392, 1020.00
1393, 1020.00
1394, 1018.00
1395, 1019.00
1396, 1018.00
1397, 1018.00
1398, 1019.00
1399, 1017.00
1400, 1018.00
1401, 1018.00
1402, 1018.00
1403, 1018.00
1404, 1019.00
1405, 1018.00
1406, 1017.00
1407, 1018.00
1408, 1018.00
1409, 1018.00
1410, 1017.00
1411, 1018.00
1412, 1018.00
1413, 1018.00
1414, 1018.00
1415, 1018.00
1416, 1017.00
1417, 1018.00
1418, 1018.00
1419, 1018.00
1420, 1017.00
1421, 1017.00
1422, 1019.00
1423, 1018.00
1424, 1019.00
1425, 1018.00
1426, 1018.00
1427, 1018.00
1428, 1018.00
1429, 1019.00
1430, 1019.00
1431, 1020.00
1432, 1021.00
1433, 1020.00
1434, 1020.00
1435, 1020.00
1436, 1020.00
1437, 1021.00
1438, 1021.00
1439, 1021.00
1440, 1022.00
1441, 1022.00
1442, 1022.00
1443, 1022.00
1444, 1023.00
1445, 1024.00
1446, 1024.00
1447, 1024.00
1448, 1025.00
1449, 1025.00
1450, 1025.00
1451, 1025.00
1452, 1025.00
1453, 1026.00
1454, 1026.00
1455, 1027.00
1456, 1027.00
1457, 1028.00
1458, 1028.00
1459, 1029.00
1460, 1028.00
1461, 1028.00
1462, 1030.00
1463, 1030.00
1464, 1030.00
1465, 1031.00
1466, 1031.00
1467, 1031.00
1468, 1031.00
1469, 1032.00
1470, 1033.00
1471, 1034.00
1472, 1034.00
1473, 1035.00
1474, 1035.00
1475, 1036.00
1476, 1035.00
1477, 1037.00
1478, 1038.00
1479, 1038.00
1480, 1038.00
1481, 1039.00
1482, 1040.00
1483, 1040.00
1484, 1040.00
1485, 1041.00
1486, 1042.00
1487, 1042.00
1488, 1043.00
1489, 1043.00
1490, 1044.00
1491, 1044.00
1492, 1046.00
1493, 1046.00
1494, 1046.00
1495, 1047.00
1496, 1047.00
1497, 1048.00
1498, 1049.00
1499, 1049.00
1500, 1050.00
1501, 1050.00
1502, 1051.00
1503, 1050.00
1504, 1052.00
1505, 1052.00
1506, 1053.00
1507, 1054.00
1508, 1055.00
1509, 1056.00
1510, 1056.00
1511, 1057.00
1512, 1057.00
1513, 1058.00
1514, 1058.00
1515, 1058.00
1516, 1059.00
1517, 1061.00
1518, 1061.00
1519, 1061.00
1520, 1062.00
1521, 1063.00
1522, 1063.00
1523, 1064.00
1524, 1065.00
1525, 1064.00
1526, 1066.00
1527, 1066.00
1528, 1067.00
1529, 1068.00
1530, 1069.00
1531, 1069.00
1532, 1070.00
1533, 1070.00
1534, 1071.00
1535, 1072.00
1536, 1072.00
1537, 1075.00
1538, 1074.00
1539, 1074.00
1540, 1075.00
1541, 1076.00
1542, 1076.00
1543, 1077.00
1544, 1077.00
1545, 1077.00
1546, 1079.00
1547, 1080.00
1548, 1080.00
1549, 1080.00
1550, 1081.00
1551, 1082.00
1552, 1083.00
1553, 1083.00
1554, 1083.00
1555, 1084.00
1556, 1085.00
1557, 1086.00
1558, 1088.00
1559, 1087.00
1560, 1088.00
1561, 1089.00
1562, 1089.00
1563, 1090.00
1564, 1091.00
1565, 1091.00
1566, 1093.00
1567, 1093.00
1568, 1092.00
1569, 1095.00
1570, 1095.00
1571, 1096.00
1572, 1097.00
1573, 1097.00
1574, 1099.00
1575, 1099.00
1576, 1100.00
1577, 1099.00
1578, 1101.00
1579, 1101.00
1580, 1103.00
1581, 1102.00
1582, 1104.00
1583, 1104.00
1584, 1103.00
1585, 1105.00
1586, 1107.00
1587, 1106.00
1588, 1107.00
1589, 1108.00
1590, 1108.00
1591, 1109.00
1592, 1109.00
1593, 1110.00
1594, 1112.00
1595, 1111.00
1596, 1112.00
1597, 1113.00
1598, 1113.00
1599, 1114.00
1600, 1114.00
1601, 1116.00
1602, 1117.00
1603, 1117.00
1604, 1118.00
1605, 1119.00
1606, 1119.00
1607, 1120.00
1608, 1121.00
1609, 1122.00
1610, 1123.00
1611, 1123.00
1612, 1125.00
1613, 1125.00
1614, 1126.00
1615, 1128.00
1616, 1128.00
1617, 1129.00
1618, 1129.00
1619, 1130.00
1620, 1131.00
1621, 1133.00
1622, 1133.00
1623, 1133.00
1624, 1135.00
1625, 1136.00
1626, 1137.00
1627, 1137.00
1628, 1138.00
1629, 1139.00
1630, 1141.00
1631, 1141.00
1632, 1142.00
1633, 1142.00
1634, 1143.00
1635, 1144.00
1636, 1145.00
1637, 1145.00
1638, 1146.00
1639, 1147.00
1640, 1148.00
1641, 1148.00
1642, 1149.00
1643, 1150.00
1644, 1151.00
1645, 1152.00
1646, 1153.00
1647, 1152.00
1648, 1153.00
1649, 1155.00
1650, 1155.00

1750, 1580.00
1751, 1580.00
1752, 1581.00
1753, 1581.00
1754, 1583.00
1755, 1580.00
1756, 1583.00
1757, 1580.00
1758, 1581.00
1759, 1581.00
1760, 1582.00
1761, 1580.00
1762, 1581.00
1763, 1581.00
1764, 1580.00
1765, 1581.00
1766, 1580.00
1767, 1580.00
1768, 1579.00
1769, 1581.00
1770, 1579.00
1771, 1580.00
1772, 1581.00
1773, 1580.00
1774, 1578.00
1775, 1580.00
1776, 1579.00
1777, 1579.00
1778, 1578.00
1779, 1578.00
1780, 1578.00
1781, 1577.00
1782, 1575.00
1783, 1578.00
1784, 1575.00
1785, 1576.00
1786, 1576.00
1787, 1575.00
1788, 1577.00
1789, 1575.00
1790, 1575.00
1791, 1573.00
1792, 1575.00
1793, 1574.00
1794, 1573.00
1795, 1573.00
1796, 1572.00
1797, 1574.00
1798, 1573.00
1799, 1574.00
1800, 1571.00
1801, 1573.00
1802, 1572.00
1803, 1572.00
1804, 1573.00
1805, 1571.00
1806, 1571.00
1807, 1571.00
1808, 1571.00
1809, 1571.00
1810, 1569.00
1811, 1570.00
1812, 1570.00
1813, 1570.00
1814, 1571.00
1815, 1568.00
1816, 1570.00
1817, 1570.00
1818, 1568.00
1819, 1569.00
1820, 1568.00
1821, 1567.00
1822, 1567.00
1823, 1565.00
1824, 1565.00
1825, 1568.00
1826, 1565.00
1827, 1565.00
1828, 1565.00
1829, 1564.00
1830, 1563.00
1831, 1562.00
1832, 1561.00
1833, 1561.00
1834, 1560.00
1835, 1560.00
1836, 1559.00
1837, 1557.00
1838, 1556.00
1839, 1556.00
1840, 1556.00
1841, 1555.00
1842, 1553.00
1843, 1552.00
1844, 1550.00
1845, 1549.00
1846, 1548.00
1847, 1549.00
1848, 1546.00
1849, 1545.00
1850, 1543.00
1851, 1541.00
1852, 1540.00
1853, 1539.00
1854, 1537.00
1855, 1535.00
1856, 1533.00
1857, 1532.00
1858, 1532.00
1859, 1529.00
1860, 1528.00
1861, 1527.00
1862, 1529.00
1863, 1525.00
1864, 1524.00
1865, 1523.00
1866, 1522.00
1867, 1520.00
1868, 1518.00
1869, 1517.00
1870, 1516.00
1871, 1516.00
1872, 1515.00
1873, 1513.00
1874, 1514.00
1875, 1513.00
1876, 1511.00
1877, 1511.00
1878, 1510.00
1879, 1510.00
1880, 1506.00
1881, 1509.00
1882, 1509.00
1883, 1507.00
1884, 1507.00
1885, 1507.00
1886, 1504.00
1887, 1505.00
1888, 1505.00
1889, 1505.00
1890, 1503.00
1891, 1504.00
1892, 1503.00
1893, 1505.00
1894, 1505.00
1895, 1504.00
1896, 1501.00
1897, 1502.00
1898, 1501.00
1899, 1502.00
1900, 1501.00
1901, 1502.00
1902, 1500.00
1903, 1502.00
1904, 1500.00
1905, 1501.00
1906, 1501.00
1907, 1500.00
1908, 1498.00
1909, 1500.00
1910, 1500.00
1911, 1501.00
1912, 1501.00
1913, 1501.00
1914, 1499.00
1915, 1500.00
1916, 1498.00
1917, 1499.00
1918, 1498.00
1919, 1499.00
1920, 1500.00
1921, 1499.00
1922, 1498.00
1923, 1498.00
1924, 1498.00
1925, 1499.00
1926, 1499.00
1927, 1499.00
1928, 1500.00
1929, 1500.00
1930, 1499.00
1931, 1500.00
1932, 1500.00
1933, 1499.00
1934, 1498.00
1935, 1499.00
1936, 1500.00
1937, 1501.00
1938, 1500.00
1939, 1499.00
1940, 1501.00
1941, 1501.00
1942, 1499.00
1943, 1501.00
1944, 1501.00
1945, 1501.00
1946, 1502.00
1947, 1503.00
1948, 1502.00
1949, 1504.00
1950, 1503.00
1951, 1504.00
1952, 1505.00
1953, 1502.00
1954, 1503.00
1955, 1505.00
1956, 1505.00
1957, 1505.00
1958, 1503.00
1959, 1506.00
1960, 1505.00
1961, 1505.00
1962, 1505.00
1963, 1506.00
1964, 1507.00
1965, 1509.00
1966, 1509.00
1967, 1509.00
1968, 1507.00
1969, 1509.00
1970, 1510.00
1971, 1509.00
1972, 1510.00
1973, 1512.00
1974, 1511.00
1975, 1512.00
1976, 1512.00
1977, 1512.00
1978, 1513.00
1979, 1512.00
1980, 1513.00
1981, 1515.00
1982, 1515.00
1983, 1516.00
1984, 1515.00
1985, 1516.00
1986, 1517.00
1987, 1517.00
1988, 1517.00
1989, 1517.00
1990, 1517.00
1991, 1519.00
1992, 1519.00
1993, 1521.00
1994, 1520.00
1995, 1520.00
1996, 1521.00
1997, 1520.00
1998, 1519.00
1999, 1522.00
2000, 1523.00
2001, 1523.00
2002, 1524.00
2003, 1522.00
2004, 1524.00
2005, 1524.00
2006, 1523.00
2007, 1525.00
2008, 1524.00
2009, 1525.00
2010, 1525.00
2011, 1527.00
2012, 1527.00
2013, 1528.00
2014, 1529.00
2015, 1528.00
2016, 1529.00
2017, 1529.00
2018, 1529.00
2019, 1529.00
2020, 1533.00
2021, 1531.00
2022, 1532.00
2023, 1531.00
2024, 1532.00
2025, 1533.00
2026, 1534.00
2027, 1533.00
2028, 1533.00
2029, 1534.00
2030, 1534.00
2031, 1535.00
2032, 1535.00
2033, 1536.00
2034, 1536.00
2035, 1537.00
2036, 1536.00
2037, 1536.00
2038, 1537.00
2039, 1539.00
2040, 1540.00
2041, 1540.00
2042, 1541.00
2043, 1543.00
2044, 1541.00
2045, 1542.00
2046, 1542.00
2047, 1543.00
2048, 1543.00
2049, 1543.00
2050, 1545.00
2051, 1545.00
2052, 1545.00
2053, 1547.00
2054, 1545.00
2055, 1548.00
2056, 1550.00
2057, 1548.00
2058, 1549.00
2059, 1549.00
2060, 1550.00
2061, 1550.00
2062, 1553.00
2063, 1552.00
2064, 1553.00
2065, 1553.00
2066, 1554.00
2067, 1557.00
2068, 1556.00
2069, 1556.00
2070, 1556.00
2071, 1559.00
2072, 1558.00
2073, 1558.00
2074, 1557.00
2075, 1559.00
2076, 1559.00
2077, 1560.00
2078, 1560.00
2079, 1563.00
2080, 1561.00
2081, 1562.00
2082, 1562.00
2083, 1562.00
2084, 1563.00
2085, 1564.00
2086, 1565.00
2087, 1566.00
2088, 1565.00
2089, 1567.00
2090, 1567.00
2091, 1567.00
2092, 1567.00
2093, 1570.00
2094, 1569.00
2095, 1568.00
2096, 1568.00
2097, 1569.00
2098, 1570.00
2099, 1571.00
2100, 1569.00
2101, 1569.00
2102, 1571.00
2103, 1570.00
2104, 1571.00
2105, 1571.00
2106, 1571.00
2107, 1575.00
2108, 1571.00
2109, 1574.00
2110, 1571.00
2111, 1574.00
2112, 1573.00
2113, 1574.00
2114, 1574.00
2115, 1573.00
2116, 1574.00
2117, 1575.00
2118, 1575.00
2119, 1575.00
2120, 1574.00
2121, 1575.00
2122, 1574.00
2123, 1575.00
2124, 1575.00
2125, 1576.00
2126, 1577.00
2127, 1577.00
2128, 1577.00
2129, 1577.00
2130, 1577.00
2131, 1576.00
2132, 1576.00
2133, 1576.00
2134, 1577.00
2135, 1579.00
2136, 1576.00
2137, 1579.00
2138, 1577.00
2139, 1579.00
2140, 1578.00
2141, 1580.00
2142, 1579.00
2143, 1578.00
2144, 1579.00
2145, 1579.00
2146, 1579.00
2147, 1579.00
2148, 1579.00
2149, 1579.00
2150, 1581.00
