FW version: 24
Log Version: 3.0.3

General Info:
       Command/Macro Performed,            Timestamp,             Device ID, COM Port, UART/I2C, Test Name, Host Major, Host Minor, Host Revision, Host Git Commit
            Single_measurement,  2023_06_30_12_06_58,       Insight2_F4_xxx,    USB-C,      USB,          ,          0,          1,             1,      4031237645

Show Spectrometer Status:
l0_version, f4_version, battery_perc, battery_mVolt, accelerometer_temp, accelerometer_x, accelerometer_y, accelerometer_z, compass_temp, compass_x, compass_y, compass_z, lamp_0, lamp_1, gain_0, gain_1
        17,         24,           95,          2079,               5872,             176,             968,           18484,            0,     65463,     65481,     65535,   3276,   3276,      1,      1

Temperature Statistic Info:
NTC AVG [°C], NTC2 AVG [°C]
      38.040,        37.755

Statistic Info:
M1:  num,      min,      max,   median,      AVG,      STD,M2:  num,      min,      max,   median,      AVG,      STD
     301,  1760.00,  1980.00,  1810.00,  1832.98,  68.5160,     401,  2400.00,  2537.00,  2473.00,  2469.62,  46.1520,

Measurements:
Wavelength, Data Amplitude
1350, 1787.00
1351, 1786.00
1352, 1786.00
1353, 1786.00
1354, 1784.00
1355, 1785.00
1356, 1785.00
1357, 1783.00
1358, 1783.00
1359, 1783.00
1360, 1783.00
1361, 1781.00
1362, 1782.00
1363, 1781.00
1364, 1780.00
1365, 1779.00
1366, 1778.00
1367, 1778.00
1368, 1778.00
1369, 1776.00
1370, 1777.00
1371, 1775.00
1372, 1774.00
1373, 1773.00
1374, 1773.00
1375, 1773.00
1376, 1771.00
1377, 1770.00
1378, 1770.00
1379, 1770.00
1380, 1768.00
1381, 1769.00
1382, 1769.00
1383, 1766.00
1384, 1767.00
1385, 1765.00
1386, 1765.00
1387, 1765.00
1388, 1764.00
1389, 1765.00
1390, 1764.00
1391, 1763.00
1392, 1764.00
1393, 1763.00
1394, 1762.00
1395, 1763.00
1396, 1762.00
1397, 1763.00
1398, 1761.00
1399, 1761.00
1400, 1761.00
1401, 1760.00
1402, 1761.00
1403, 1761.00
1404, 1760.00
1405, 1762.00
1406, 1761.00
1407, 1761.00
1408, 1761.00
1409, 1760.00
1410, 1762.00
1411, 1761.00
1412, 1760.00
1413, 1760.00
1414, 1761.00
1415, 1761.00
1416, 1760.00
1417, 1760.00
1418, 1760.00
1419, 1761.00
1420, 1761.00
1421, 1761.00
1422, 1761.00
1423, 1761.00
1424, 1762.00
1425, 1761.00
1426, 1762.00
1427, 1762.00
1428, 1761.00
1429, 1763.00
1430, 1763.00
1431, 1762.00
1432, 1763.00
1433, 1763.00
1434, 1764.00
1435, 1765.00
1436, 1764.00
1437, 1764.00
1438, 1765.00
1439, 1766.00
1440, 1766.00
1441, 1768.00
1442, 1767.00
1443, 1768.00
1444, 1768.00
1445, 1768.00
1446, 1769.00
1447, 1771.00
1448, 1771.00
1449, 1772.00
1450, 1770.00
1451, 1771.00
1452, 1773.00
1453, 1773.00
1454, 1773.00
1455, 1773.00
1456, 1774.00
1457, 1775.00
1458, 1776.00
1459, 1777.00
1460, 1776.00
1461, 1778.00
1462, 1778.00
1463, 1778.00
1464, 1778.00
1465, 1780.00
1466, 1781.00
1467, 1782.00
1468, 1783.00
1469, 1783.00
1470, 1784.00
1471, 1784.00
1472, 1785.00
1473, 1786.00
1474, 1787.00
1475, 1788.00
1476, 1789.00
1477, 1789.00
1478, 1790.00
1479, 1792.00
1480, 1791.00
1481, 1794.00
1482, 1794.00
1483, 1795.00
1484, 1796.00
1485, 1796.00
1486, 1797.00
1487, 1798.00
1488, 1799.00
1489, 1800.00
1490, 1801.00
1491, 1802.00
1492, 1802.00
1493, 1804.00
1494, 1805.00
1495, 1807.00
1496, 1806.00
1497, 1807.00
1498, 1808.00
1499, 1810.00
1500, 1810.00
1501, 1811.00
1502, 1812.00
1503, 1812.00
1504, 1815.00
1505, 1815.00
1506, 1815.00
1507, 1816.00
1508, 1818.00
1509, 1818.00
1510, 1819.00
1511, 1821.00
1512, 1821.00
1513, 1823.00
1514, 1823.00
1515, 1824.00
1516, 1826.00
1517, 1826.00
1518, 1826.00
1519, 1828.00
1520, 1829.00
1521, 1830.00
1522, 1831.00
1523, 1832.00
1524, 1832.00
1525, 1835.00
1526, 1834.00
1527, 1836.00
1528, 1837.00
1529, 1839.00
1530, 1839.00
1531, 1840.00
1532, 1841.00
1533, 1843.00
1534, 1844.00
1535, 1844.00
1536, 1846.00
1537, 1846.00
1538, 1848.00
1539, 1848.00
1540, 1851.00
1541, 1852.00
1542, 1852.00
1543, 1853.00
1544, 1853.00
1545, 1856.00
1546, 1855.00
1547, 1857.00
1548, 1859.00
1549, 1859.00
1550, 1862.00
1551, 1862.00
1552, 1862.00
1553, 1863.00
1554, 1865.00
1555, 1866.00
1556, 1867.00
1557, 1870.00
1558, 1870.00
1559, 1870.00
1560, 1872.00
1561, 1873.00
1562, 1874.00
1563, 1877.00
1564, 1877.00
1565, 1879.00
1566, 1879.00
1567, 1880.00
1568, 1881.00
1569, 1883.00
1570, 1884.00
1571, 1886.00
1572, 1886.00
1573, 1887.00
1574, 1889.00
1575, 1890.00
1576, 1891.00
1577, 1891.00
1578, 1894.00
1579, 1896.00
1580, 1896.00
1581, 1896.00
1582, 1899.00
1583, 1899.00
1584, 1901.00
1585, 1900.00
1586, 1901.00
1587, 1903.00
1588, 1904.00
1589, 1905.00
1590, 1906.00
1591, 1907.00
1592, 1908.00
1593, 1908.00
1594, 1910.00
1595, 1911.00
1596, 1913.00
1597, 1913.00
1598, 1913.00
1599, 1915.00
1600, 1916.00
1601, 1918.00
1602, 1919.00
1603, 1919.00
1604, 1920.00
1605, 1921.00
1606, 1923.00
1607, 1925.00
1608, 1926.00
1609, 1927.00
1610, 1928.00
1611, 1930.00
1612, 1931.00
1613, 1932.00
1614, 1934.00
1615, 1935.00
1616, 1936.00
1617, 1938.00
1618, 1938.00
1619, 1940.00
1620, 1943.00
1621, 1944.00
1622, 1945.00
1623, 1946.00
1624, 1948.00
1625, 1949.00
1626, 1950.00
1627, 1952.00
1628, 1953.00
1629, 1955.00
1630, 1956.00
1631, 1956.00
1632, 1959.00
1633, 1959.00
1634, 1962.00
1635, 1961.00
1636, 1963.00
1637, 1964.00
1638, 1965.00
1639, 1967.00
1640, 1967.00
1641, 1968.00
1642, 1970.00
1643, 1971.00
1644, 1973.00
1645, 1974.00
1646, 1974.00
1647, 1976.00
1648, 1977.00
1649, 1978.00
1650, 1980.00

1750, 2535.00
1751, 2535.00
1752, 2536.00
1753, 2537.00
1754, 2535.00
1755, 2535.00
1756, 2535.00
1757, 2534.00
1758, 2535.00
1759, 2535.00
1760, 2535.00
1761, 2534.00
1762, 2537.00
1763, 2535.00
1764, 2535.00
1765, 2535.00
1766, 2535.00
1767, 2534.00
1768, 2534.00
1769, 2533.00
1770, 2533.00
1771, 2532.00
1772, 2531.00
1773, 2532.00
1774, 2531.00
1775, 2531.00
1776, 2530.00
1777, 2530.00
1778, 2530.00
1779, 2530.00
1780, 2528.00
1781, 2529.00
1782, 2528.00
1783, 2529.00
1784, 2525.00
1785, 2527.00
1786, 2528.00
1787, 2526.00
1788, 2525.00
1789, 2525.00
1790, 2526.00
1791, 2525.00
1792, 2522.00
1793, 2522.00
1794, 2523.00
1795, 2522.00
1796, 2522.00
1797, 2521.00
1798, 2522.00
1799, 2523.00
1800, 2521.00
1801, 2521.00
1802, 2519.00
1803, 2521.00
1804, 2521.00
1805, 2519.00
1806, 2519.00
1807, 2518.00
1808, 2516.00
1809, 2517.00
1810, 2517.00
1811, 2516.00
1812, 2517.00
1813, 2516.00
1814, 2517.00
1815, 2515.00
1816, 2514.00
1817, 2515.00
1818, 2515.00
1819, 2513.00
1820, 2512.00
1821, 2512.00
1822, 2512.00
1823, 2512.00
1824, 2511.00
1825, 2509.00
1826, 2509.00
1827, 2508.00
1828, 2507.00
1829, 2507.00
1830, 2505.00
1831, 2505.00
1832, 2503.00
1833, 2501.00
1834, 2501.00
1835, 2498.00
1836, 2499.00
1837, 2496.00
1838, 2495.00
1839, 2495.00
1840, 2493.00
1841, 2491.00
1842, 2489.00
1843, 2486.00
1844, 2484.00
1845, 2483.00
1846, 2480.00
1847, 2479.00
1848, 2477.00
1849, 2475.00
1850, 2473.00
1851, 2471.00
1852, 2468.00
1853, 2466.00
1854, 2462.00
1855, 2460.00
1856, 2459.00
1857, 2459.00
1858, 2455.00
1859, 2453.00
1860, 2450.00
1861, 2447.00
1862, 2445.00
1863, 2445.00
1864, 2443.00
1865, 2440.00
1866, 2438.00
1867, 2437.00
1868, 2436.00
1869, 2433.00
1870, 2432.00
1871, 2432.00
1872, 2428.00
1873, 2428.00
1874, 2426.00
1875, 2424.00
1876, 2422.00
1877, 2422.00
1878, 2421.00
1879, 2420.00
1880, 2419.00
1881, 2416.00
1882, 2417.00
1883, 2417.00
1884, 2416.00
1885, 2416.00
1886, 2414.00
1887, 2413.00
1888, 2413.00
1889, 2413.00
1890, 2411.00
1891, 2412.00
1892, 2410.00
1893, 2409.00
1894, 2409.00
1895, 2406.00
1896, 2408.00
1897, 2407.00
1898, 2409.00
1899, 2407.00
1900, 2407.00
1901, 2408.00
1902, 2405.00
1903, 2406.00
1904, 2407.00
1905, 2407.00
1906, 2406.00
1907, 2405.00
1908, 2404.00
1909, 2405.00
1910, 2403.00
1911, 2405.00
1912, 2403.00
1913, 2403.00
1914, 2403.00
1915, 2403.00
1916, 2402.00
1917, 2404.00
1918, 2402.00
1919, 2404.00
1920, 2403.00
1921, 2401.00
1922, 2402.00
1923, 2402.00
1924, 2403.00
1925, 2402.00
1926, 2403.00
1927, 2404.00
1928, 2403.00
1929, 2404.00
1930, 2404.00
1931, 2403.00
1932, 2401.00
1933, 2402.00
1934, 2400.00
1935, 2405.00
1936, 2405.00
1937, 2406.00
1938, 2405.00
1939, 2404.00
1940, 2403.00
1941, 2406.00
1942, 2407.00
1943, 2406.00
1944, 2406.00
1945, 2407.00
1946, 2410.00
1947, 2405.00
1948, 2409.00
1949, 2409.00
1950, 2409.00
1951, 2409.00
1952, 2409.00
1953, 2412.00
1954, 2409.00
1955, 2412.00
1956, 2411.00
1957, 2409.00
1958, 2412.00
1959, 2413.00
1960, 2414.00
1961, 2413.00
1962, 2415.00
1963, 2415.00
1964, 2415.00
1965, 2416.00
1966, 2418.00
1967, 2416.00
1968, 2418.00
1969, 2420.00
1970, 2418.00
1971, 2421.00
1972, 2421.00
1973, 2419.00
1974, 2422.00
1975, 2422.00
1976, 2422.00
1977, 2421.00
1978, 2426.00
1979, 2423.00
1980, 2424.00
1981, 2426.00
1982, 2428.00
1983, 2428.00
1984, 2426.00
1985, 2429.00
1986, 2430.00
1987, 2430.00
1988, 2429.00
1989, 2431.00
1990, 2433.00
1991, 2431.00
1992, 2434.00
1993, 2433.00
1994, 2436.00
1995, 2433.00
1996, 2434.00
1997, 2435.00
1998, 2435.00
1999, 2436.00
2000, 2437.00
2001, 2438.00
2002, 2439.00
2003, 2439.00
2004, 2441.00
2005, 2440.00
2006, 2440.00
2007, 2441.00
2008, 2443.00
2009, 2443.00
2010, 2444.00
2011, 2444.00
2012, 2445.00
2013, 2444.00
2014, 2446.00
2015, 2446.00
2016, 2449.00
2017, 2449.00
2018, 2449.00
2019, 2449.00
2020, 2449.00
2021, 2453.00
2022, 2451.00
2023, 2452.00
2024, 2453.00
2025, 2453.00
2026, 2454.00
2027, 2455.00
2028, 2456.00
2029, 2455.00
2030, 2454.00
2031, 2456.00
2032, 2457.00
2033, 2457.00
2034, 2461.00
2035, 2461.00
2036, 2461.00
2037, 2459.00
2038, 2462.00
2039, 2463.00
2040, 2464.00
2041, 2464.00
2042, 2465.00
2043, 2466.00
2044, 2466.00
2045, 2469.00
2046, 2469.00
2047, 2467.00
2048, 2471.00
2049, 2469.00
2050, 2471.00
2051, 2473.00
2052, 2473.00
2053, 2474.00
2054, 2475.00
2055, 2475.00
2056, 2477.00
2057, 2476.00
2058, 2478.00
2059, 2479.00
2060, 2480.00
2061, 2483.00
2062, 2483.00
2063, 2483.00
2064, 2483.00
2065, 2485.00
2066, 2487.00
2067, 2487.00
2068, 2487.00
2069, 2488.00
2070, 2488.00
2071, 2493.00
2072, 2491.00
2073, 2492.00
2074, 2492.00
2075, 2494.00
2076, 2495.00
2077, 2497.00
2078, 2496.00
2079, 2497.00
2080, 2497.00
2081, 2497.00
2082, 2499.00
2083, 2500.00
2084, 2500.00
2085, 2502.00
2086, 2501.00
2087, 2502.00
2088, 2505.00
2089, 2503.00
2090, 2504.00
2091, 2506.00
2092, 2506.00
2093, 2506.00
2094, 2506.00
2095, 2507.00
2096, 2510.00
2097, 2510.00
2098, 2507.00
2099, 2509.00
2100, 2509.00
2101, 2509.00
2102, 2511.00
2103, 2510.00
2104, 2513.00
2105, 2511.00
2106, 2513.00
2107, 2514.00
2108, 2515.00
2109, 2512.00
2110, 2513.00
2111, 2515.00
2112, 2513.00
2113, 2515.00
2114, 2515.00
2115, 2515.00
2116, 2515.00
2117, 2515.00
2118, 2515.00
2119, 2517.00
2120, 2516.00
2121, 2517.00
2122, 2518.00
2123, 2516.00
2124, 2519.00
2125, 2518.00
2126, 2519.00
2127, 2518.00
2128, 2519.00
2129, 2519.00
2130, 2519.00
2131, 2521.00
2132, 2520.00
2133, 2520.00
2134, 2519.00
2135, 2521.00
2136, 2521.00
2137, 2521.00
2138, 2522.00
2139, 2520.00
2140, 2524.00
2141, 2522.00
2142, 2522.00
2143, 2522.00
2144, 2523.00
2145, 2525.00
2146, 2523.00
2147, 2523.00
2148, 2524.00
2149, 2524.00
2150, 2524.00
