FW version: 24
Log Version: 3.0.3

General Info:
       Command/Macro Performed,            Timestamp,             Device ID, COM Port, UART/I2C, Test Name, Host Major, Host Minor, Host Revision, Host Git Commit
            Single_measurement,  2023_06_30_12_05_56,       Insight2_F4_xxx,    USB-C,      USB,          ,          0,          1,             1,      4031237645

Show Spectrometer Status:
l0_version, f4_version, battery_perc, battery_mVolt, accelerometer_temp, accelerometer_x, accelerometer_y, accelerometer_z, compass_temp, compass_x, compass_y, compass_z, lamp_0, lamp_1, gain_0, gain_1
        17,         24,           95,          2079,               5824,             216,             920,           18400,            0,     65533,     65503,     65528,   2047,   2047,      1,      1

Temperature Statistic Info:
NTC AVG [°C], NTC2 AVG [°C]
      37.640,        37.353

Statistic Info:
M1:  num,      min,      max,   median,      AVG,      STD,M2:  num,      min,      max,   median,      AVG,      STD
     301,   703.00,   801.00,   728.00,   736.97,  30.9880,     401,  1090.00,  1153.00,  1125.00,  1123.02,  21.8779,

Measurements:
Wavelength, Data Amplitude
1350, 712.00
1351, 712.00
1352, 712.00
1353, 711.00
1354, 711.00
1355, 712.00
1356, 711.00
1357, 711.00
1358, 711.00
1359, 712.00
1360, 711.00
1361, 710.00
1362, 711.00
1363, 710.00
1364, 709.00
1365, 710.00
1366, 709.00
1367, 710.00
1368, 709.00
1369, 709.00
1370, 709.00
1371, 709.00
1372, 708.00
1373, 707.00
1374, 707.00
1375, 707.00
1376, 708.00
1377, 707.00
1378, 706.00
1379, 706.00
1380, 707.00
1381, 706.00
1382, 706.00
1383, 706.00
1384, 706.00
1385, 704.00
1386, 706.00
1387, 705.00
1388, 705.00
1389, 704.00
1390, 705.00
1391, 705.00
1392, 704.00
1393, 704.00
1394, 704.00
1395, 704.00
1396, 705.00
1397, 704.00
1398, 704.00
1399, 704.00
1400, 704.00
1401, 703.00
1402, 704.00
1403, 703.00
1404, 704.00
1405, 705.00
1406, 704.00
1407, 705.00
1408, 703.00
1409, 704.00
1410, 704.00
1411, 704.00
1412, 703.00
1413, 704.00
1414, 704.00
1415, 705.00
1416, 703.00
1417, 704.00
1418, 704.00
1419, 704.00
1420, 705.00
1421, 705.00
1422, 705.00
1423, 704.00
1424, 704.00
1425, 705.00
1426, 704.00
1427, 705.00
1428, 705.00
1429, 706.00
1430, 706.00
1431, 705.00
1432, 706.00
1433, 706.00
1434, 706.00
1435, 706.00
1436, 707.00
1437, 706.00
1438, 707.00
1439, 707.00
1440, 708.00
1441, 708.00
1442, 708.00
1443, 708.00
1444, 708.00
1445, 707.00
1446, 708.00
1447, 709.00
1448, 709.00
1449, 709.00
1450, 709.00
1451, 710.00
1452, 709.00
1453, 710.00
1454, 711.00
1455, 711.00
1456, 711.00
1457, 711.00
1458, 711.00
1459, 712.00
1460, 712.00
1461, 713.00
1462, 713.00
1463, 714.00
1464, 713.00
1465, 713.00
1466, 714.00
1467, 715.00
1468, 714.00
1469, 716.00
1470, 715.00
1471, 716.00
1472, 716.00
1473, 715.00
1474, 718.00
1475, 717.00
1476, 717.00
1477, 718.00
1478, 718.00
1479, 718.00
1480, 719.00
1481, 720.00
1482, 720.00
1483, 720.00
1484, 722.00
1485, 722.00
1486, 721.00
1487, 722.00
1488, 722.00
1489, 724.00
1490, 723.00
1491, 725.00
1492, 725.00
1493, 725.00
1494, 726.00
1495, 726.00
1496, 726.00
1497, 726.00
1498, 727.00
1499, 727.00
1500, 728.00
1501, 729.00
1502, 729.00
1503, 728.00
1504, 730.00
1505, 730.00
1506, 731.00
1507, 731.00
1508, 731.00
1509, 733.00
1510, 732.00
1511, 733.00
1512, 735.00
1513, 734.00
1514, 735.00
1515, 734.00
1516, 735.00
1517, 736.00
1518, 737.00
1519, 736.00
1520, 737.00
1521, 738.00
1522, 737.00
1523, 739.00
1524, 739.00
1525, 739.00
1526, 741.00
1527, 741.00
1528, 741.00
1529, 741.00
1530, 742.00
1531, 742.00
1532, 744.00
1533, 744.00
1534, 744.00
1535, 746.00
1536, 745.00
1537, 746.00
1538, 747.00
1539, 747.00
1540, 747.00
1541, 748.00
1542, 748.00
1543, 748.00
1544, 748.00
1545, 749.00
1546, 749.00
1547, 750.00
1548, 750.00
1549, 750.00
1550, 751.00
1551, 751.00
1552, 752.00
1553, 752.00
1554, 753.00
1555, 753.00
1556, 754.00
1557, 754.00
1558, 755.00
1559, 755.00
1560, 757.00
1561, 756.00
1562, 757.00
1563, 757.00
1564, 757.00
1565, 758.00
1566, 759.00
1567, 759.00
1568, 759.00
1569, 760.00
1570, 761.00
1571, 761.00
1572, 761.00
1573, 763.00
1574, 762.00
1575, 763.00
1576, 763.00
1577, 763.00
1578, 764.00
1579, 764.00
1580, 765.00
1581, 766.00
1582, 766.00
1583, 767.00
1584, 767.00
1585, 767.00
1586, 768.00
1587, 769.00
1588, 769.00
1589, 770.00
1590, 770.00
1591, 770.00
1592, 770.00
1593, 771.00
1594, 772.00
1595, 772.00
1596, 773.00
1597, 772.00
1598, 773.00
1599, 773.00
1600, 774.00
1601, 775.00
1602, 775.00
1603, 776.00
1604, 776.00
1605, 777.00
1606, 777.00
1607, 778.00
1608, 778.00
1609, 780.00
1610, 780.00
1611, 780.00
1612, 780.00
1613, 781.00
1614, 782.00
1615, 783.00
1616, 783.00
1617, 784.00
1618, 784.00
1619, 785.00
1620, 786.00
1621, 786.00
1622, 787.00
1623, 787.00
1624, 789.00
1625, 789.00
1626, 790.00
1627, 790.00
1628, 791.00
1629, 791.00
1630, 792.00
1631, 793.00
1632, 793.00
1633, 792.00
1634, 794.00
1635, 795.00
1636, 795.00
1637, 795.00
1638, 795.00
1639, 796.00
1640, 796.00
1641, 797.00
1642, 798.00
1643, 798.00
1644, 798.00
1645, 798.00
1646, 798.00
1647, 799.00
1648, 800.00
1649, 800.00
1650, 801.00

1750, 1150.00
1751, 1151.00
1752, 1150.00
1753, 1150.00
1754, 1150.00
1755, 1152.00
1756, 1149.00
1757, 1150.00
1758, 1150.00
1759, 1152.00
1760, 1152.00
1761, 1150.00
1762, 1150.00
1763, 1150.00
1764, 1152.00
1765, 1149.00
1766, 1151.00
1767, 1151.00
1768, 1150.00
1769, 1150.00
1770, 1150.00
1771, 1150.00
1772, 1148.00
1773, 1148.00
1774, 1151.00
1775, 1150.00
1776, 1149.00
1777, 1149.00
1778, 1148.00
1779, 1149.00
1780, 1150.00
1781, 1148.00
1782, 1148.00
1783, 1148.00
1784, 1148.00
1785, 1147.00
1786, 1146.00
1787, 1147.00
1788, 1147.00
1789, 1146.00
1790, 1145.00
1791, 1147.00
1792, 1146.00
1793, 1144.00
1794, 1145.00
1795, 1144.00
1796, 1146.00
1797, 1146.00
1798, 1145.00
1799, 1144.00
1800, 1144.00
1801, 1143.00
1802, 1144.00
1803, 1145.00
1804, 1144.00
1805, 1144.00
1806, 1143.00
1807, 1143.00
1808, 1143.00
1809, 1144.00
1810, 1143.00
1811, 1143.00
1812, 1143.00
1813, 1144.00
1814, 1141.00
1815, 1144.00
1816, 1143.00
1817, 1143.00
1818, 1141.00
1819, 1142.00
1820, 1140.00
1821, 1141.00
1822, 1141.00
1823, 1141.00
1824, 1142.00
1825, 1141.00
1826, 1140.00
1827, 1139.00
1828, 1139.00
1829, 1138.00
1830, 1136.00
1831, 1137.00
1832, 1137.00
1833, 1137.00
1834, 1136.00
1835, 1134.00
1836, 1134.00
1837, 1135.00
1838, 1135.00
1839, 1134.00
1840, 1132.00
1841, 1132.00
1842, 1131.00
1843, 1129.00
1844, 1127.00
1845, 1129.00
1846, 1127.00
1847, 1128.00
1848, 1126.00
1849, 1124.00
1850, 1124.00
1851, 1122.00
1852, 1121.00
1853, 1121.00
1854, 1119.00
1855, 1119.00
1856, 1118.00
1857, 1116.00
1858, 1115.00
1859, 1113.00
1860, 1112.00
1861, 1112.00
1862, 1112.00
1863, 1110.00
1864, 1108.00
1865, 1108.00
1866, 1107.00
1867, 1107.00
1868, 1106.00
1869, 1106.00
1870, 1104.00
1871, 1103.00
1872, 1104.00
1873, 1103.00
1874, 1102.00
1875, 1101.00
1876, 1100.00
1877, 1099.00
1878, 1099.00
1879, 1098.00
1880, 1098.00
1881, 1097.00
1882, 1099.00
1883, 1097.00
1884, 1098.00
1885, 1096.00
1886, 1097.00
1887, 1095.00
1888, 1094.00
1889, 1096.00
1890, 1095.00
1891, 1095.00
1892, 1094.00
1893, 1093.00
1894, 1096.00
1895, 1094.00
1896, 1093.00
1897, 1092.00
1898, 1091.00
1899, 1095.00
1900, 1094.00
1901, 1093.00
1902, 1091.00
1903, 1091.00
1904, 1092.00
1905, 1091.00
1906, 1092.00
1907, 1092.00
1908, 1092.00
1909, 1092.00
1910, 1093.00
1911, 1091.00
1912, 1090.00
1913, 1090.00
1914, 1091.00
1915, 1091.00
1916, 1091.00
1917, 1091.00
1918, 1090.00
1919, 1090.00
1920, 1092.00
1921, 1091.00
1922, 1090.00
1923, 1091.00
1924, 1090.00
1925, 1092.00
1926, 1091.00
1927, 1091.00
1928, 1091.00
1929, 1091.00
1930, 1092.00
1931, 1092.00
1932, 1092.00
1933, 1091.00
1934, 1092.00
1935, 1092.00
1936, 1091.00
1937, 1092.00
1938, 1092.00
1939, 1092.00
1940, 1092.00
1941, 1092.00
1942, 1094.00
1943, 1093.00
1944, 1093.00
1945, 1093.00
1946, 1093.00
1947, 1093.00
1948, 1095.00
1949, 1093.00
1950, 1095.00
1951, 1096.00
1952, 1095.00
1953, 1096.00
1954, 1096.00
1955, 1095.00
1956, 1096.00
1957, 1096.00
1958, 1096.00
1959, 1096.00
1960, 1096.00
1961, 1096.00
1962, 1098.00
1963, 1097.00
1964, 1097.00
1965, 1096.00
1966, 1098.00
1967, 1097.00
1968, 1098.00
1969, 1099.00
1970, 1099.00
1971, 1099.00
1972, 1099.00
1973, 1100.00
1974, 1101.00
1975, 1101.00
1976, 1101.00
1977, 1102.00
1978, 1103.00
1979, 1102.00
1980, 1101.00
1981, 1104.00
1982, 1102.00
1983, 1104.00
1984, 1102.00
1985, 1104.00
1986, 1106.00
1987, 1105.00
1988, 1105.00
1989, 1104.00
1990, 1105.00
1991, 1106.00
1992, 1105.00
1993, 1107.00
1994, 1105.00
1995, 1107.00
1996, 1107.00
1997, 1108.00
1998, 1107.00
1999, 1108.00
2000, 1108.00
2001, 1108.00
2002, 1111.00
2003, 1111.00
2004, 1109.00
2005, 1110.00
2006, 1110.00
2007, 1110.00
2008, 1109.00
2009, 1111.00
2010, 1110.00
2011, 1112.00
2012, 1113.00
2013, 1111.00
2014, 1113.00
2015, 1112.00
2016, 1113.00
2017, 1113.00
2018, 1114.00
2019, 1113.00
2020, 1114.00
2021, 1116.00
2022, 1114.00
2023, 1114.00
2024, 1115.00
2025, 1115.00
2026, 1117.00
2027, 1116.00
2028, 1115.00
2029, 1117.00
2030, 1118.00
2031, 1117.00
2032, 1120.00
2033, 1118.00
2034, 1118.00
2035, 1120.00
2036, 1119.00
2037, 1120.00
2038, 1122.00
2039, 1120.00
2040, 1122.00
2041, 1121.00
2042, 1122.00
2043, 1122.00
2044, 1122.00
2045, 1124.00
2046, 1122.00
2047, 1124.00
2048, 1124.00
2049, 1126.00
2050, 1125.00
2051, 1125.00
2052, 1126.00
2053, 1126.00
2054, 1128.00
2055, 1128.00
2056, 1128.00
2057, 1130.00
2058, 1127.00
2059, 1128.00
2060, 1131.00
2061, 1130.00
2062, 1132.00
2063, 1130.00
2064, 1131.00
2065, 1132.00
2066, 1132.00
2067, 1133.00
2068, 1134.00
2069, 1133.00
2070, 1134.00
2071, 1135.00
2072, 1134.00
2073, 1134.00
2074, 1136.00
2075, 1138.00
2076, 1136.00
2077, 1137.00
2078, 1139.00
2079, 1138.00
2080, 1139.00
2081, 1139.00
2082, 1140.00
2083, 1139.00
2084, 1141.00
2085, 1140.00
2086, 1141.00
2087, 1141.00
2088, 1140.00
2089, 1142.00
2090, 1143.00
2091, 1144.00
2092, 1141.00
2093, 1144.00
2094, 1143.00
2095, 1143.00
2096, 1143.00
2097, 1143.00
2098, 1146.00
2099, 1144.00
2100, 1145.00
2101, 1144.00
2102, 1146.00
2103, 1146.00
2104, 1145.00
2105, 1145.00
2106, 1146.00
2107, 1146.00
2108, 1146.00
2109, 1146.00
2110, 1147.00
2111, 1148.00
2112, 1146.00
2113, 1148.00
2114, 1147.00
2115, 1148.00
2116, 1148.00
2117, 1148.00
2118, 1148.00
2119, 1148.00
2120, 1150.00
2121, 1149.00
2122, 1149.00
2123, 1149.00
2124, 1148.00
2125, 1149.00
2126, 1149.00
2127, 1148.00
2128, 1150.00
2129, 1150.00
2130, 1151.00
2131, 1149.00
2132, 1150.00
2133, 1151.00
2134, 1152.00
2135, 1149.00
2136, 1151.00
2137, 1151.00
2138, 1151.00
2139, 1152.00
2140, 1152.00
2141, 1152.00
2142, 1150.00
2143, 1151.00
2144, 1151.00
2145, 1152.00
2146, 1152.00
2147, 1153.00
2148, 1152.00
2149, 1153.00
2150, 1152.00
