FW version: 24
Log Version: 3.0.3

General Info:
       Command/Macro Performed,            Timestamp,             Device ID, COM Port, UART/I2C, Test Name, Host Major, Host Minor, Host Revision, Host Git Commit
            Single_measurement,  2023_06_28_11_27_09,       Insight2_F4_xxx,    USB-C,      USB,          ,          0,          1,             1,      4031237645

Show Spectrometer Status:
l0_version, f4_version, battery_perc, battery_mVolt, accelerometer_temp, accelerometer_x, accelerometer_y, accelerometer_z, compass_temp, compass_x, compass_y, compass_z, lamp_0, lamp_1, gain_0, gain_1
        17,         24,           42,          1894,               6416,           65248,             744,           18612,            0,     65515,     65534,     18612,   2047,   2047,      1,      1

Temperature Statistic Info:
NTC AVG [°C], NTC2 AVG [°C]
      39.352,        39.056

Statistic Info:
M1:  num,      min,      max,   median,      AVG,      STD,M2:  num,      min,      max,   median,      AVG,      STD
     301,   708.00,   817.00,   733.00,   745.10,  34.6023,     401,  1048.00,  1121.00,  1081.00,  1082.07,  23.3533,

Measurements:
Wavelength, Data Amplitude
1350, 724.00
1351, 723.00
1352, 723.00
1353, 724.00
1354, 723.00
1355, 722.00
1356, 722.00
1357, 723.00
1358, 721.00
1359, 722.00
1360, 721.00
1361, 721.00
1362, 720.00
1363, 720.00
1364, 719.00
1365, 719.00
1366, 719.00
1367, 718.00
1368, 718.00
1369, 717.00
1370, 716.00
1371, 717.00
1372, 716.00
1373, 715.00
1374, 716.00
1375, 714.00
1376, 714.00
1377, 714.00
1378, 713.00
1379, 714.00
1380, 712.00
1381, 713.00
1382, 712.00
1383, 711.00
1384, 712.00
1385, 711.00
1386, 711.00
1387, 711.00
1388, 710.00
1389, 710.00
1390, 711.00
1391, 710.00
1392, 710.00
1393, 710.00
1394, 710.00
1395, 710.00
1396, 709.00
1397, 710.00
1398, 709.00
1399, 710.00
1400, 708.00
1401, 709.00
1402, 709.00
1403, 708.00
1404, 709.00
1405, 709.00
1406, 709.00
1407, 709.00
1408, 708.00
1409, 709.00
1410, 709.00
1411, 709.00
1412, 709.00
1413, 708.00
1414, 708.00
1415, 709.00
1416, 708.00
1417, 710.00
1418, 708.00
1419, 708.00
1420, 708.00
1421, 709.00
1422, 708.00
1423, 710.00
1424, 710.00
1425, 709.00
1426, 709.00
1427, 710.00
1428, 709.00
1429, 710.00
1430, 709.00
1431, 710.00
1432, 710.00
1433, 710.00
1434, 711.00
1435, 710.00
1436, 711.00
1437, 711.00
1438, 711.00
1439, 710.00
1440, 710.00
1441, 712.00
1442, 711.00
1443, 712.00
1444, 712.00
1445, 712.00
1446, 712.00
1447, 712.00
1448, 712.00
1449, 713.00
1450, 712.00
1451, 713.00
1452, 713.00
1453, 714.00
1454, 715.00
1455, 716.00
1456, 714.00
1457, 715.00
1458, 715.00
1459, 715.00
1460, 716.00
1461, 717.00
1462, 717.00
1463, 716.00
1464, 718.00
1465, 717.00
1466, 718.00
1467, 718.00
1468, 719.00
1469, 717.00
1470, 719.00
1471, 720.00
1472, 719.00
1473, 721.00
1474, 721.00
1475, 721.00
1476, 722.00
1477, 723.00
1478, 722.00
1479, 723.00
1480, 724.00
1481, 724.00
1482, 724.00
1483, 726.00
1484, 725.00
1485, 725.00
1486, 726.00
1487, 727.00
1488, 727.00
1489, 729.00
1490, 728.00
1491, 730.00
1492, 729.00
1493, 730.00
1494, 730.00
1495, 730.00
1496, 730.00
1497, 731.00
1498, 732.00
1499, 733.00
1500, 733.00
1501, 734.00
1502, 734.00
1503, 733.00
1504, 734.00
1505, 735.00
1506, 735.00
1507, 735.00
1508, 737.00
1509, 737.00
1510, 738.00
1511, 739.00
1512, 739.00
1513, 739.00
1514, 740.00
1515, 739.00
1516, 741.00
1517, 742.00
1518, 742.00
1519, 742.00
1520, 743.00
1521, 744.00
1522, 744.00
1523, 744.00
1524, 746.00
1525, 747.00
1526, 746.00
1527, 747.00
1528, 748.00
1529, 749.00
1530, 749.00
1531, 749.00
1532, 750.00
1533, 751.00
1534, 751.00
1535, 752.00
1536, 751.00
1537, 753.00
1538, 753.00
1539, 753.00
1540, 754.00
1541, 755.00
1542, 756.00
1543, 757.00
1544, 756.00
1545, 758.00
1546, 758.00
1547, 758.00
1548, 759.00
1549, 759.00
1550, 760.00
1551, 761.00
1552, 761.00
1553, 761.00
1554, 762.00
1555, 763.00
1556, 763.00
1557, 763.00
1558, 764.00
1559, 765.00
1560, 765.00
1561, 767.00
1562, 767.00
1563, 768.00
1564, 768.00
1565, 768.00
1566, 769.00
1567, 769.00
1568, 771.00
1569, 771.00
1570, 772.00
1571, 771.00
1572, 772.00
1573, 773.00
1574, 773.00
1575, 773.00
1576, 775.00
1577, 776.00
1578, 776.00
1579, 775.00
1580, 776.00
1581, 778.00
1582, 777.00
1583, 778.00
1584, 779.00
1585, 779.00
1586, 780.00
1587, 781.00
1588, 781.00
1589, 782.00
1590, 781.00
1591, 782.00
1592, 784.00
1593, 784.00
1594, 784.00
1595, 785.00
1596, 785.00
1597, 786.00
1598, 786.00
1599, 786.00
1600, 787.00
1601, 788.00
1602, 788.00
1603, 790.00
1604, 790.00
1605, 790.00
1606, 791.00
1607, 791.00
1608, 793.00
1609, 792.00
1610, 794.00
1611, 795.00
1612, 795.00
1613, 795.00
1614, 797.00
1615, 797.00
1616, 798.00
1617, 798.00
1618, 798.00
1619, 800.00
1620, 801.00
1621, 801.00
1622, 802.00
1623, 802.00
1624, 803.00
1625, 804.00
1626, 805.00
1627, 805.00
1628, 807.00
1629, 806.00
1630, 807.00
1631, 807.00
1632, 808.00
1633, 810.00
1634, 810.00
1635, 809.00
1636, 811.00
1637, 811.00
1638, 811.00
1639, 812.00
1640, 813.00
1641, 813.00
1642, 813.00
1643, 814.00
1644, 813.00
1645, 815.00
1646, 815.00
1647, 816.00
1648, 816.00
1649, 816.00
1650, 817.00

1750, 1121.00
1751, 1119.00
1752, 1117.00
1753, 1119.00
1754, 1118.00
1755, 1118.00
1756, 1119.00
1757, 1117.00
1758, 1119.00
1759, 1116.00
1760, 1118.00
1761, 1120.00
1762, 1118.00
1763, 1118.00
1764, 1119.00
1765, 1120.00
1766, 1118.00
1767, 1119.00
1768, 1119.00
1769, 1118.00
1770, 1119.00
1771, 1117.00
1772, 1116.00
1773, 1118.00
1774, 1119.00
1775, 1117.00
1776, 1116.00
1777, 1117.00
1778, 1117.00
1779, 1118.00
1780, 1117.00
1781, 1116.00
1782, 1114.00
1783, 1114.00
1784, 1117.00
1785, 1116.00
1786, 1114.00
1787, 1114.00
1788, 1115.00
1789, 1113.00
1790, 1113.00
1791, 1115.00
1792, 1114.00
1793, 1113.00
1794, 1112.00
1795, 1112.00
1796, 1112.00
1797, 1113.00
1798, 1114.00
1799, 1112.00
1800, 1113.00
1801, 1113.00
1802, 1110.00
1803, 1111.00
1804, 1111.00
1805, 1111.00
1806, 1111.00
1807, 1111.00
1808, 1108.00
1809, 1111.00
1810, 1109.00
1811, 1110.00
1812, 1109.00
1813, 1108.00
1814, 1107.00
1815, 1109.00
1816, 1107.00
1817, 1107.00
1818, 1108.00
1819, 1107.00
1820, 1106.00
1821, 1106.00
1822, 1106.00
1823, 1105.00
1824, 1105.00
1825, 1103.00
1826, 1103.00
1827, 1103.00
1828, 1102.00
1829, 1103.00
1830, 1102.00
1831, 1099.00
1832, 1099.00
1833, 1099.00
1834, 1099.00
1835, 1099.00
1836, 1095.00
1837, 1095.00
1838, 1096.00
1839, 1093.00
1840, 1093.00
1841, 1092.00
1842, 1090.00
1843, 1089.00
1844, 1090.00
1845, 1089.00
1846, 1086.00
1847, 1086.00
1848, 1085.00
1849, 1083.00
1850, 1081.00
1851, 1081.00
1852, 1081.00
1853, 1077.00
1854, 1076.00
1855, 1077.00
1856, 1076.00
1857, 1075.00
1858, 1075.00
1859, 1070.00
1860, 1073.00
1861, 1070.00
1862, 1070.00
1863, 1069.00
1864, 1069.00
1865, 1068.00
1866, 1067.00
1867, 1065.00
1868, 1064.00
1869, 1064.00
1870, 1063.00
1871, 1063.00
1872, 1062.00
1873, 1061.00
1874, 1061.00
1875, 1061.00
1876, 1059.00
1877, 1057.00
1878, 1059.00
1879, 1060.00
1880, 1056.00
1881, 1059.00
1882, 1058.00
1883, 1057.00
1884, 1056.00
1885, 1057.00
1886, 1056.00
1887, 1055.00
1888, 1056.00
1889, 1056.00
1890, 1055.00
1891, 1053.00
1892, 1055.00
1893, 1056.00
1894, 1054.00
1895, 1054.00
1896, 1052.00
1897, 1053.00
1898, 1053.00
1899, 1053.00
1900, 1052.00
1901, 1050.00
1902, 1052.00
1903, 1053.00
1904, 1052.00
1905, 1052.00
1906, 1052.00
1907, 1052.00
1908, 1051.00
1909, 1053.00
1910, 1051.00
1911, 1052.00
1912, 1052.00
1913, 1051.00
1914, 1051.00
1915, 1053.00
1916, 1048.00
1917, 1050.00
1918, 1051.00
1919, 1052.00
1920, 1050.00
1921, 1051.00
1922, 1051.00
1923, 1051.00
1924, 1051.00
1925, 1050.00
1926, 1050.00
1927, 1050.00
1928, 1050.00
1929, 1051.00
1930, 1049.00
1931, 1053.00
1932, 1050.00
1933, 1051.00
1934, 1052.00
1935, 1052.00
1936, 1053.00
1937, 1050.00
1938, 1050.00
1939, 1051.00
1940, 1050.00
1941, 1053.00
1942, 1051.00
1943, 1052.00
1944, 1052.00
1945, 1052.00
1946, 1052.00
1947, 1050.00
1948, 1054.00
1949, 1051.00
1950, 1053.00
1951, 1053.00
1952, 1053.00
1953, 1052.00
1954, 1054.00
1955, 1053.00
1956, 1053.00
1957, 1054.00
1958, 1054.00
1959, 1054.00
1960, 1053.00
1961, 1056.00
1962, 1055.00
1963, 1054.00
1964, 1057.00
1965, 1056.00
1966, 1054.00
1967, 1055.00
1968, 1056.00
1969, 1059.00
1970, 1056.00
1971, 1058.00
1972, 1058.00
1973, 1059.00
1974, 1059.00
1975, 1057.00
1976, 1060.00
1977, 1059.00
1978, 1058.00
1979, 1059.00
1980, 1058.00
1981, 1060.00
1982, 1061.00
1983, 1060.00
1984, 1062.00
1985, 1060.00
1986, 1061.00
1987, 1061.00
1988, 1062.00
1989, 1063.00
1990, 1062.00
1991, 1063.00
1992, 1061.00
1993, 1063.00
1994, 1062.00
1995, 1061.00
1996, 1063.00
1997, 1063.00
1998, 1063.00
1999, 1063.00
2000, 1064.00
2001, 1064.00
2002, 1066.00
2003, 1066.00
2004, 1065.00
2005, 1066.00
2006, 1066.00
2007, 1066.00
2008, 1066.00
2009, 1067.00
2010, 1067.00
2011, 1067.00
2012, 1066.00
2013, 1066.00
2014, 1069.00
2015, 1067.00
2016, 1068.00
2017, 1070.00
2018, 1069.00
2019, 1069.00
2020, 1069.00
2021, 1070.00
2022, 1071.00
2023, 1070.00
2024, 1072.00
2025, 1069.00
2026, 1071.00
2027, 1072.00
2028, 1072.00
2029, 1071.00
2030, 1072.00
2031, 1073.00
2032, 1074.00
2033, 1073.00
2034, 1074.00
2035, 1074.00
2036, 1074.00
2037, 1073.00
2038, 1076.00
2039, 1076.00
2040, 1075.00
2041, 1077.00
2042, 1079.00
2043, 1077.00
2044, 1078.00
2045, 1077.00
2046, 1079.00
2047, 1081.00
2048, 1077.00
2049, 1078.00
2050, 1081.00
2051, 1081.00
2052, 1081.00
2053, 1083.00
2054, 1082.00
2055, 1082.00
2056, 1081.00
2057, 1083.00
2058, 1083.00
2059, 1084.00
2060, 1085.00
2061, 1084.00
2062, 1083.00
2063, 1086.00
2064, 1086.00
2065, 1087.00
2066, 1087.00
2067, 1086.00
2068, 1088.00
2069, 1089.00
2070, 1088.00
2071, 1089.00
2072, 1088.00
2073, 1090.00
2074, 1091.00
2075, 1091.00
2076, 1089.00
2077, 1092.00
2078, 1091.00
2079, 1091.00
2080, 1094.00
2081, 1094.00
2082, 1093.00
2083, 1094.00
2084, 1094.00
2085, 1094.00
2086, 1093.00
2087, 1095.00
2088, 1095.00
2089, 1097.00
2090, 1095.00
2091, 1096.00
2092, 1098.00
2093, 1098.00
2094, 1098.00
2095, 1098.00
2096, 1098.00
2097, 1099.00
2098, 1099.00
2099, 1098.00
2100, 1098.00
2101, 1099.00
2102, 1100.00
2103, 1100.00
2104, 1101.00
2105, 1098.00
2106, 1100.00
2107, 1100.00
2108, 1102.00
2109, 1101.00
2110, 1102.00
2111, 1101.00
2112, 1102.00
2113, 1102.00
2114, 1102.00
2115, 1102.00
2116, 1103.00
2117, 1102.00
2118, 1104.00
2119, 1102.00
2120, 1105.00
2121, 1103.00
2122, 1104.00
2123, 1103.00
2124, 1107.00
2125, 1104.00
2126, 1103.00
2127, 1104.00
2128, 1105.00
2129, 1105.00
2130, 1106.00
2131, 1105.00
2132, 1105.00
2133, 1106.00
2134, 1106.00
2135, 1107.00
2136, 1107.00
2137, 1108.00
2138, 1107.00
2139, 1107.00
2140, 1106.00
2141, 1107.00
2142, 1108.00
2143, 1107.00
2144, 1109.00
2145, 1107.00
2146, 1107.00
2147, 1107.00
2148, 1107.00
2149, 1109.00
2150, 1108.00
