FW version: 24
Log Version: 3.0.3

General Info:
       Command/Macro Performed,            Timestamp,             Device ID, COM Port, UART/I2C, Test Name, Host Major, Host Minor, Host Revision, Host Git Commit
            Single_measurement,  2023_06_28_11_27_44,       Insight2_F4_xxx,    USB-C,      USB,          ,          0,          1,             1,      4031237645

Show Spectrometer Status:
l0_version, f4_version, battery_perc, battery_mVolt, accelerometer_temp, accelerometer_x, accelerometer_y, accelerometer_z, compass_temp, compass_x, compass_y, compass_z, lamp_0, lamp_1, gain_0, gain_1
        17,         24,           42,          1891,               6432,           65280,            1184,           18756,            0,     65415,     65460,     18804,   2866,   2866,      1,      1

Temperature Statistic Info:
NTC AVG [°C], NTC2 AVG [°C]
      39.646,        39.293

Statistic Info:
M1:  num,      min,      max,   median,      AVG,      STD,M2:  num,      min,      max,   median,      AVG,      STD
     301,  1379.00,  1582.00,  1422.00,  1445.90,  62.1952,     401,  1863.00,  1988.00,  1916.00,  1918.64,  40.5844,

Measurements:
Wavelength, Data Amplitude
1350, 1414.00
1351, 1414.00
1352, 1413.00
1353, 1412.00
1354, 1411.00
1355, 1411.00
1356, 1411.00
1357, 1410.00
1358, 1410.00
1359, 1408.00
1360, 1408.00
1361, 1407.00
1362, 1406.00
1363, 1405.00
1364, 1404.00
1365, 1403.00
1366, 1403.00
1367, 1403.00
1368, 1401.00
1369, 1400.00
1370, 1400.00
1371, 1398.00
1372, 1397.00
1373, 1396.00
1374, 1396.00
1375, 1395.00
1376, 1394.00
1377, 1393.00
1378, 1392.00
1379, 1391.00
1380, 1391.00
1381, 1390.00
1382, 1390.00
1383, 1389.00
1384, 1388.00
1385, 1388.00
1386, 1387.00
1387, 1387.00
1388, 1386.00
1389, 1386.00
1390, 1385.00
1391, 1385.00
1392, 1384.00
1393, 1384.00
1394, 1382.00
1395, 1384.00
1396, 1383.00
1397, 1383.00
1398, 1383.00
1399, 1383.00
1400, 1383.00
1401, 1383.00
1402, 1382.00
1403, 1382.00
1404, 1382.00
1405, 1383.00
1406, 1383.00
1407, 1382.00
1408, 1380.00
1409, 1381.00
1410, 1382.00
1411, 1381.00
1412, 1381.00
1413, 1379.00
1414, 1379.00
1415, 1381.00
1416, 1380.00
1417, 1381.00
1418, 1381.00
1419, 1380.00
1420, 1381.00
1421, 1381.00
1422, 1380.00
1423, 1381.00
1424, 1381.00
1425, 1380.00
1426, 1381.00
1427, 1381.00
1428, 1381.00
1429, 1382.00
1430, 1381.00
1431, 1382.00
1432, 1382.00
1433, 1382.00
1434, 1384.00
1435, 1382.00
1436, 1383.00
1437, 1382.00
1438, 1383.00
1439, 1385.00
1440, 1384.00
1441, 1386.00
1442, 1384.00
1443, 1386.00
1444, 1386.00
1445, 1386.00
1446, 1387.00
1447, 1387.00
1448, 1386.00
1449, 1388.00
1450, 1389.00
1451, 1388.00
1452, 1389.00
1453, 1388.00
1454, 1389.00
1455, 1391.00
1456, 1390.00
1457, 1391.00
1458, 1392.00
1459, 1392.00
1460, 1393.00
1461, 1393.00
1462, 1394.00
1463, 1394.00
1464, 1396.00
1465, 1396.00
1466, 1396.00
1467, 1396.00
1468, 1397.00
1469, 1398.00
1470, 1399.00
1471, 1398.00
1472, 1400.00
1473, 1400.00
1474, 1402.00
1475, 1401.00
1476, 1402.00
1477, 1403.00
1478, 1403.00
1479, 1405.00
1480, 1406.00
1481, 1407.00
1482, 1408.00
1483, 1408.00
1484, 1409.00
1485, 1410.00
1486, 1411.00
1487, 1411.00
1488, 1413.00
1489, 1414.00
1490, 1413.00
1491, 1414.00
1492, 1415.00
1493, 1415.00
1494, 1417.00
1495, 1417.00
1496, 1418.00
1497, 1419.00
1498, 1421.00
1499, 1422.00
1500, 1422.00
1501, 1423.00
1502, 1423.00
1503, 1424.00
1504, 1425.00
1505, 1426.00
1506, 1426.00
1507, 1428.00
1508, 1429.00
1509, 1429.00
1510, 1431.00
1511, 1431.00
1512, 1431.00
1513, 1433.00
1514, 1434.00
1515, 1436.00
1516, 1437.00
1517, 1436.00
1518, 1437.00
1519, 1441.00
1520, 1439.00
1521, 1440.00
1522, 1442.00
1523, 1443.00
1524, 1443.00
1525, 1445.00
1526, 1446.00
1527, 1447.00
1528, 1447.00
1529, 1448.00
1530, 1450.00
1531, 1450.00
1532, 1451.00
1533, 1452.00
1534, 1453.00
1535, 1455.00
1536, 1454.00
1537, 1457.00
1538, 1457.00
1539, 1458.00
1540, 1459.00
1541, 1460.00
1542, 1461.00
1543, 1463.00
1544, 1464.00
1545, 1465.00
1546, 1465.00
1547, 1466.00
1548, 1467.00
1549, 1468.00
1550, 1469.00
1551, 1470.00
1552, 1472.00
1553, 1472.00
1554, 1473.00
1555, 1475.00
1556, 1476.00
1557, 1477.00
1558, 1479.00
1559, 1480.00
1560, 1479.00
1561, 1481.00
1562, 1482.00
1563, 1484.00
1564, 1485.00
1565, 1485.00
1566, 1486.00
1567, 1488.00
1568, 1490.00
1569, 1490.00
1570, 1492.00
1571, 1492.00
1572, 1493.00
1573, 1496.00
1574, 1495.00
1575, 1497.00
1576, 1497.00
1577, 1499.00
1578, 1500.00
1579, 1501.00
1580, 1502.00
1581, 1503.00
1582, 1503.00
1583, 1505.00
1584, 1506.00
1585, 1506.00
1586, 1507.00
1587, 1509.00
1588, 1510.00
1589, 1511.00
1590, 1512.00
1591, 1513.00
1592, 1514.00
1593, 1514.00
1594, 1515.00
1595, 1517.00
1596, 1518.00
1597, 1519.00
1598, 1520.00
1599, 1520.00
1600, 1522.00
1601, 1523.00
1602, 1524.00
1603, 1526.00
1604, 1526.00
1605, 1527.00
1606, 1528.00
1607, 1530.00
1608, 1531.00
1609, 1531.00
1610, 1534.00
1611, 1534.00
1612, 1535.00
1613, 1537.00
1614, 1539.00
1615, 1541.00
1616, 1541.00
1617, 1542.00
1618, 1543.00
1619, 1544.00
1620, 1546.00
1621, 1547.00
1622, 1549.00
1623, 1549.00
1624, 1552.00
1625, 1553.00
1626, 1554.00
1627, 1556.00
1628, 1556.00
1629, 1556.00
1630, 1559.00
1631, 1560.00
1632, 1561.00
1633, 1563.00
1634, 1563.00
1635, 1564.00
1636, 1567.00
1637, 1567.00
1638, 1567.00
1639, 1570.00
1640, 1570.00
1641, 1571.00
1642, 1571.00
1643, 1573.00
1644, 1574.00
1645, 1574.00
1646, 1576.00
1647, 1577.00
1648, 1578.00
1649, 1580.00
1650, 1582.00

1750, 1985.00
1751, 1986.00
1752, 1986.00
1753, 1986.00
1754, 1986.00
1755, 1987.00
1756, 1987.00
1757, 1986.00
1758, 1987.00
1759, 1988.00
1760, 1987.00
1761, 1984.00
1762, 1987.00
1763, 1987.00
1764, 1986.00
1765, 1983.00
1766, 1985.00
1767, 1985.00
1768, 1984.00
1769, 1983.00
1770, 1986.00
1771, 1983.00
1772, 1985.00
1773, 1985.00
1774, 1984.00
1775, 1983.00
1776, 1983.00
1777, 1981.00
1778, 1981.00
1779, 1980.00
1780, 1983.00
1781, 1981.00
1782, 1979.00
1783, 1981.00
1784, 1979.00
1785, 1977.00
1786, 1980.00
1787, 1977.00
1788, 1977.00
1789, 1977.00
1790, 1977.00
1791, 1976.00
1792, 1976.00
1793, 1974.00
1794, 1975.00
1795, 1976.00
1796, 1974.00
1797, 1975.00
1798, 1974.00
1799, 1972.00
1800, 1972.00
1801, 1972.00
1802, 1973.00
1803, 1971.00
1804, 1971.00
1805, 1969.00
1806, 1970.00
1807, 1970.00
1808, 1971.00
1809, 1967.00
1810, 1969.00
1811, 1970.00
1812, 1967.00
1813, 1967.00
1814, 1965.00
1815, 1965.00
1816, 1966.00
1817, 1965.00
1818, 1964.00
1819, 1963.00
1820, 1961.00
1821, 1962.00
1822, 1962.00
1823, 1962.00
1824, 1960.00
1825, 1958.00
1826, 1957.00
1827, 1957.00
1828, 1956.00
1829, 1957.00
1830, 1955.00
1831, 1952.00
1832, 1949.00
1833, 1949.00
1834, 1947.00
1835, 1945.00
1836, 1945.00
1837, 1945.00
1838, 1942.00
1839, 1941.00
1840, 1938.00
1841, 1938.00
1842, 1939.00
1843, 1933.00
1844, 1932.00
1845, 1930.00
1846, 1928.00
1847, 1925.00
1848, 1925.00
1849, 1921.00
1850, 1919.00
1851, 1916.00
1852, 1917.00
1853, 1914.00
1854, 1912.00
1855, 1912.00
1856, 1909.00
1857, 1907.00
1858, 1903.00
1859, 1903.00
1860, 1902.00
1861, 1900.00
1862, 1898.00
1863, 1898.00
1864, 1894.00
1865, 1895.00
1866, 1893.00
1867, 1891.00
1868, 1889.00
1869, 1889.00
1870, 1886.00
1871, 1885.00
1872, 1885.00
1873, 1884.00
1874, 1882.00
1875, 1883.00
1876, 1882.00
1877, 1879.00
1878, 1880.00
1879, 1878.00
1880, 1876.00
1881, 1877.00
1882, 1876.00
1883, 1876.00
1884, 1876.00
1885, 1876.00
1886, 1875.00
1887, 1872.00
1888, 1873.00
1889, 1873.00
1890, 1873.00
1891, 1873.00
1892, 1873.00
1893, 1872.00
1894, 1869.00
1895, 1869.00
1896, 1869.00
1897, 1870.00
1898, 1870.00
1899, 1870.00
1900, 1867.00
1901, 1866.00
1902, 1866.00
1903, 1867.00
1904, 1869.00
1905, 1868.00
1906, 1867.00
1907, 1867.00
1908, 1866.00
1909, 1866.00
1910, 1866.00
1911, 1866.00
1912, 1865.00
1913, 1864.00
1914, 1865.00
1915, 1865.00
1916, 1866.00
1917, 1865.00
1918, 1866.00
1919, 1865.00
1920, 1866.00
1921, 1865.00
1922, 1865.00
1923, 1864.00
1924, 1866.00
1925, 1864.00
1926, 1865.00
1927, 1867.00
1928, 1865.00
1929, 1866.00
1930, 1865.00
1931, 1866.00
1932, 1863.00
1933, 1867.00
1934, 1866.00
1935, 1866.00
1936, 1867.00
1937, 1865.00
1938, 1864.00
1939, 1865.00
1940, 1865.00
1941, 1869.00
1942, 1866.00
1943, 1867.00
1944, 1867.00
1945, 1868.00
1946, 1868.00
1947, 1866.00
1948, 1869.00
1949, 1870.00
1950, 1868.00
1951, 1867.00
1952, 1870.00
1953, 1870.00
1954, 1869.00
1955, 1868.00
1956, 1869.00
1957, 1869.00
1958, 1872.00
1959, 1867.00
1960, 1869.00
1961, 1870.00
1962, 1871.00
1963, 1872.00
1964, 1873.00
1965, 1872.00
1966, 1873.00
1967, 1873.00
1968, 1873.00
1969, 1874.00
1970, 1875.00
1971, 1873.00
1972, 1875.00
1973, 1875.00
1974, 1875.00
1975, 1877.00
1976, 1878.00
1977, 1879.00
1978, 1879.00
1979, 1880.00
1980, 1878.00
1981, 1881.00
1982, 1881.00
1983, 1881.00
1984, 1883.00
1985, 1881.00
1986, 1881.00
1987, 1883.00
1988, 1882.00
1989, 1883.00
1990, 1884.00
1991, 1885.00
1992, 1884.00
1993, 1884.00
1994, 1887.00
1995, 1886.00
1996, 1886.00
1997, 1887.00
1998, 1886.00
1999, 1887.00
2000, 1887.00
2001, 1887.00
2002, 1890.00
2003, 1889.00
2004, 1888.00
2005, 1887.00
2006, 1890.00
2007, 1891.00
2008, 1891.00
2009, 1892.00
2010, 1895.00
2011, 1893.00
2012, 1891.00
2013, 1894.00
2014, 1893.00
2015, 1894.00
2016, 1895.00
2017, 1895.00
2018, 1896.00
2019, 1897.00
2020, 1897.00
2021, 1897.00
2022, 1897.00
2023, 1897.00
2024, 1899.00
2025, 1898.00
2026, 1898.00
2027, 1899.00
2028, 1901.00
2029, 1902.00
2030, 1902.00
2031, 1902.00
2032, 1904.00
2033, 1903.00
2034, 1906.00
2035, 1904.00
2036, 1904.00
2037, 1905.00
2038, 1906.00
2039, 1906.00
2040, 1905.00
2041, 1907.00
2042, 1908.00
2043, 1910.00
2044, 1911.00
2045, 1910.00
2046, 1911.00
2047, 1913.00
2048, 1911.00
2049, 1912.00
2050, 1911.00
2051, 1914.00
2052, 1915.00
2053, 1916.00
2054, 1916.00
2055, 1917.00
2056, 1919.00
2057, 1919.00
2058, 1919.00
2059, 1921.00
2060, 1920.00
2061, 1922.00
2062, 1921.00
2063, 1924.00
2064, 1923.00
2065, 1924.00
2066, 1925.00
2067, 1926.00
2068, 1926.00
2069, 1924.00
2070, 1928.00
2071, 1929.00
2072, 1927.00
2073, 1930.00
2074, 1927.00
2075, 1931.00
2076, 1932.00
2077, 1931.00
2078, 1935.00
2079, 1933.00
2080, 1935.00
2081, 1934.00
2082, 1935.00
2083, 1935.00
2084, 1937.00
2085, 1936.00
2086, 1939.00
2087, 1938.00
2088, 1940.00
2089, 1941.00
2090, 1940.00
2091, 1941.00
2092, 1942.00
2093, 1942.00
2094, 1941.00
2095, 1943.00
2096, 1944.00
2097, 1942.00
2098, 1945.00
2099, 1944.00
2100, 1943.00
2101, 1946.00
2102, 1946.00
2103, 1946.00
2104, 1947.00
2105, 1947.00
2106, 1947.00
2107, 1949.00
2108, 1949.00
2109, 1947.00
2110, 1950.00
2111, 1949.00
2112, 1949.00
2113, 1951.00
2114, 1950.00
2115, 1951.00
2116, 1949.00
2117, 1952.00
2118, 1951.00
2119, 1952.00
2120, 1951.00
2121, 1954.00
2122, 1950.00
2123, 1952.00
2124, 1952.00
2125, 1953.00
2126, 1954.00
2127, 1953.00
2128, 1953.00
2129, 1954.00
2130, 1955.00
2131, 1954.00
2132, 1957.00
2133, 1956.00
2134, 1955.00
2135, 1957.00
2136, 1956.00
2137, 1955.00
2138, 1957.00
2139, 1957.00
2140, 1956.00
2141, 1957.00
2142, 1958.00
2143, 1958.00
2144, 1957.00
2145, 1961.00
2146, 1959.00
2147, 1960.00
2148, 1958.00
2149, 1961.00
2150, 1959.00
