FW version: 24
Log Version: 3.0.3

General Info:
       Command/Macro Performed,            Timestamp,             Device ID, COM Port, UART/I2C, Test Name, Host Major, Host Minor, Host Revision, Host Git Commit
            Single_measurement,  2023_06_28_11_26_54,       Insight2_F4_xxx,    USB-C,      USB,          ,          0,          1,             1,      4031237645

Show Spectrometer Status:
l0_version, f4_version, battery_perc, battery_mVolt, accelerometer_temp, accelerometer_x, accelerometer_y, accelerometer_z, compass_temp, compass_x, compass_y, compass_z, lamp_0, lamp_1, gain_0, gain_1
        17,         24,           42,          1900,               6400,           65300,            1188,           18772,            0,     65436,     65462,     18805,   3276,   3276,      0,      0

Temperature Statistic Info:
NTC AVG [°C], NTC2 AVG [°C]
      39.293,        38.968

Statistic Info:
M1:  num,      min,      max,   median,      AVG,      STD,M2:  num,      min,      max,   median,      AVG,      STD
     301,   614.00,   700.00,   632.00,   642.67,  26.6650,     401,   802.00,   856.00,   823.00,   825.27,  17.4666,

Measurements:
Wavelength, Data Amplitude
1350, 630.00
1351, 630.00
1352, 629.00
1353, 630.00
1354, 629.00
1355, 629.00
1356, 628.00
1357, 628.00
1358, 628.00
1359, 628.00
1360, 627.00
1361, 627.00
1362, 627.00
1363, 626.00
1364, 625.00
1365, 625.00
1366, 625.00
1367, 624.00
1368, 624.00
1369, 623.00
1370, 623.00
1371, 623.00
1372, 622.00
1373, 622.00
1374, 622.00
1375, 621.00
1376, 621.00
1377, 620.00
1378, 620.00
1379, 620.00
1380, 619.00
1381, 619.00
1382, 619.00
1383, 619.00
1384, 618.00
1385, 618.00
1386, 618.00
1387, 618.00
1388, 617.00
1389, 617.00
1390, 617.00
1391, 617.00
1392, 617.00
1393, 617.00
1394, 617.00
1395, 616.00
1396, 616.00
1397, 616.00
1398, 616.00
1399, 616.00
1400, 616.00
1401, 616.00
1402, 615.00
1403, 616.00
1404, 615.00
1405, 616.00
1406, 615.00
1407, 615.00
1408, 615.00
1409, 615.00
1410, 615.00
1411, 614.00
1412, 615.00
1413, 615.00
1414, 615.00
1415, 615.00
1416, 615.00
1417, 615.00
1418, 615.00
1419, 614.00
1420, 614.00
1421, 614.00
1422, 614.00
1423, 615.00
1424, 615.00
1425, 614.00
1426, 615.00
1427, 615.00
1428, 615.00
1429, 615.00
1430, 615.00
1431, 615.00
1432, 615.00
1433, 615.00
1434, 615.00
1435, 616.00
1436, 616.00
1437, 616.00
1438, 616.00
1439, 616.00
1440, 616.00
1441, 616.00
1442, 616.00
1443, 616.00
1444, 617.00
1445, 617.00
1446, 617.00
1447, 617.00
1448, 617.00
1449, 617.00
1450, 618.00
1451, 618.00
1452, 618.00
1453, 619.00
1454, 619.00
1455, 618.00
1456, 618.00
1457, 619.00
1458, 619.00
1459, 620.00
1460, 620.00
1461, 620.00
1462, 620.00
1463, 620.00
1464, 620.00
1465, 621.00
1466, 621.00
1467, 621.00
1468, 621.00
1469, 621.00
1470, 622.00
1471, 622.00
1472, 623.00
1473, 623.00
1474, 623.00
1475, 623.00
1476, 624.00
1477, 625.00
1478, 624.00
1479, 625.00
1480, 625.00
1481, 626.00
1482, 626.00
1483, 626.00
1484, 627.00
1485, 627.00
1486, 627.00
1487, 628.00
1488, 628.00
1489, 628.00
1490, 628.00
1491, 629.00
1492, 629.00
1493, 629.00
1494, 630.00
1495, 630.00
1496, 631.00
1497, 631.00
1498, 632.00
1499, 631.00
1500, 632.00
1501, 632.00
1502, 632.00
1503, 633.00
1504, 633.00
1505, 634.00
1506, 634.00
1507, 634.00
1508, 635.00
1509, 635.00
1510, 635.00
1511, 636.00
1512, 636.00
1513, 637.00
1514, 637.00
1515, 637.00
1516, 638.00
1517, 638.00
1518, 639.00
1519, 639.00
1520, 640.00
1521, 640.00
1522, 641.00
1523, 641.00
1524, 641.00
1525, 641.00
1526, 643.00
1527, 643.00
1528, 643.00
1529, 643.00
1530, 644.00
1531, 644.00
1532, 645.00
1533, 645.00
1534, 646.00
1535, 646.00
1536, 646.00
1537, 647.00
1538, 648.00
1539, 648.00
1540, 648.00
1541, 649.00
1542, 649.00
1543, 650.00
1544, 650.00
1545, 650.00
1546, 651.00
1547, 651.00
1548, 651.00
1549, 652.00
1550, 652.00
1551, 653.00
1552, 653.00
1553, 654.00
1554, 654.00
1555, 655.00
1556, 656.00
1557, 656.00
1558, 657.00
1559, 657.00
1560, 657.00
1561, 658.00
1562, 659.00
1563, 659.00
1564, 659.00
1565, 660.00
1566, 660.00
1567, 661.00
1568, 661.00
1569, 662.00
1570, 662.00
1571, 663.00
1572, 663.00
1573, 664.00
1574, 665.00
1575, 665.00
1576, 665.00
1577, 666.00
1578, 666.00
1579, 666.00
1580, 667.00
1581, 667.00
1582, 668.00
1583, 668.00
1584, 669.00
1585, 669.00
1586, 669.00
1587, 670.00
1588, 670.00
1589, 670.00
1590, 671.00
1591, 672.00
1592, 672.00
1593, 672.00
1594, 673.00
1595, 673.00
1596, 673.00
1597, 674.00
1598, 674.00
1599, 675.00
1600, 675.00
1601, 676.00
1602, 676.00
1603, 677.00
1604, 677.00
1605, 678.00
1606, 678.00
1607, 679.00
1608, 679.00
1609, 680.00
1610, 681.00
1611, 681.00
1612, 682.00
1613, 682.00
1614, 683.00
1615, 683.00
1616, 683.00
1617, 684.00
1618, 685.00
1619, 685.00
1620, 686.00
1621, 686.00
1622, 687.00
1623, 688.00
1624, 688.00
1625, 688.00
1626, 688.00
1627, 690.00
1628, 690.00
1629, 690.00
1630, 691.00
1631, 692.00
1632, 692.00
1633, 693.00
1634, 693.00
1635, 693.00
1636, 694.00
1637, 695.00
1638, 695.00
1639, 695.00
1640, 696.00
1641, 696.00
1642, 697.00
1643, 697.00
1644, 697.00
1645, 698.00
1646, 699.00
1647, 698.00
1648, 699.00
1649, 699.00
1650, 700.00

1750, 854.00
1751, 855.00
1752, 855.00
1753, 855.00
1754, 856.00
1755, 855.00
1756, 855.00
1757, 855.00
1758, 856.00
1759, 855.00
1760, 855.00
1761, 855.00
1762, 855.00
1763, 854.00
1764, 855.00
1765, 855.00
1766, 855.00
1767, 854.00
1768, 854.00
1769, 855.00
1770, 854.00
1771, 853.00
1772, 854.00
1773, 854.00
1774, 854.00
1775, 854.00
1776, 853.00
1777, 853.00
1778, 853.00
1779, 852.00
1780, 853.00
1781, 853.00
1782, 852.00
1783, 852.00
1784, 851.00
1785, 852.00
1786, 851.00
1787, 851.00
1788, 851.00
1789, 850.00
1790, 851.00
1791, 850.00
1792, 850.00
1793, 850.00
1794, 850.00
1795, 850.00
1796, 850.00
1797, 849.00
1798, 849.00
1799, 849.00
1800, 849.00
1801, 849.00
1802, 849.00
1803, 849.00
1804, 848.00
1805, 848.00
1806, 848.00
1807, 848.00
1808, 848.00
1809, 847.00
1810, 847.00
1811, 846.00
1812, 847.00
1813, 847.00
1814, 847.00
1815, 846.00
1816, 846.00
1817, 846.00
1818, 845.00
1819, 845.00
1820, 845.00
1821, 845.00
1822, 844.00
1823, 844.00
1824, 844.00
1825, 843.00
1826, 842.00
1827, 842.00
1828, 841.00
1829, 841.00
1830, 841.00
1831, 840.00
1832, 840.00
1833, 839.00
1834, 838.00
1835, 838.00
1836, 837.00
1837, 837.00
1838, 836.00
1839, 835.00
1840, 834.00
1841, 833.00
1842, 833.00
1843, 832.00
1844, 831.00
1845, 830.00
1846, 829.00
1847, 829.00
1848, 828.00
1849, 826.00
1850, 826.00
1851, 825.00
1852, 825.00
1853, 824.00
1854, 823.00
1855, 822.00
1856, 822.00
1857, 821.00
1858, 820.00
1859, 819.00
1860, 818.00
1861, 817.00
1862, 817.00
1863, 816.00
1864, 815.00
1865, 815.00
1866, 814.00
1867, 814.00
1868, 813.00
1869, 813.00
1870, 812.00
1871, 812.00
1872, 810.00
1873, 810.00
1874, 810.00
1875, 809.00
1876, 809.00
1877, 809.00
1878, 808.00
1879, 809.00
1880, 808.00
1881, 808.00
1882, 807.00
1883, 807.00
1884, 807.00
1885, 807.00
1886, 807.00
1887, 806.00
1888, 806.00
1889, 806.00
1890, 805.00
1891, 805.00
1892, 806.00
1893, 805.00
1894, 805.00
1895, 805.00
1896, 805.00
1897, 805.00
1898, 805.00
1899, 804.00
1900, 804.00
1901, 804.00
1902, 805.00
1903, 804.00
1904, 803.00
1905, 803.00
1906, 804.00
1907, 803.00
1908, 803.00
1909, 803.00
1910, 803.00
1911, 803.00
1912, 803.00
1913, 803.00
1914, 803.00
1915, 803.00
1916, 802.00
1917, 802.00
1918, 803.00
1919, 803.00
1920, 802.00
1921, 802.00
1922, 802.00
1923, 802.00
1924, 802.00
1925, 803.00
1926, 802.00
1927, 803.00
1928, 802.00
1929, 803.00
1930, 802.00
1931, 803.00
1932, 802.00
1933, 803.00
1934, 803.00
1935, 802.00
1936, 802.00
1937, 803.00
1938, 802.00
1939, 802.00
1940, 803.00
1941, 803.00
1942, 803.00
1943, 803.00
1944, 803.00
1945, 803.00
1946, 803.00
1947, 803.00
1948, 804.00
1949, 804.00
1950, 803.00
1951, 804.00
1952, 803.00
1953, 803.00
1954, 804.00
1955, 804.00
1956, 805.00
1957, 805.00
1958, 804.00
1959, 805.00
1960, 804.00
1961, 805.00
1962, 805.00
1963, 805.00
1964, 805.00
1965, 806.00
1966, 805.00
1967, 806.00
1968, 806.00
1969, 807.00
1970, 807.00
1971, 807.00
1972, 807.00
1973, 807.00
1974, 807.00
1975, 807.00
1976, 807.00
1977, 808.00
1978, 807.00
1979, 808.00
1980, 808.00
1981, 807.00
1982, 809.00
1983, 809.00
1984, 809.00
1985, 810.00
1986, 809.00
1987, 809.00
1988, 810.00
1989, 810.00
1990, 810.00
1991, 810.00
1992, 810.00
1993, 811.00
1994, 811.00
1995, 811.00
1996, 811.00
1997, 811.00
1998, 812.00
1999, 812.00
2000, 812.00
2001, 812.00
2002, 812.00
2003, 812.00
2004, 812.00
2005, 813.00
2006, 813.00
2007, 814.00
2008, 814.00
2009, 814.00
2010, 814.00
2011, 814.00
2012, 814.00
2013, 814.00
2014, 815.00
2015, 814.00
2016, 815.00
2017, 815.00
2018, 815.00
2019, 815.00
2020, 815.00
2021, 816.00
2022, 816.00
2023, 816.00
2024, 817.00
2025, 817.00
2026, 817.00
2027, 817.00
2028, 817.00
2029, 818.00
2030, 818.00
2031, 818.00
2032, 818.00
2033, 818.00
2034, 819.00
2035, 819.00
2036, 819.00
2037, 819.00
2038, 820.00
2039, 820.00
2040, 820.00
2041, 821.00
2042, 821.00
2043, 821.00
2044, 821.00
2045, 821.00
2046, 821.00
2047, 822.00
2048, 822.00
2049, 822.00
2050, 823.00
2051, 823.00
2052, 823.00
2053, 823.00
2054, 824.00
2055, 823.00
2056, 824.00
2057, 824.00
2058, 825.00
2059, 826.00
2060, 826.00
2061, 826.00
2062, 826.00
2063, 827.00
2064, 826.00
2065, 827.00
2066, 827.00
2067, 828.00
2068, 828.00
2069, 829.00
2070, 829.00
2071, 829.00
2072, 829.00
2073, 829.00
2074, 829.00
2075, 830.00
2076, 831.00
2077, 831.00
2078, 830.00
2079, 832.00
2080, 832.00
2081, 832.00
2082, 831.00
2083, 832.00
2084, 832.00
2085, 832.00
2086, 833.00
2087, 833.00
2088, 833.00
2089, 834.00
2090, 834.00
2091, 834.00
2092, 834.00
2093, 835.00
2094, 834.00
2095, 835.00
2096, 835.00
2097, 835.00
2098, 836.00
2099, 835.00
2100, 836.00
2101, 835.00
2102, 836.00
2103, 836.00
2104, 836.00
2105, 837.00
2106, 837.00
2107, 837.00
2108, 837.00
2109, 838.00
2110, 838.00
2111, 838.00
2112, 838.00
2113, 839.00
2114, 838.00
2115, 839.00
2116, 838.00
2117, 838.00
2118, 838.00
2119, 839.00
2120, 839.00
2121, 839.00
2122, 839.00
2123, 839.00
2124, 839.00
2125, 839.00
2126, 840.00
2127, 840.00
2128, 840.00
2129, 840.00
2130, 840.00
2131, 840.00
2132, 840.00
2133, 840.00
2134, 840.00
2135, 841.00
2136, 841.00
2137, 841.00
2138, 841.00
2139, 841.00
2140, 841.00
2141, 841.00
2142, 841.00
2143, 842.00
2144, 841.00
2145, 842.00
2146, 842.00
2147, 842.00
2148, 842.00
2149, 842.00
2150, 842.00
