FW version: 24
Log Version: 3.0.3

General Info:
       Command/Macro Performed,            Timestamp,             Device ID, COM Port, UART/I2C, Test Name, Host Major, Host Minor, Host Revision, Host Git Commit
            Single_measurement,  2023_06_28_11_28_03,       Insight2_F4_xxx,    USB-C,      USB,          ,          0,          1,             1,      4031237645

Show Spectrometer Status:
l0_version, f4_version, battery_perc, battery_mVolt, accelerometer_temp, accelerometer_x, accelerometer_y, accelerometer_z, compass_temp, compass_x, compass_y, compass_z, lamp_0, lamp_1, gain_0, gain_1
        17,         24,           42,          1891,               6416,           65284,            1000,           18756,            0,     65421,     65532,     18806,   3276,   3276,      1,      1

Temperature Statistic Info:
NTC AVG [°C], NTC2 AVG [°C]
      39.763,        39.411

Statistic Info:
M1:  num,      min,      max,   median,      AVG,      STD,M2:  num,      min,      max,   median,      AVG,      STD
     301,  1771.00,  2021.00,  1823.00,  1853.88,  77.1127,     401,  2312.00,  2466.00,  2374.00,  2378.58,  50.0630,

Measurements:
Wavelength, Data Amplitude
1350, 1817.00
1351, 1817.00
1352, 1816.00
1353, 1815.00
1354, 1813.00
1355, 1814.00
1356, 1813.00
1357, 1811.00
1358, 1810.00
1359, 1809.00
1360, 1809.00
1361, 1807.00
1362, 1807.00
1363, 1806.00
1364, 1804.00
1365, 1803.00
1366, 1801.00
1367, 1802.00
1368, 1800.00
1369, 1798.00
1370, 1797.00
1371, 1797.00
1372, 1793.00
1373, 1794.00
1374, 1794.00
1375, 1791.00
1376, 1791.00
1377, 1789.00
1378, 1787.00
1379, 1788.00
1380, 1786.00
1381, 1785.00
1382, 1784.00
1383, 1783.00
1384, 1784.00
1385, 1782.00
1386, 1781.00
1387, 1781.00
1388, 1780.00
1389, 1781.00
1390, 1780.00
1391, 1779.00
1392, 1778.00
1393, 1777.00
1394, 1777.00
1395, 1777.00
1396, 1777.00
1397, 1777.00
1398, 1777.00
1399, 1775.00
1400, 1775.00
1401, 1777.00
1402, 1775.00
1403, 1774.00
1404, 1775.00
1405, 1775.00
1406, 1774.00
1407, 1775.00
1408, 1774.00
1409, 1775.00
1410, 1774.00
1411, 1773.00
1412, 1773.00
1413, 1773.00
1414, 1774.00
1415, 1772.00
1416, 1772.00
1417, 1774.00
1418, 1773.00
1419, 1772.00
1420, 1772.00
1421, 1771.00
1422, 1772.00
1423, 1772.00
1424, 1773.00
1425, 1773.00
1426, 1773.00
1427, 1774.00
1428, 1774.00
1429, 1773.00
1430, 1773.00
1431, 1774.00
1432, 1773.00
1433, 1774.00
1434, 1775.00
1435, 1774.00
1436, 1777.00
1437, 1775.00
1438, 1777.00
1439, 1777.00
1440, 1777.00
1441, 1777.00
1442, 1777.00
1443, 1777.00
1444, 1779.00
1445, 1778.00
1446, 1779.00
1447, 1780.00
1448, 1780.00
1449, 1781.00
1450, 1783.00
1451, 1783.00
1452, 1782.00
1453, 1783.00
1454, 1783.00
1455, 1784.00
1456, 1785.00
1457, 1786.00
1458, 1785.00
1459, 1787.00
1460, 1786.00
1461, 1787.00
1462, 1787.00
1463, 1788.00
1464, 1790.00
1465, 1790.00
1466, 1791.00
1467, 1792.00
1468, 1793.00
1469, 1793.00
1470, 1795.00
1471, 1795.00
1472, 1796.00
1473, 1797.00
1474, 1799.00
1475, 1799.00
1476, 1800.00
1477, 1800.00
1478, 1802.00
1479, 1802.00
1480, 1803.00
1481, 1805.00
1482, 1804.00
1483, 1806.00
1484, 1807.00
1485, 1807.00
1486, 1810.00
1487, 1811.00
1488, 1812.00
1489, 1813.00
1490, 1813.00
1491, 1814.00
1492, 1816.00
1493, 1816.00
1494, 1816.00
1495, 1818.00
1496, 1821.00
1497, 1820.00
1498, 1821.00
1499, 1823.00
1500, 1822.00
1501, 1825.00
1502, 1826.00
1503, 1826.00
1504, 1828.00
1505, 1829.00
1506, 1830.00
1507, 1830.00
1508, 1833.00
1509, 1834.00
1510, 1835.00
1511, 1836.00
1512, 1836.00
1513, 1837.00
1514, 1838.00
1515, 1840.00
1516, 1841.00
1517, 1842.00
1518, 1844.00
1519, 1844.00
1520, 1845.00
1521, 1846.00
1522, 1848.00
1523, 1849.00
1524, 1850.00
1525, 1852.00
1526, 1853.00
1527, 1854.00
1528, 1855.00
1529, 1857.00
1530, 1858.00
1531, 1859.00
1532, 1860.00
1533, 1861.00
1534, 1864.00
1535, 1865.00
1536, 1866.00
1537, 1866.00
1538, 1869.00
1539, 1870.00
1540, 1871.00
1541, 1871.00
1542, 1873.00
1543, 1874.00
1544, 1875.00
1545, 1877.00
1546, 1878.00
1547, 1878.00
1548, 1880.00
1549, 1882.00
1550, 1883.00
1551, 1883.00
1552, 1885.00
1553, 1887.00
1554, 1889.00
1555, 1889.00
1556, 1890.00
1557, 1892.00
1558, 1894.00
1559, 1894.00
1560, 1897.00
1561, 1898.00
1562, 1899.00
1563, 1899.00
1564, 1901.00
1565, 1903.00
1566, 1905.00
1567, 1907.00
1568, 1907.00
1569, 1908.00
1570, 1911.00
1571, 1912.00
1572, 1913.00
1573, 1915.00
1574, 1916.00
1575, 1918.00
1576, 1918.00
1577, 1919.00
1578, 1920.00
1579, 1922.00
1580, 1924.00
1581, 1925.00
1582, 1925.00
1583, 1927.00
1584, 1928.00
1585, 1930.00
1586, 1931.00
1587, 1932.00
1588, 1933.00
1589, 1934.00
1590, 1936.00
1591, 1937.00
1592, 1939.00
1593, 1940.00
1594, 1940.00
1595, 1942.00
1596, 1943.00
1597, 1944.00
1598, 1946.00
1599, 1947.00
1600, 1948.00
1601, 1949.00
1602, 1952.00
1603, 1952.00
1604, 1953.00
1605, 1955.00
1606, 1957.00
1607, 1959.00
1608, 1958.00
1609, 1962.00
1610, 1963.00
1611, 1965.00
1612, 1966.00
1613, 1967.00
1614, 1969.00
1615, 1971.00
1616, 1973.00
1617, 1974.00
1618, 1976.00
1619, 1976.00
1620, 1978.00
1621, 1979.00
1622, 1981.00
1623, 1983.00
1624, 1985.00
1625, 1987.00
1626, 1987.00
1627, 1988.00
1628, 1991.00
1629, 1992.00
1630, 1994.00
1631, 1995.00
1632, 1997.00
1633, 1997.00
1634, 2000.00
1635, 2001.00
1636, 2003.00
1637, 2003.00
1638, 2004.00
1639, 2005.00
1640, 2007.00
1641, 2008.00
1642, 2009.00
1643, 2011.00
1644, 2012.00
1645, 2014.00
1646, 2015.00
1647, 2016.00
1648, 2018.00
1649, 2019.00
1650, 2021.00

1750, 2463.00
1751, 2465.00
1752, 2466.00
1753, 2464.00
1754, 2466.00
1755, 2466.00
1756, 2464.00
1757, 2464.00
1758, 2463.00
1759, 2465.00
1760, 2464.00
1761, 2464.00
1762, 2462.00
1763, 2465.00
1764, 2463.00
1765, 2461.00
1766, 2463.00
1767, 2462.00
1768, 2461.00
1769, 2462.00
1770, 2460.00
1771, 2460.00
1772, 2461.00
1773, 2459.00
1774, 2460.00
1775, 2460.00
1776, 2458.00
1777, 2458.00
1778, 2459.00
1779, 2457.00
1780, 2456.00
1781, 2456.00
1782, 2456.00
1783, 2454.00
1784, 2453.00
1785, 2454.00
1786, 2454.00
1787, 2454.00
1788, 2450.00
1789, 2451.00
1790, 2452.00
1791, 2451.00
1792, 2451.00
1793, 2448.00
1794, 2449.00
1795, 2451.00
1796, 2448.00
1797, 2448.00
1798, 2445.00
1799, 2446.00
1800, 2448.00
1801, 2447.00
1802, 2443.00
1803, 2444.00
1804, 2444.00
1805, 2442.00
1806, 2443.00
1807, 2444.00
1808, 2443.00
1809, 2440.00
1810, 2442.00
1811, 2440.00
1812, 2439.00
1813, 2439.00
1814, 2439.00
1815, 2438.00
1816, 2438.00
1817, 2435.00
1818, 2436.00
1819, 2435.00
1820, 2434.00
1821, 2433.00
1822, 2431.00
1823, 2431.00
1824, 2429.00
1825, 2430.00
1826, 2427.00
1827, 2427.00
1828, 2425.00
1829, 2422.00
1830, 2422.00
1831, 2422.00
1832, 2418.00
1833, 2416.00
1834, 2414.00
1835, 2412.00
1836, 2411.00
1837, 2409.00
1838, 2409.00
1839, 2407.00
1840, 2404.00
1841, 2401.00
1842, 2399.00
1843, 2399.00
1844, 2394.00
1845, 2392.00
1846, 2389.00
1847, 2390.00
1848, 2385.00
1849, 2382.00
1850, 2380.00
1851, 2378.00
1852, 2375.00
1853, 2374.00
1854, 2372.00
1855, 2369.00
1856, 2365.00
1857, 2365.00
1858, 2359.00
1859, 2361.00
1860, 2357.00
1861, 2356.00
1862, 2352.00
1863, 2351.00
1864, 2348.00
1865, 2347.00
1866, 2345.00
1867, 2344.00
1868, 2342.00
1869, 2342.00
1870, 2339.00
1871, 2340.00
1872, 2337.00
1873, 2335.00
1874, 2334.00
1875, 2334.00
1876, 2331.00
1877, 2331.00
1878, 2331.00
1879, 2328.00
1880, 2328.00
1881, 2329.00
1882, 2328.00
1883, 2325.00
1884, 2327.00
1885, 2325.00
1886, 2327.00
1887, 2323.00
1888, 2323.00
1889, 2321.00
1890, 2322.00
1891, 2321.00
1892, 2320.00
1893, 2319.00
1894, 2321.00
1895, 2320.00
1896, 2317.00
1897, 2319.00
1898, 2319.00
1899, 2317.00
1900, 2317.00
1901, 2315.00
1902, 2317.00
1903, 2318.00
1904, 2317.00
1905, 2318.00
1906, 2316.00
1907, 2315.00
1908, 2315.00
1909, 2314.00
1910, 2315.00
1911, 2313.00
1912, 2315.00
1913, 2313.00
1914, 2315.00
1915, 2316.00
1916, 2313.00
1917, 2313.00
1918, 2315.00
1919, 2314.00
1920, 2313.00
1921, 2312.00
1922, 2313.00
1923, 2313.00
1924, 2314.00
1925, 2313.00
1926, 2312.00
1927, 2313.00
1928, 2312.00
1929, 2312.00
1930, 2312.00
1931, 2312.00
1932, 2312.00
1933, 2314.00
1934, 2314.00
1935, 2312.00
1936, 2313.00
1937, 2314.00
1938, 2314.00
1939, 2313.00
1940, 2312.00
1941, 2315.00
1942, 2315.00
1943, 2315.00
1944, 2315.00
1945, 2318.00
1946, 2314.00
1947, 2316.00
1948, 2316.00
1949, 2316.00
1950, 2315.00
1951, 2316.00
1952, 2316.00
1953, 2317.00
1954, 2317.00
1955, 2319.00
1956, 2318.00
1957, 2319.00
1958, 2321.00
1959, 2319.00
1960, 2320.00
1961, 2320.00
1962, 2322.00
1963, 2321.00
1964, 2321.00
1965, 2323.00
1966, 2323.00
1967, 2325.00
1968, 2323.00
1969, 2325.00
1970, 2324.00
1971, 2325.00
1972, 2326.00
1973, 2326.00
1974, 2327.00
1975, 2328.00
1976, 2328.00
1977, 2327.00
1978, 2328.00
1979, 2329.00
1980, 2330.00
1981, 2329.00
1982, 2331.00
1983, 2332.00
1984, 2333.00
1985, 2333.00
1986, 2333.00
1987, 2332.00
1988, 2333.00
1989, 2336.00
1990, 2335.00
1991, 2335.00
1992, 2336.00
1993, 2337.00
1994, 2338.00
1995, 2337.00
1996, 2340.00
1997, 2338.00
1998, 2341.00
1999, 2339.00
2000, 2340.00
2001, 2340.00
2002, 2342.00
2003, 2343.00
2004, 2342.00
2005, 2344.00
2006, 2344.00
2007, 2344.00
2008, 2345.00
2009, 2345.00
2010, 2347.00
2011, 2345.00
2012, 2347.00
2013, 2348.00
2014, 2347.00
2015, 2348.00
2016, 2350.00
2017, 2349.00
2018, 2350.00
2019, 2352.00
2020, 2353.00
2021, 2351.00
2022, 2353.00
2023, 2354.00
2024, 2354.00
2025, 2354.00
2026, 2355.00
2027, 2355.00
2028, 2357.00
2029, 2357.00
2030, 2358.00
2031, 2358.00
2032, 2359.00
2033, 2359.00
2034, 2359.00
2035, 2360.00
2036, 2359.00
2037, 2361.00
2038, 2362.00
2039, 2363.00
2040, 2365.00
2041, 2366.00
2042, 2366.00
2043, 2367.00
2044, 2366.00
2045, 2369.00
2046, 2366.00
2047, 2370.00
2048, 2370.00
2049, 2370.00
2050, 2370.00
2051, 2373.00
2052, 2374.00
2053, 2374.00
2054, 2375.00
2055, 2374.00
2056, 2376.00
2057, 2376.00
2058, 2378.00
2059, 2378.00
2060, 2382.00
2061, 2381.00
2062, 2383.00
2063, 2382.00
2064, 2383.00
2065, 2385.00
2066, 2384.00
2067, 2387.00
2068, 2388.00
2069, 2387.00
2070, 2389.00
2071, 2389.00
2072, 2392.00
2073, 2392.00
2074, 2392.00
2075, 2395.00
2076, 2394.00
2077, 2394.00
2078, 2395.00
2079, 2397.00
2080, 2398.00
2081, 2396.00
2082, 2399.00
2083, 2399.00
2084, 2399.00
2085, 2401.00
2086, 2401.00
2087, 2402.00
2088, 2404.00
2089, 2402.00
2090, 2404.00
2091, 2405.00
2092, 2405.00
2093, 2405.00
2094, 2405.00
2095, 2406.00
2096, 2409.00
2097, 2407.00
2098, 2407.00
2099, 2409.00
2100, 2410.00
2101, 2410.00
2102, 2409.00
2103, 2410.00
2104, 2411.00
2105, 2412.00
2106, 2412.00
2107, 2411.00
2108, 2413.00
2109, 2412.00
2110, 2413.00
2111, 2414.00
2112, 2415.00
2113, 2416.00
2114, 2415.00
2115, 2417.00
2116, 2415.00
2117, 2417.00
2118, 2415.00
2119, 2417.00
2120, 2417.00
2121, 2417.00
2122, 2419.00
2123, 2418.00
2124, 2419.00
2125, 2421.00
2126, 2420.00
2127, 2419.00
2128, 2421.00
2129, 2422.00
2130, 2422.00
2131, 2421.00
2132, 2422.00
2133, 2424.00
2134, 2423.00
2135, 2423.00
2136, 2423.00
2137, 2423.00
2138, 2425.00
2139, 2426.00
2140, 2423.00
2141, 2425.00
2142, 2425.00
2143, 2424.00
2144, 2426.00
2145, 2425.00
2146, 2425.00
2147, 2427.00
2148, 2428.00
2149, 2428.00
2150, 2428.00
