FW version: 24
Log Version: 3.0.3

General Info:
       Command/Macro Performed,            Timestamp,             Device ID, COM Port, UART/I2C, Test Name, Host Major, Host Minor, Host Revision, Host Git Commit
            Single_measurement,  2023_06_28_11_27_52,       Insight2_F4_xxx,    USB-C,      USB,          ,          0,          1,             1,      4031237645

Show Spectrometer Status:
l0_version, f4_version, battery_perc, battery_mVolt, accelerometer_temp, accelerometer_x, accelerometer_y, accelerometer_z, compass_temp, compass_x, compass_y, compass_z, lamp_0, lamp_1, gain_0, gain_1
        17,         24,           42,          1890,               6432,           65292,             772,           18860,            0,     65422,     65431,     18877,   2866,   2866,      1,      1

Temperature Statistic Info:
NTC AVG [°C], NTC2 AVG [°C]
      39.675,        39.352

Statistic Info:
M1:  num,      min,      max,   median,      AVG,      STD,M2:  num,      min,      max,   median,      AVG,      STD
     301,  1379.00,  1580.00,  1420.00,  1444.78,  62.0825,     401,  1862.00,  1987.00,  1913.00,  1917.48,  40.4340,

Measurements:
Wavelength, Data Amplitude
1350, 1412.00
1351, 1413.00
1352, 1411.00
1353, 1411.00
1354, 1411.00
1355, 1410.00
1356, 1409.00
1357, 1408.00
1358, 1408.00
1359, 1407.00
1360, 1407.00
1361, 1405.00
1362, 1405.00
1363, 1405.00
1364, 1402.00
1365, 1402.00
1366, 1401.00
1367, 1401.00
1368, 1400.00
1369, 1399.00
1370, 1398.00
1371, 1395.00
1372, 1396.00
1373, 1395.00
1374, 1395.00
1375, 1393.00
1376, 1392.00
1377, 1390.00
1378, 1390.00
1379, 1391.00
1380, 1389.00
1381, 1389.00
1382, 1389.00
1383, 1388.00
1384, 1387.00
1385, 1386.00
1386, 1386.00
1387, 1386.00
1388, 1385.00
1389, 1385.00
1390, 1385.00
1391, 1384.00
1392, 1383.00
1393, 1382.00
1394, 1383.00
1395, 1382.00
1396, 1383.00
1397, 1383.00
1398, 1382.00
1399, 1381.00
1400, 1382.00
1401, 1381.00
1402, 1381.00
1403, 1380.00
1404, 1381.00
1405, 1381.00
1406, 1381.00
1407, 1380.00
1408, 1380.00
1409, 1380.00
1410, 1380.00
1411, 1381.00
1412, 1381.00
1413, 1380.00
1414, 1380.00
1415, 1380.00
1416, 1380.00
1417, 1380.00
1418, 1380.00
1419, 1380.00
1420, 1380.00
1421, 1379.00
1422, 1380.00
1423, 1379.00
1424, 1380.00
1425, 1379.00
1426, 1381.00
1427, 1379.00
1428, 1381.00
1429, 1381.00
1430, 1380.00
1431, 1381.00
1432, 1381.00
1433, 1382.00
1434, 1383.00
1435, 1383.00
1436, 1382.00
1437, 1383.00
1438, 1382.00
1439, 1384.00
1440, 1383.00
1441, 1384.00
1442, 1383.00
1443, 1384.00
1444, 1385.00
1445, 1384.00
1446, 1385.00
1447, 1385.00
1448, 1386.00
1449, 1385.00
1450, 1387.00
1451, 1387.00
1452, 1387.00
1453, 1388.00
1454, 1389.00
1455, 1389.00
1456, 1389.00
1457, 1391.00
1458, 1390.00
1459, 1390.00
1460, 1392.00
1461, 1391.00
1462, 1393.00
1463, 1393.00
1464, 1394.00
1465, 1395.00
1466, 1395.00
1467, 1396.00
1468, 1396.00
1469, 1397.00
1470, 1397.00
1471, 1397.00
1472, 1398.00
1473, 1400.00
1474, 1401.00
1475, 1400.00
1476, 1401.00
1477, 1402.00
1478, 1403.00
1479, 1403.00
1480, 1406.00
1481, 1405.00
1482, 1406.00
1483, 1407.00
1484, 1408.00
1485, 1409.00
1486, 1410.00
1487, 1411.00
1488, 1411.00
1489, 1411.00
1490, 1413.00
1491, 1413.00
1492, 1415.00
1493, 1415.00
1494, 1417.00
1495, 1416.00
1496, 1417.00
1497, 1419.00
1498, 1419.00
1499, 1420.00
1500, 1420.00
1501, 1422.00
1502, 1422.00
1503, 1424.00
1504, 1424.00
1505, 1425.00
1506, 1426.00
1507, 1427.00
1508, 1428.00
1509, 1429.00
1510, 1430.00
1511, 1431.00
1512, 1431.00
1513, 1433.00
1514, 1433.00
1515, 1434.00
1516, 1436.00
1517, 1436.00
1518, 1436.00
1519, 1437.00
1520, 1439.00
1521, 1439.00
1522, 1441.00
1523, 1441.00
1524, 1443.00
1525, 1443.00
1526, 1445.00
1527, 1447.00
1528, 1447.00
1529, 1447.00
1530, 1448.00
1531, 1450.00
1532, 1451.00
1533, 1452.00
1534, 1451.00
1535, 1454.00
1536, 1456.00
1537, 1455.00
1538, 1457.00
1539, 1457.00
1540, 1458.00
1541, 1459.00
1542, 1460.00
1543, 1461.00
1544, 1462.00
1545, 1463.00
1546, 1465.00
1547, 1465.00
1548, 1467.00
1549, 1468.00
1550, 1468.00
1551, 1469.00
1552, 1471.00
1553, 1471.00
1554, 1473.00
1555, 1473.00
1556, 1474.00
1557, 1476.00
1558, 1477.00
1559, 1478.00
1560, 1479.00
1561, 1480.00
1562, 1480.00
1563, 1482.00
1564, 1484.00
1565, 1484.00
1566, 1485.00
1567, 1486.00
1568, 1488.00
1569, 1490.00
1570, 1489.00
1571, 1492.00
1572, 1493.00
1573, 1494.00
1574, 1495.00
1575, 1495.00
1576, 1497.00
1577, 1498.00
1578, 1499.00
1579, 1501.00
1580, 1501.00
1581, 1502.00
1582, 1502.00
1583, 1503.00
1584, 1505.00
1585, 1506.00
1586, 1507.00
1587, 1507.00
1588, 1509.00
1589, 1510.00
1590, 1510.00
1591, 1512.00
1592, 1512.00
1593, 1515.00
1594, 1515.00
1595, 1516.00
1596, 1517.00
1597, 1518.00
1598, 1519.00
1599, 1520.00
1600, 1520.00
1601, 1521.00
1602, 1523.00
1603, 1523.00
1604, 1525.00
1605, 1527.00
1606, 1526.00
1607, 1530.00
1608, 1529.00
1609, 1532.00
1610, 1531.00
1611, 1532.00
1612, 1534.00
1613, 1536.00
1614, 1537.00
1615, 1538.00
1616, 1539.00
1617, 1540.00
1618, 1542.00
1619, 1543.00
1620, 1546.00
1621, 1546.00
1622, 1546.00
1623, 1549.00
1624, 1550.00
1625, 1552.00
1626, 1552.00
1627, 1553.00
1628, 1554.00
1629, 1557.00
1630, 1557.00
1631, 1558.00
1632, 1560.00
1633, 1560.00
1634, 1563.00
1635, 1564.00
1636, 1564.00
1637, 1565.00
1638, 1566.00
1639, 1567.00
1640, 1568.00
1641, 1570.00
1642, 1570.00
1643, 1571.00
1644, 1572.00
1645, 1574.00
1646, 1574.00
1647, 1576.00
1648, 1576.00
1649, 1578.00
1650, 1580.00

1750, 1981.00
1751, 1985.00
1752, 1984.00
1753, 1985.00
1754, 1984.00
1755, 1985.00
1756, 1987.00
1757, 1985.00
1758, 1985.00
1759, 1983.00
1760, 1983.00
1761, 1985.00
1762, 1985.00
1763, 1984.00
1764, 1985.00
1765, 1983.00
1766, 1985.00
1767, 1985.00
1768, 1983.00
1769, 1985.00
1770, 1983.00
1771, 1982.00
1772, 1982.00
1773, 1983.00
1774, 1982.00
1775, 1981.00
1776, 1981.00
1777, 1980.00
1778, 1980.00
1779, 1981.00
1780, 1980.00
1781, 1979.00
1782, 1979.00
1783, 1978.00
1784, 1978.00
1785, 1978.00
1786, 1979.00
1787, 1978.00
1788, 1976.00
1789, 1975.00
1790, 1975.00
1791, 1976.00
1792, 1974.00
1793, 1973.00
1794, 1973.00
1795, 1974.00
1796, 1971.00
1797, 1971.00
1798, 1972.00
1799, 1971.00
1800, 1970.00
1801, 1972.00
1802, 1972.00
1803, 1969.00
1804, 1971.00
1805, 1971.00
1806, 1969.00
1807, 1969.00
1808, 1968.00
1809, 1969.00
1810, 1967.00
1811, 1967.00
1812, 1966.00
1813, 1966.00
1814, 1967.00
1815, 1965.00
1816, 1965.00
1817, 1963.00
1818, 1964.00
1819, 1964.00
1820, 1961.00
1821, 1961.00
1822, 1959.00
1823, 1961.00
1824, 1958.00
1825, 1959.00
1826, 1958.00
1827, 1954.00
1828, 1955.00
1829, 1951.00
1830, 1952.00
1831, 1951.00
1832, 1951.00
1833, 1946.00
1834, 1946.00
1835, 1945.00
1836, 1944.00
1837, 1940.00
1838, 1940.00
1839, 1939.00
1840, 1938.00
1841, 1935.00
1842, 1936.00
1843, 1933.00
1844, 1931.00
1845, 1930.00
1846, 1926.00
1847, 1924.00
1848, 1924.00
1849, 1919.00
1850, 1919.00
1851, 1918.00
1852, 1915.00
1853, 1915.00
1854, 1910.00
1855, 1910.00
1856, 1908.00
1857, 1906.00
1858, 1904.00
1859, 1902.00
1860, 1901.00
1861, 1897.00
1862, 1896.00
1863, 1895.00
1864, 1895.00
1865, 1892.00
1866, 1890.00
1867, 1888.00
1868, 1890.00
1869, 1887.00
1870, 1885.00
1871, 1887.00
1872, 1883.00
1873, 1881.00
1874, 1883.00
1875, 1881.00
1876, 1880.00
1877, 1879.00
1878, 1879.00
1879, 1878.00
1880, 1878.00
1881, 1876.00
1882, 1877.00
1883, 1874.00
1884, 1873.00
1885, 1872.00
1886, 1873.00
1887, 1873.00
1888, 1873.00
1889, 1873.00
1890, 1871.00
1891, 1871.00
1892, 1871.00
1893, 1870.00
1894, 1870.00
1895, 1869.00
1896, 1869.00
1897, 1869.00
1898, 1870.00
1899, 1869.00
1900, 1867.00
1901, 1868.00
1902, 1865.00
1903, 1869.00
1904, 1867.00
1905, 1866.00
1906, 1865.00
1907, 1866.00
1908, 1867.00
1909, 1865.00
1910, 1865.00
1911, 1868.00
1912, 1865.00
1913, 1864.00
1914, 1865.00
1915, 1865.00
1916, 1865.00
1917, 1865.00
1918, 1865.00
1919, 1865.00
1920, 1864.00
1921, 1865.00
1922, 1864.00
1923, 1862.00
1924, 1865.00
1925, 1865.00
1926, 1864.00
1927, 1863.00
1928, 1865.00
1929, 1864.00
1930, 1864.00
1931, 1863.00
1932, 1863.00
1933, 1864.00
1934, 1865.00
1935, 1864.00
1936, 1865.00
1937, 1865.00
1938, 1864.00
1939, 1863.00
1940, 1864.00
1941, 1866.00
1942, 1863.00
1943, 1865.00
1944, 1864.00
1945, 1865.00
1946, 1868.00
1947, 1865.00
1948, 1868.00
1949, 1868.00
1950, 1866.00
1951, 1868.00
1952, 1868.00
1953, 1867.00
1954, 1868.00
1955, 1868.00
1956, 1868.00
1957, 1870.00
1958, 1869.00
1959, 1869.00
1960, 1870.00
1961, 1870.00
1962, 1870.00
1963, 1872.00
1964, 1870.00
1965, 1871.00
1966, 1873.00
1967, 1871.00
1968, 1873.00
1969, 1873.00
1970, 1874.00
1971, 1874.00
1972, 1873.00
1973, 1875.00
1974, 1876.00
1975, 1876.00
1976, 1877.00
1977, 1877.00
1978, 1876.00
1979, 1878.00
1980, 1878.00
1981, 1879.00
1982, 1881.00
1983, 1879.00
1984, 1878.00
1985, 1880.00
1986, 1881.00
1987, 1881.00
1988, 1882.00
1989, 1883.00
1990, 1882.00
1991, 1882.00
1992, 1882.00
1993, 1886.00
1994, 1885.00
1995, 1884.00
1996, 1884.00
1997, 1885.00
1998, 1886.00
1999, 1886.00
2000, 1887.00
2001, 1887.00
2002, 1889.00
2003, 1888.00
2004, 1890.00
2005, 1888.00
2006, 1889.00
2007, 1891.00
2008, 1889.00
2009, 1891.00
2010, 1891.00
2011, 1891.00
2012, 1892.00
2013, 1894.00
2014, 1892.00
2015, 1895.00
2016, 1895.00
2017, 1895.00
2018, 1895.00
2019, 1894.00
2020, 1895.00
2021, 1898.00
2022, 1896.00
2023, 1897.00
2024, 1897.00
2025, 1898.00
2026, 1896.00
2027, 1899.00
2028, 1899.00
2029, 1899.00
2030, 1902.00
2031, 1901.00
2032, 1903.00
2033, 1902.00
2034, 1902.00
2035, 1904.00
2036, 1905.00
2037, 1903.00
2038, 1903.00
2039, 1905.00
2040, 1905.00
2041, 1908.00
2042, 1908.00
2043, 1907.00
2044, 1906.00
2045, 1907.00
2046, 1910.00
2047, 1911.00
2048, 1911.00
2049, 1912.00
2050, 1912.00
2051, 1913.00
2052, 1913.00
2053, 1913.00
2054, 1916.00
2055, 1912.00
2056, 1917.00
2057, 1917.00
2058, 1918.00
2059, 1917.00
2060, 1919.00
2061, 1919.00
2062, 1919.00
2063, 1921.00
2064, 1920.00
2065, 1923.00
2066, 1923.00
2067, 1923.00
2068, 1926.00
2069, 1925.00
2070, 1926.00
2071, 1928.00
2072, 1929.00
2073, 1929.00
2074, 1929.00
2075, 1929.00
2076, 1932.00
2077, 1931.00
2078, 1933.00
2079, 1932.00
2080, 1934.00
2081, 1933.00
2082, 1934.00
2083, 1934.00
2084, 1935.00
2085, 1934.00
2086, 1936.00
2087, 1939.00
2088, 1938.00
2089, 1939.00
2090, 1938.00
2091, 1939.00
2092, 1939.00
2093, 1941.00
2094, 1942.00
2095, 1942.00
2096, 1941.00
2097, 1941.00
2098, 1943.00
2099, 1942.00
2100, 1942.00
2101, 1945.00
2102, 1945.00
2103, 1944.00
2104, 1946.00
2105, 1945.00
2106, 1947.00
2107, 1947.00
2108, 1946.00
2109, 1945.00
2110, 1947.00
2111, 1948.00
2112, 1948.00
2113, 1949.00
2114, 1950.00
2115, 1947.00
2116, 1949.00
2117, 1950.00
2118, 1948.00
2119, 1950.00
2120, 1950.00
2121, 1950.00
2122, 1953.00
2123, 1951.00
2124, 1951.00
2125, 1952.00
2126, 1952.00
2127, 1952.00
2128, 1953.00
2129, 1955.00
2130, 1952.00
2131, 1953.00
2132, 1953.00
2133, 1954.00
2134, 1953.00
2135, 1954.00
2136, 1957.00
2137, 1956.00
2138, 1957.00
2139, 1959.00
2140, 1957.00
2141, 1955.00
2142, 1957.00
2143, 1957.00
2144, 1957.00
2145, 1957.00
2146, 1957.00
2147, 1956.00
2148, 1959.00
2149, 1959.00
2150, 1958.00
