FW version: 24
Log Version: 3.0.3

General Info:
       Command/Macro Performed,            Timestamp,             Device ID, COM Port, UART/I2C, Test Name, Host Major, Host Minor, Host Revision, Host Git Commit
            Single_measurement,  2023_06_29_10_44_04,       Insight2_F4_xxx,    USB-C,      USB,          ,          0,          1,             1,      4031237645

Show Spectrometer Status:
l0_version, f4_version, battery_perc, battery_mVolt, accelerometer_temp, accelerometer_x, accelerometer_y, accelerometer_z, compass_temp, compass_x, compass_y, compass_z, lamp_0, lamp_1, gain_0, gain_1
        17,         24,           92,          2060,               5824,           65480,              72,           18440,            0,     65531,     65402,     65518,   3276,   3276,      0,      0

Temperature Statistic Info:
NTC AVG [°C], NTC2 AVG [°C]
      37.295,        36.976

Statistic Info:
M1:  num,      min,      max,   median,      AVG,      STD,M2:  num,      min,      max,   median,      AVG,      STD
     301,   626.00,   715.00,   644.00,   655.51,  27.7169,     401,   829.00,   884.00,   851.00,   853.03,  17.5400,

Measurements:
Wavelength, Data Amplitude
1350, 643.00
1351, 642.00
1352, 642.00
1353, 642.00
1354, 641.00
1355, 641.00
1356, 641.00
1357, 640.00
1358, 640.00
1359, 640.00
1360, 640.00
1361, 639.00
1362, 639.00
1363, 638.00
1364, 638.00
1365, 638.00
1366, 638.00
1367, 637.00
1368, 637.00
1369, 636.00
1370, 636.00
1371, 635.00
1372, 634.00
1373, 635.00
1374, 634.00
1375, 634.00
1376, 633.00
1377, 633.00
1378, 632.00
1379, 632.00
1380, 632.00
1381, 632.00
1382, 631.00
1383, 630.00
1384, 630.00
1385, 630.00
1386, 630.00
1387, 630.00
1388, 629.00
1389, 629.00
1390, 629.00
1391, 629.00
1392, 629.00
1393, 628.00
1394, 628.00
1395, 628.00
1396, 628.00
1397, 628.00
1398, 627.00
1399, 628.00
1400, 628.00
1401, 628.00
1402, 627.00
1403, 627.00
1404, 627.00
1405, 627.00
1406, 627.00
1407, 627.00
1408, 627.00
1409, 627.00
1410, 627.00
1411, 626.00
1412, 627.00
1413, 627.00
1414, 626.00
1415, 627.00
1416, 626.00
1417, 627.00
1418, 626.00
1419, 626.00
1420, 626.00
1421, 627.00
1422, 626.00
1423, 626.00
1424, 627.00
1425, 627.00
1426, 626.00
1427, 627.00
1428, 627.00
1429, 627.00
1430, 627.00
1431, 627.00
1432, 627.00
1433, 627.00
1434, 627.00
1435, 627.00
1436, 627.00
1437, 627.00
1438, 628.00
1439, 628.00
1440, 628.00
1441, 629.00
1442, 628.00
1443, 628.00
1444, 628.00
1445, 628.00
1446, 628.00
1447, 629.00
1448, 629.00
1449, 630.00
1450, 630.00
1451, 630.00
1452, 629.00
1453, 630.00
1454, 630.00
1455, 630.00
1456, 630.00
1457, 630.00
1458, 631.00
1459, 631.00
1460, 631.00
1461, 631.00
1462, 632.00
1463, 632.00
1464, 632.00
1465, 632.00
1466, 633.00
1467, 634.00
1468, 634.00
1469, 634.00
1470, 634.00
1471, 634.00
1472, 635.00
1473, 635.00
1474, 635.00
1475, 635.00
1476, 636.00
1477, 636.00
1478, 636.00
1479, 637.00
1480, 637.00
1481, 637.00
1482, 638.00
1483, 638.00
1484, 639.00
1485, 639.00
1486, 639.00
1487, 639.00
1488, 640.00
1489, 640.00
1490, 641.00
1491, 641.00
1492, 641.00
1493, 642.00
1494, 642.00
1495, 643.00
1496, 642.00
1497, 644.00
1498, 644.00
1499, 644.00
1500, 644.00
1501, 644.00
1502, 645.00
1503, 645.00
1504, 646.00
1505, 646.00
1506, 646.00
1507, 647.00
1508, 647.00
1509, 648.00
1510, 648.00
1511, 648.00
1512, 649.00
1513, 649.00
1514, 650.00
1515, 650.00
1516, 650.00
1517, 651.00
1518, 651.00
1519, 652.00
1520, 653.00
1521, 653.00
1522, 654.00
1523, 653.00
1524, 654.00
1525, 654.00
1526, 655.00
1527, 655.00
1528, 656.00
1529, 656.00
1530, 656.00
1531, 657.00
1532, 658.00
1533, 658.00
1534, 658.00
1535, 660.00
1536, 660.00
1537, 660.00
1538, 660.00
1539, 661.00
1540, 661.00
1541, 662.00
1542, 661.00
1543, 663.00
1544, 663.00
1545, 663.00
1546, 664.00
1547, 664.00
1548, 665.00
1549, 665.00
1550, 666.00
1551, 666.00
1552, 666.00
1553, 667.00
1554, 667.00
1555, 668.00
1556, 668.00
1557, 669.00
1558, 670.00
1559, 670.00
1560, 671.00
1561, 672.00
1562, 672.00
1563, 673.00
1564, 673.00
1565, 673.00
1566, 674.00
1567, 674.00
1568, 675.00
1569, 675.00
1570, 676.00
1571, 676.00
1572, 677.00
1573, 677.00
1574, 678.00
1575, 678.00
1576, 679.00
1577, 679.00
1578, 680.00
1579, 680.00
1580, 681.00
1581, 681.00
1582, 682.00
1583, 682.00
1584, 683.00
1585, 683.00
1586, 683.00
1587, 683.00
1588, 684.00
1589, 685.00
1590, 685.00
1591, 685.00
1592, 686.00
1593, 686.00
1594, 687.00
1595, 687.00
1596, 688.00
1597, 688.00
1598, 689.00
1599, 689.00
1600, 689.00
1601, 690.00
1602, 690.00
1603, 691.00
1604, 691.00
1605, 692.00
1606, 692.00
1607, 693.00
1608, 694.00
1609, 694.00
1610, 695.00
1611, 695.00
1612, 696.00
1613, 696.00
1614, 696.00
1615, 697.00
1616, 698.00
1617, 699.00
1618, 698.00
1619, 699.00
1620, 701.00
1621, 701.00
1622, 701.00
1623, 702.00
1624, 703.00
1625, 703.00
1626, 703.00
1627, 705.00
1628, 705.00
1629, 706.00
1630, 706.00
1631, 706.00
1632, 707.00
1633, 707.00
1634, 708.00
1635, 709.00
1636, 708.00
1637, 709.00
1638, 710.00
1639, 711.00
1640, 711.00
1641, 712.00
1642, 712.00
1643, 712.00
1644, 713.00
1645, 713.00
1646, 713.00
1647, 714.00
1648, 715.00
1649, 715.00
1650, 715.00

1750, 883.00
1751, 883.00
1752, 883.00
1753, 883.00
1754, 883.00
1755, 884.00
1756, 883.00
1757, 883.00
1758, 883.00
1759, 884.00
1760, 883.00
1761, 883.00
1762, 883.00
1763, 883.00
1764, 883.00
1765, 883.00
1766, 883.00
1767, 882.00
1768, 883.00
1769, 882.00
1770, 882.00
1771, 883.00
1772, 882.00
1773, 882.00
1774, 882.00
1775, 882.00
1776, 882.00
1777, 882.00
1778, 881.00
1779, 881.00
1780, 881.00
1781, 881.00
1782, 881.00
1783, 880.00
1784, 880.00
1785, 880.00
1786, 880.00
1787, 879.00
1788, 879.00
1789, 879.00
1790, 879.00
1791, 879.00
1792, 878.00
1793, 879.00
1794, 878.00
1795, 878.00
1796, 878.00
1797, 878.00
1798, 877.00
1799, 877.00
1800, 877.00
1801, 877.00
1802, 877.00
1803, 878.00
1804, 876.00
1805, 877.00
1806, 876.00
1807, 876.00
1808, 876.00
1809, 876.00
1810, 875.00
1811, 875.00
1812, 875.00
1813, 875.00
1814, 875.00
1815, 875.00
1816, 874.00
1817, 874.00
1818, 874.00
1819, 873.00
1820, 873.00
1821, 873.00
1822, 873.00
1823, 871.00
1824, 872.00
1825, 871.00
1826, 871.00
1827, 870.00
1828, 870.00
1829, 869.00
1830, 869.00
1831, 868.00
1832, 868.00
1833, 867.00
1834, 867.00
1835, 865.00
1836, 865.00
1837, 864.00
1838, 863.00
1839, 863.00
1840, 863.00
1841, 862.00
1842, 861.00
1843, 860.00
1844, 860.00
1845, 859.00
1846, 858.00
1847, 857.00
1848, 856.00
1849, 855.00
1850, 854.00
1851, 854.00
1852, 853.00
1853, 852.00
1854, 851.00
1855, 850.00
1856, 850.00
1857, 849.00
1858, 847.00
1859, 847.00
1860, 846.00
1861, 846.00
1862, 845.00
1863, 844.00
1864, 844.00
1865, 843.00
1866, 842.00
1867, 841.00
1868, 841.00
1869, 841.00
1870, 840.00
1871, 839.00
1872, 839.00
1873, 839.00
1874, 838.00
1875, 838.00
1876, 838.00
1877, 837.00
1878, 837.00
1879, 836.00
1880, 837.00
1881, 836.00
1882, 836.00
1883, 835.00
1884, 835.00
1885, 835.00
1886, 835.00
1887, 835.00
1888, 835.00
1889, 834.00
1890, 834.00
1891, 833.00
1892, 833.00
1893, 833.00
1894, 834.00
1895, 833.00
1896, 832.00
1897, 832.00
1898, 833.00
1899, 833.00
1900, 832.00
1901, 832.00
1902, 832.00
1903, 832.00
1904, 832.00
1905, 831.00
1906, 832.00
1907, 831.00
1908, 831.00
1909, 832.00
1910, 831.00
1911, 831.00
1912, 832.00
1913, 830.00
1914, 830.00
1915, 830.00
1916, 830.00
1917, 831.00
1918, 830.00
1919, 831.00
1920, 830.00
1921, 831.00
1922, 831.00
1923, 831.00
1924, 830.00
1925, 829.00
1926, 830.00
1927, 831.00
1928, 830.00
1929, 830.00
1930, 830.00
1931, 830.00
1932, 830.00
1933, 830.00
1934, 830.00
1935, 831.00
1936, 830.00
1937, 830.00
1938, 831.00
1939, 830.00
1940, 831.00
1941, 830.00
1942, 831.00
1943, 831.00
1944, 830.00
1945, 830.00
1946, 831.00
1947, 831.00
1948, 831.00
1949, 831.00
1950, 831.00
1951, 832.00
1952, 832.00
1953, 832.00
1954, 833.00
1955, 833.00
1956, 833.00
1957, 832.00
1958, 832.00
1959, 832.00
1960, 832.00
1961, 832.00
1962, 833.00
1963, 833.00
1964, 833.00
1965, 833.00
1966, 833.00
1967, 834.00
1968, 833.00
1969, 834.00
1970, 834.00
1971, 835.00
1972, 834.00
1973, 834.00
1974, 835.00
1975, 836.00
1976, 835.00
1977, 835.00
1978, 835.00
1979, 836.00
1980, 836.00
1981, 836.00
1982, 836.00
1983, 837.00
1984, 837.00
1985, 837.00
1986, 837.00
1987, 837.00
1988, 837.00
1989, 837.00
1990, 837.00
1991, 837.00
1992, 837.00
1993, 838.00
1994, 839.00
1995, 838.00
1996, 838.00
1997, 838.00
1998, 839.00
1999, 839.00
2000, 840.00
2001, 840.00
2002, 840.00
2003, 840.00
2004, 841.00
2005, 840.00
2006, 840.00
2007, 841.00
2008, 841.00
2009, 841.00
2010, 841.00
2011, 841.00
2012, 842.00
2013, 842.00
2014, 843.00
2015, 842.00
2016, 842.00
2017, 842.00
2018, 843.00
2019, 842.00
2020, 843.00
2021, 843.00
2022, 843.00
2023, 843.00
2024, 844.00
2025, 844.00
2026, 844.00
2027, 845.00
2028, 845.00
2029, 845.00
2030, 845.00
2031, 845.00
2032, 845.00
2033, 846.00
2034, 845.00
2035, 847.00
2036, 847.00
2037, 847.00
2038, 847.00
2039, 847.00
2040, 847.00
2041, 847.00
2042, 847.00
2043, 848.00
2044, 849.00
2045, 849.00
2046, 848.00
2047, 849.00
2048, 849.00
2049, 850.00
2050, 849.00
2051, 850.00
2052, 850.00
2053, 851.00
2054, 851.00
2055, 851.00
2056, 852.00
2057, 852.00
2058, 852.00
2059, 853.00
2060, 853.00
2061, 853.00
2062, 853.00
2063, 854.00
2064, 854.00
2065, 854.00
2066, 855.00
2067, 855.00
2068, 855.00
2069, 856.00
2070, 856.00
2071, 855.00
2072, 856.00
2073, 856.00
2074, 857.00
2075, 857.00
2076, 858.00
2077, 858.00
2078, 858.00
2079, 858.00
2080, 859.00
2081, 858.00
2082, 859.00
2083, 859.00
2084, 859.00
2085, 861.00
2086, 860.00
2087, 861.00
2088, 860.00
2089, 860.00
2090, 861.00
2091, 861.00
2092, 862.00
2093, 862.00
2094, 862.00
2095, 862.00
2096, 863.00
2097, 862.00
2098, 863.00
2099, 863.00
2100, 863.00
2101, 863.00
2102, 864.00
2103, 864.00
2104, 863.00
2105, 863.00
2106, 864.00
2107, 864.00
2108, 865.00
2109, 865.00
2110, 865.00
2111, 865.00
2112, 865.00
2113, 865.00
2114, 865.00
2115, 865.00
2116, 866.00
2117, 866.00
2118, 866.00
2119, 866.00
2120, 866.00
2121, 866.00
2122, 866.00
2123, 866.00
2124, 867.00
2125, 867.00
2126, 867.00
2127, 867.00
2128, 867.00
2129, 867.00
2130, 868.00
2131, 867.00
2132, 867.00
2133, 868.00
2134, 868.00
2135, 868.00
2136, 868.00
2137, 868.00
2138, 869.00
2139, 869.00
2140, 869.00
2141, 869.00
2142, 869.00
2143, 868.00
2144, 869.00
2145, 869.00
2146, 869.00
2147, 869.00
2148, 869.00
2149, 870.00
2150, 869.00
