FW version: 24
Log Version: 3.0.3

General Info:
       Command/Macro Performed,            Timestamp,             Device ID, COM Port, UART/I2C, Test Name, Host Major, Host Minor, Host Revision, Host Git Commit
            Single_measurement,  2023_06_29_10_44_23,       Insight2_F4_xxx,    USB-C,      USB,          ,          0,          1,             1,      4031237645

Show Spectrometer Status:
l0_version, f4_version, battery_perc, battery_mVolt, accelerometer_temp, accelerometer_x, accelerometer_y, accelerometer_z, compass_temp, compass_x, compass_y, compass_z, lamp_0, lamp_1, gain_0, gain_1
        17,         24,           92,          2061,               5824,           65476,              88,           18388,            0,     65535,     65401,     65535,   2047,   2047,      1,      1

Temperature Statistic Info:
NTC AVG [°C], NTC2 AVG [°C]
      37.411,        37.092

Statistic Info:
M1:  num,      min,      max,   median,      AVG,      STD,M2:  num,      min,      max,   median,      AVG,      STD
     301,   724.00,   838.00,   750.00,   762.46,  36.1022,     401,  1088.00,  1159.00,  1119.00,  1120.34,  23.5754,

Measurements:
Wavelength, Data Amplitude
1350, 741.00
1351, 740.00
1352, 740.00
1353, 739.00
1354, 739.00
1355, 740.00
1356, 739.00
1357, 738.00
1358, 739.00
1359, 738.00
1360, 737.00
1361, 737.00
1362, 738.00
1363, 736.00
1364, 735.00
1365, 735.00
1366, 734.00
1367, 734.00
1368, 734.00
1369, 733.00
1370, 734.00
1371, 732.00
1372, 732.00
1373, 731.00
1374, 732.00
1375, 730.00
1376, 730.00
1377, 731.00
1378, 729.00
1379, 729.00
1380, 729.00
1381, 728.00
1382, 728.00
1383, 728.00
1384, 727.00
1385, 728.00
1386, 727.00
1387, 727.00
1388, 727.00
1389, 726.00
1390, 727.00
1391, 727.00
1392, 727.00
1393, 726.00
1394, 726.00
1395, 726.00
1396, 725.00
1397, 726.00
1398, 725.00
1399, 725.00
1400, 725.00
1401, 725.00
1402, 725.00
1403, 726.00
1404, 724.00
1405, 725.00
1406, 725.00
1407, 725.00
1408, 724.00
1409, 724.00
1410, 725.00
1411, 725.00
1412, 725.00
1413, 724.00
1414, 724.00
1415, 725.00
1416, 725.00
1417, 725.00
1418, 725.00
1419, 724.00
1420, 725.00
1421, 725.00
1422, 725.00
1423, 725.00
1424, 724.00
1425, 724.00
1426, 725.00
1427, 725.00
1428, 725.00
1429, 725.00
1430, 726.00
1431, 726.00
1432, 725.00
1433, 726.00
1434, 726.00
1435, 726.00
1436, 726.00
1437, 726.00
1438, 727.00
1439, 726.00
1440, 727.00
1441, 728.00
1442, 728.00
1443, 727.00
1444, 727.00
1445, 728.00
1446, 728.00
1447, 728.00
1448, 729.00
1449, 729.00
1450, 730.00
1451, 730.00
1452, 729.00
1453, 730.00
1454, 730.00
1455, 730.00
1456, 731.00
1457, 731.00
1458, 731.00
1459, 731.00
1460, 732.00
1461, 733.00
1462, 732.00
1463, 732.00
1464, 733.00
1465, 734.00
1466, 734.00
1467, 734.00
1468, 735.00
1469, 736.00
1470, 735.00
1471, 736.00
1472, 736.00
1473, 737.00
1474, 738.00
1475, 737.00
1476, 738.00
1477, 738.00
1478, 739.00
1479, 740.00
1480, 739.00
1481, 740.00
1482, 741.00
1483, 741.00
1484, 742.00
1485, 742.00
1486, 743.00
1487, 742.00
1488, 743.00
1489, 744.00
1490, 745.00
1491, 745.00
1492, 746.00
1493, 746.00
1494, 746.00
1495, 747.00
1496, 748.00
1497, 748.00
1498, 749.00
1499, 748.00
1500, 750.00
1501, 750.00
1502, 750.00
1503, 751.00
1504, 752.00
1505, 753.00
1506, 751.00
1507, 754.00
1508, 754.00
1509, 755.00
1510, 754.00
1511, 756.00
1512, 756.00
1513, 757.00
1514, 757.00
1515, 758.00
1516, 758.00
1517, 759.00
1518, 759.00
1519, 759.00
1520, 760.00
1521, 760.00
1522, 761.00
1523, 762.00
1524, 763.00
1525, 764.00
1526, 763.00
1527, 765.00
1528, 765.00
1529, 766.00
1530, 766.00
1531, 766.00
1532, 767.00
1533, 768.00
1534, 769.00
1535, 769.00
1536, 769.00
1537, 770.00
1538, 772.00
1539, 771.00
1540, 772.00
1541, 772.00
1542, 773.00
1543, 773.00
1544, 774.00
1545, 775.00
1546, 774.00
1547, 776.00
1548, 777.00
1549, 777.00
1550, 777.00
1551, 779.00
1552, 779.00
1553, 779.00
1554, 780.00
1555, 780.00
1556, 781.00
1557, 782.00
1558, 782.00
1559, 782.00
1560, 784.00
1561, 784.00
1562, 784.00
1563, 785.00
1564, 786.00
1565, 786.00
1566, 785.00
1567, 787.00
1568, 788.00
1569, 789.00
1570, 789.00
1571, 790.00
1572, 791.00
1573, 791.00
1574, 792.00
1575, 792.00
1576, 794.00
1577, 794.00
1578, 794.00
1579, 794.00
1580, 794.00
1581, 796.00
1582, 797.00
1583, 797.00
1584, 797.00
1585, 798.00
1586, 798.00
1587, 799.00
1588, 800.00
1589, 800.00
1590, 801.00
1591, 802.00
1592, 802.00
1593, 802.00
1594, 803.00
1595, 804.00
1596, 805.00
1597, 806.00
1598, 805.00
1599, 806.00
1600, 807.00
1601, 807.00
1602, 808.00
1603, 808.00
1604, 810.00
1605, 810.00
1606, 810.00
1607, 810.00
1608, 812.00
1609, 813.00
1610, 813.00
1611, 814.00
1612, 815.00
1613, 815.00
1614, 817.00
1615, 817.00
1616, 817.00
1617, 818.00
1618, 819.00
1619, 820.00
1620, 820.00
1621, 821.00
1622, 822.00
1623, 823.00
1624, 823.00
1625, 824.00
1626, 825.00
1627, 825.00
1628, 826.00
1629, 827.00
1630, 828.00
1631, 827.00
1632, 828.00
1633, 829.00
1634, 830.00
1635, 830.00
1636, 831.00
1637, 831.00
1638, 833.00
1639, 834.00
1640, 833.00
1641, 833.00
1642, 835.00
1643, 834.00
1644, 834.00
1645, 835.00
1646, 835.00
1647, 836.00
1648, 837.00
1649, 838.00
1650, 838.00

1750, 1158.00
1751, 1159.00
1752, 1157.00
1753, 1157.00
1754, 1157.00
1755, 1158.00
1756, 1156.00
1757, 1158.00
1758, 1159.00
1759, 1158.00
1760, 1158.00
1761, 1158.00
1762, 1158.00
1763, 1156.00
1764, 1159.00
1765, 1158.00
1766, 1157.00
1767, 1158.00
1768, 1159.00
1769, 1156.00
1770, 1156.00
1771, 1157.00
1772, 1156.00
1773, 1157.00
1774, 1157.00
1775, 1157.00
1776, 1155.00
1777, 1156.00
1778, 1156.00
1779, 1155.00
1780, 1155.00
1781, 1155.00
1782, 1155.00
1783, 1155.00
1784, 1154.00
1785, 1152.00
1786, 1155.00
1787, 1153.00
1788, 1154.00
1789, 1154.00
1790, 1153.00
1791, 1152.00
1792, 1152.00
1793, 1153.00
1794, 1152.00
1795, 1153.00
1796, 1151.00
1797, 1150.00
1798, 1152.00
1799, 1152.00
1800, 1151.00
1801, 1152.00
1802, 1151.00
1803, 1151.00
1804, 1150.00
1805, 1150.00
1806, 1148.00
1807, 1149.00
1808, 1150.00
1809, 1150.00
1810, 1149.00
1811, 1149.00
1812, 1149.00
1813, 1147.00
1814, 1148.00
1815, 1148.00
1816, 1145.00
1817, 1147.00
1818, 1147.00
1819, 1146.00
1820, 1145.00
1821, 1145.00
1822, 1145.00
1823, 1143.00
1824, 1143.00
1825, 1144.00
1826, 1143.00
1827, 1142.00
1828, 1142.00
1829, 1141.00
1830, 1141.00
1831, 1141.00
1832, 1138.00
1833, 1137.00
1834, 1137.00
1835, 1136.00
1836, 1135.00
1837, 1134.00
1838, 1132.00
1839, 1133.00
1840, 1132.00
1841, 1131.00
1842, 1131.00
1843, 1129.00
1844, 1127.00
1845, 1127.00
1846, 1125.00
1847, 1125.00
1848, 1124.00
1849, 1122.00
1850, 1121.00
1851, 1119.00
1852, 1121.00
1853, 1117.00
1854, 1117.00
1855, 1117.00
1856, 1115.00
1857, 1114.00
1858, 1113.00
1859, 1110.00
1860, 1110.00
1861, 1109.00
1862, 1106.00
1863, 1109.00
1864, 1106.00
1865, 1105.00
1866, 1105.00
1867, 1103.00
1868, 1104.00
1869, 1103.00
1870, 1101.00
1871, 1102.00
1872, 1099.00
1873, 1100.00
1874, 1100.00
1875, 1100.00
1876, 1100.00
1877, 1097.00
1878, 1097.00
1879, 1097.00
1880, 1097.00
1881, 1097.00
1882, 1096.00
1883, 1097.00
1884, 1095.00
1885, 1095.00
1886, 1096.00
1887, 1095.00
1888, 1095.00
1889, 1093.00
1890, 1093.00
1891, 1093.00
1892, 1092.00
1893, 1094.00
1894, 1092.00
1895, 1093.00
1896, 1092.00
1897, 1091.00
1898, 1092.00
1899, 1092.00
1900, 1090.00
1901, 1090.00
1902, 1091.00
1903, 1091.00
1904, 1091.00
1905, 1091.00
1906, 1089.00
1907, 1089.00
1908, 1090.00
1909, 1090.00
1910, 1090.00
1911, 1090.00
1912, 1090.00
1913, 1090.00
1914, 1089.00
1915, 1089.00
1916, 1090.00
1917, 1089.00
1918, 1089.00
1919, 1089.00
1920, 1088.00
1921, 1089.00
1922, 1089.00
1923, 1088.00
1924, 1089.00
1925, 1091.00
1926, 1088.00
1927, 1090.00
1928, 1089.00
1929, 1089.00
1930, 1089.00
1931, 1088.00
1932, 1090.00
1933, 1089.00
1934, 1090.00
1935, 1088.00
1936, 1089.00
1937, 1090.00
1938, 1089.00
1939, 1089.00
1940, 1090.00
1941, 1090.00
1942, 1089.00
1943, 1090.00
1944, 1090.00
1945, 1089.00
1946, 1090.00
1947, 1092.00
1948, 1090.00
1949, 1092.00
1950, 1091.00
1951, 1091.00
1952, 1092.00
1953, 1091.00
1954, 1090.00
1955, 1089.00
1956, 1091.00
1957, 1092.00
1958, 1092.00
1959, 1092.00
1960, 1090.00
1961, 1091.00
1962, 1091.00
1963, 1092.00
1964, 1093.00
1965, 1093.00
1966, 1093.00
1967, 1094.00
1968, 1095.00
1969, 1094.00
1970, 1093.00
1971, 1095.00
1972, 1095.00
1973, 1098.00
1974, 1093.00
1975, 1096.00
1976, 1097.00
1977, 1098.00
1978, 1098.00
1979, 1096.00
1980, 1096.00
1981, 1096.00
1982, 1098.00
1983, 1098.00
1984, 1098.00
1985, 1097.00
1986, 1097.00
1987, 1100.00
1988, 1100.00
1989, 1100.00
1990, 1099.00
1991, 1100.00
1992, 1101.00
1993, 1100.00
1994, 1099.00
1995, 1099.00
1996, 1101.00
1997, 1102.00
1998, 1102.00
1999, 1102.00
2000, 1101.00
2001, 1104.00
2002, 1102.00
2003, 1104.00
2004, 1104.00
2005, 1104.00
2006, 1102.00
2007, 1104.00
2008, 1104.00
2009, 1105.00
2010, 1105.00
2011, 1107.00
2012, 1105.00
2013, 1106.00
2014, 1105.00
2015, 1105.00
2016, 1107.00
2017, 1107.00
2018, 1107.00
2019, 1107.00
2020, 1108.00
2021, 1108.00
2022, 1108.00
2023, 1107.00
2024, 1108.00
2025, 1110.00
2026, 1111.00
2027, 1109.00
2028, 1109.00
2029, 1110.00
2030, 1110.00
2031, 1112.00
2032, 1112.00
2033, 1111.00
2034, 1111.00
2035, 1112.00
2036, 1114.00
2037, 1114.00
2038, 1113.00
2039, 1113.00
2040, 1112.00
2041, 1113.00
2042, 1114.00
2043, 1114.00
2044, 1116.00
2045, 1116.00
2046, 1116.00
2047, 1117.00
2048, 1116.00
2049, 1116.00
2050, 1118.00
2051, 1119.00
2052, 1117.00
2053, 1119.00
2054, 1120.00
2055, 1119.00
2056, 1119.00
2057, 1120.00
2058, 1121.00
2059, 1122.00
2060, 1121.00
2061, 1120.00
2062, 1122.00
2063, 1124.00
2064, 1123.00
2065, 1123.00
2066, 1124.00
2067, 1124.00
2068, 1126.00
2069, 1125.00
2070, 1126.00
2071, 1126.00
2072, 1128.00
2073, 1128.00
2074, 1127.00
2075, 1128.00
2076, 1128.00
2077, 1129.00
2078, 1129.00
2079, 1130.00
2080, 1130.00
2081, 1130.00
2082, 1132.00
2083, 1131.00
2084, 1133.00
2085, 1132.00
2086, 1131.00
2087, 1133.00
2088, 1132.00
2089, 1134.00
2090, 1134.00
2091, 1134.00
2092, 1134.00
2093, 1136.00
2094, 1135.00
2095, 1134.00
2096, 1137.00
2097, 1137.00
2098, 1137.00
2099, 1138.00
2100, 1137.00
2101, 1138.00
2102, 1137.00
2103, 1138.00
2104, 1137.00
2105, 1138.00
2106, 1137.00
2107, 1138.00
2108, 1138.00
2109, 1140.00
2110, 1141.00
2111, 1139.00
2112, 1140.00
2113, 1140.00
2114, 1139.00
2115, 1141.00
2116, 1139.00
2117, 1141.00
2118, 1140.00
2119, 1141.00
2120, 1140.00
2121, 1143.00
2122, 1142.00
2123, 1142.00
2124, 1142.00
2125, 1143.00
2126, 1141.00
2127, 1141.00
2128, 1142.00
2129, 1143.00
2130, 1143.00
2131, 1144.00
2132, 1144.00
2133, 1143.00
2134, 1145.00
2135, 1144.00
2136, 1144.00
2137, 1143.00
2138, 1145.00
2139, 1145.00
2140, 1145.00
2141, 1144.00
2142, 1145.00
2143, 1145.00
2144, 1145.00
2145, 1145.00
2146, 1146.00
2147, 1147.00
2148, 1147.00
2149, 1146.00
2150, 1145.00
