FW version: 24
Log Version: 3.0.3

General Info:
       Command/Macro Performed,            Timestamp,             Device ID, COM Port, UART/I2C, Test Name, Host Major, Host Minor, Host Revision, Host Git Commit
            Single_measurement,  2023_06_29_10_45_13,       Insight2_F4_xxx,    USB-C,      USB,          ,          0,          1,             1,      4031237645

Show Spectrometer Status:
l0_version, f4_version, battery_perc, battery_mVolt, accelerometer_temp, accelerometer_x, accelerometer_y, accelerometer_z, compass_temp, compass_x, compass_y, compass_z, lamp_0, lamp_1, gain_0, gain_1
        17,         24,           92,          2060,               5856,           65456,             116,           18428,            0,     65528,     65407,     65534,   3276,   3276,      1,      1

Temperature Statistic Info:
NTC AVG [°C], NTC2 AVG [°C]
      37.783,        37.439

Statistic Info:
M1:  num,      min,      max,   median,      AVG,      STD,M2:  num,      min,      max,   median,      AVG,      STD
     301,  1816.00,  2077.00,  1870.00,  1902.68,  81.0737,     401,  2404.00,  2560.00,  2466.00,  2471.38,  50.8571,

Measurements:
Wavelength, Data Amplitude
1350, 1865.00
1351, 1864.00
1352, 1862.00
1353, 1862.00
1354, 1862.00
1355, 1862.00
1356, 1860.00
1357, 1858.00
1358, 1858.00
1359, 1857.00
1360, 1857.00
1361, 1854.00
1362, 1854.00
1363, 1852.00
1364, 1851.00
1365, 1851.00
1366, 1849.00
1367, 1848.00
1368, 1846.00
1369, 1844.00
1370, 1843.00
1371, 1842.00
1372, 1841.00
1373, 1840.00
1374, 1839.00
1375, 1837.00
1376, 1837.00
1377, 1835.00
1378, 1834.00
1379, 1833.00
1380, 1833.00
1381, 1831.00
1382, 1830.00
1383, 1828.00
1384, 1828.00
1385, 1827.00
1386, 1828.00
1387, 1826.00
1388, 1826.00
1389, 1824.00
1390, 1825.00
1391, 1824.00
1392, 1825.00
1393, 1824.00
1394, 1823.00
1395, 1823.00
1396, 1822.00
1397, 1822.00
1398, 1822.00
1399, 1821.00
1400, 1821.00
1401, 1819.00
1402, 1821.00
1403, 1820.00
1404, 1820.00
1405, 1819.00
1406, 1820.00
1407, 1819.00
1408, 1819.00
1409, 1818.00
1410, 1818.00
1411, 1817.00
1412, 1819.00
1413, 1818.00
1414, 1818.00
1415, 1817.00
1416, 1817.00
1417, 1817.00
1418, 1817.00
1419, 1817.00
1420, 1818.00
1421, 1816.00
1422, 1817.00
1423, 1818.00
1424, 1818.00
1425, 1818.00
1426, 1818.00
1427, 1818.00
1428, 1817.00
1429, 1819.00
1430, 1819.00
1431, 1819.00
1432, 1819.00
1433, 1819.00
1434, 1821.00
1435, 1818.00
1436, 1820.00
1437, 1821.00
1438, 1821.00
1439, 1822.00
1440, 1822.00
1441, 1823.00
1442, 1823.00
1443, 1823.00
1444, 1825.00
1445, 1824.00
1446, 1824.00
1447, 1825.00
1448, 1825.00
1449, 1826.00
1450, 1827.00
1451, 1828.00
1452, 1828.00
1453, 1828.00
1454, 1830.00
1455, 1830.00
1456, 1830.00
1457, 1830.00
1458, 1831.00
1459, 1832.00
1460, 1832.00
1461, 1832.00
1462, 1833.00
1463, 1835.00
1464, 1835.00
1465, 1836.00
1466, 1837.00
1467, 1838.00
1468, 1837.00
1469, 1839.00
1470, 1839.00
1471, 1841.00
1472, 1841.00
1473, 1843.00
1474, 1843.00
1475, 1844.00
1476, 1845.00
1477, 1845.00
1478, 1847.00
1479, 1848.00
1480, 1850.00
1481, 1849.00
1482, 1852.00
1483, 1852.00
1484, 1854.00
1485, 1855.00
1486, 1855.00
1487, 1857.00
1488, 1859.00
1489, 1859.00
1490, 1859.00
1491, 1860.00
1492, 1862.00
1493, 1862.00
1494, 1863.00
1495, 1864.00
1496, 1866.00
1497, 1867.00
1498, 1868.00
1499, 1869.00
1500, 1871.00
1501, 1870.00
1502, 1872.00
1503, 1874.00
1504, 1876.00
1505, 1876.00
1506, 1877.00
1507, 1878.00
1508, 1880.00
1509, 1880.00
1510, 1882.00
1511, 1882.00
1512, 1885.00
1513, 1885.00
1514, 1886.00
1515, 1887.00
1516, 1888.00
1517, 1888.00
1518, 1891.00
1519, 1892.00
1520, 1893.00
1521, 1895.00
1522, 1897.00
1523, 1896.00
1524, 1898.00
1525, 1900.00
1526, 1901.00
1527, 1901.00
1528, 1905.00
1529, 1905.00
1530, 1907.00
1531, 1907.00
1532, 1909.00
1533, 1909.00
1534, 1911.00
1535, 1913.00
1536, 1914.00
1537, 1916.00
1538, 1917.00
1539, 1918.00
1540, 1919.00
1541, 1921.00
1542, 1921.00
1543, 1923.00
1544, 1924.00
1545, 1926.00
1546, 1927.00
1547, 1928.00
1548, 1929.00
1549, 1931.00
1550, 1933.00
1551, 1933.00
1552, 1935.00
1553, 1936.00
1554, 1938.00
1555, 1939.00
1556, 1940.00
1557, 1942.00
1558, 1945.00
1559, 1946.00
1560, 1947.00
1561, 1948.00
1562, 1950.00
1563, 1951.00
1564, 1952.00
1565, 1954.00
1566, 1956.00
1567, 1957.00
1568, 1959.00
1569, 1960.00
1570, 1963.00
1571, 1964.00
1572, 1965.00
1573, 1966.00
1574, 1968.00
1575, 1969.00
1576, 1971.00
1577, 1972.00
1578, 1974.00
1579, 1976.00
1580, 1977.00
1581, 1977.00
1582, 1978.00
1583, 1980.00
1584, 1980.00
1585, 1982.00
1586, 1985.00
1587, 1986.00
1588, 1985.00
1589, 1987.00
1590, 1989.00
1591, 1990.00
1592, 1991.00
1593, 1994.00
1594, 1993.00
1595, 1996.00
1596, 1996.00
1597, 1997.00
1598, 1999.00
1599, 2001.00
1600, 2003.00
1601, 2005.00
1602, 2005.00
1603, 2006.00
1604, 2007.00
1605, 2010.00
1606, 2011.00
1607, 2012.00
1608, 2014.00
1609, 2015.00
1610, 2017.00
1611, 2019.00
1612, 2021.00
1613, 2022.00
1614, 2023.00
1615, 2026.00
1616, 2027.00
1617, 2028.00
1618, 2030.00
1619, 2031.00
1620, 2033.00
1621, 2035.00
1622, 2036.00
1623, 2039.00
1624, 2039.00
1625, 2042.00
1626, 2043.00
1627, 2045.00
1628, 2047.00
1629, 2049.00
1630, 2051.00
1631, 2052.00
1632, 2054.00
1633, 2055.00
1634, 2057.00
1635, 2058.00
1636, 2059.00
1637, 2062.00
1638, 2061.00
1639, 2062.00
1640, 2065.00
1641, 2066.00
1642, 2068.00
1643, 2068.00
1644, 2070.00
1645, 2071.00
1646, 2072.00
1647, 2073.00
1648, 2074.00
1649, 2077.00
1650, 2077.00

1750, 2560.00
1751, 2560.00
1752, 2558.00
1753, 2558.00
1754, 2559.00
1755, 2557.00
1756, 2557.00
1757, 2560.00
1758, 2559.00
1759, 2559.00
1760, 2559.00
1761, 2559.00
1762, 2558.00
1763, 2557.00
1764, 2558.00
1765, 2558.00
1766, 2556.00
1767, 2559.00
1768, 2555.00
1769, 2556.00
1770, 2556.00
1771, 2556.00
1772, 2555.00
1773, 2556.00
1774, 2555.00
1775, 2556.00
1776, 2555.00
1777, 2553.00
1778, 2554.00
1779, 2553.00
1780, 2551.00
1781, 2551.00
1782, 2551.00
1783, 2551.00
1784, 2551.00
1785, 2550.00
1786, 2549.00
1787, 2549.00
1788, 2548.00
1789, 2547.00
1790, 2545.00
1791, 2547.00
1792, 2545.00
1793, 2545.00
1794, 2543.00
1795, 2543.00
1796, 2543.00
1797, 2542.00
1798, 2542.00
1799, 2543.00
1800, 2540.00
1801, 2540.00
1802, 2540.00
1803, 2540.00
1804, 2539.00
1805, 2539.00
1806, 2539.00
1807, 2539.00
1808, 2536.00
1809, 2537.00
1810, 2536.00
1811, 2535.00
1812, 2536.00
1813, 2533.00
1814, 2534.00
1815, 2532.00
1816, 2529.00
1817, 2532.00
1818, 2531.00
1819, 2530.00
1820, 2530.00
1821, 2528.00
1822, 2525.00
1823, 2526.00
1824, 2525.00
1825, 2524.00
1826, 2522.00
1827, 2522.00
1828, 2519.00
1829, 2516.00
1830, 2518.00
1831, 2515.00
1832, 2513.00
1833, 2509.00
1834, 2509.00
1835, 2507.00
1836, 2505.00
1837, 2505.00
1838, 2502.00
1839, 2499.00
1840, 2498.00
1841, 2497.00
1842, 2495.00
1843, 2492.00
1844, 2489.00
1845, 2487.00
1846, 2485.00
1847, 2484.00
1848, 2480.00
1849, 2477.00
1850, 2475.00
1851, 2473.00
1852, 2471.00
1853, 2468.00
1854, 2464.00
1855, 2463.00
1856, 2459.00
1857, 2460.00
1858, 2457.00
1859, 2451.00
1860, 2451.00
1861, 2451.00
1862, 2447.00
1863, 2446.00
1864, 2444.00
1865, 2441.00
1866, 2440.00
1867, 2437.00
1868, 2437.00
1869, 2436.00
1870, 2434.00
1871, 2433.00
1872, 2431.00
1873, 2431.00
1874, 2430.00
1875, 2428.00
1876, 2429.00
1877, 2426.00
1878, 2424.00
1879, 2422.00
1880, 2424.00
1881, 2422.00
1882, 2422.00
1883, 2418.00
1884, 2420.00
1885, 2417.00
1886, 2418.00
1887, 2417.00
1888, 2415.00
1889, 2417.00
1890, 2416.00
1891, 2415.00
1892, 2414.00
1893, 2414.00
1894, 2414.00
1895, 2413.00
1896, 2413.00
1897, 2411.00
1898, 2410.00
1899, 2411.00
1900, 2411.00
1901, 2411.00
1902, 2411.00
1903, 2409.00
1904, 2409.00
1905, 2409.00
1906, 2409.00
1907, 2408.00
1908, 2408.00
1909, 2408.00
1910, 2407.00
1911, 2407.00
1912, 2407.00
1913, 2404.00
1914, 2405.00
1915, 2407.00
1916, 2407.00
1917, 2405.00
1918, 2405.00
1919, 2405.00
1920, 2407.00
1921, 2405.00
1922, 2405.00
1923, 2405.00
1924, 2405.00
1925, 2405.00
1926, 2405.00
1927, 2405.00
1928, 2404.00
1929, 2405.00
1930, 2406.00
1931, 2404.00
1932, 2405.00
1933, 2407.00
1934, 2406.00
1935, 2406.00
1936, 2405.00
1937, 2406.00
1938, 2404.00
1939, 2407.00
1940, 2405.00
1941, 2406.00
1942, 2406.00
1943, 2407.00
1944, 2404.00
1945, 2407.00
1946, 2408.00
1947, 2407.00
1948, 2408.00
1949, 2407.00
1950, 2408.00
1951, 2410.00
1952, 2409.00
1953, 2410.00
1954, 2409.00
1955, 2409.00
1956, 2411.00
1957, 2410.00
1958, 2411.00
1959, 2411.00
1960, 2411.00
1961, 2412.00
1962, 2413.00
1963, 2412.00
1964, 2414.00
1965, 2413.00
1966, 2414.00
1967, 2416.00
1968, 2415.00
1969, 2416.00
1970, 2415.00
1971, 2418.00
1972, 2417.00
1973, 2419.00
1974, 2418.00
1975, 2419.00
1976, 2418.00
1977, 2419.00
1978, 2419.00
1979, 2421.00
1980, 2422.00
1981, 2422.00
1982, 2422.00
1983, 2423.00
1984, 2423.00
1985, 2425.00
1986, 2424.00
1987, 2427.00
1988, 2425.00
1989, 2426.00
1990, 2427.00
1991, 2429.00
1992, 2429.00
1993, 2429.00
1994, 2428.00
1995, 2428.00
1996, 2431.00
1997, 2431.00
1998, 2431.00
1999, 2430.00
2000, 2431.00
2001, 2432.00
2002, 2433.00
2003, 2435.00
2004, 2435.00
2005, 2433.00
2006, 2436.00
2007, 2434.00
2008, 2436.00
2009, 2438.00
2010, 2435.00
2011, 2436.00
2012, 2439.00
2013, 2438.00
2014, 2439.00
2015, 2439.00
2016, 2440.00
2017, 2439.00
2018, 2441.00
2019, 2443.00
2020, 2443.00
2021, 2443.00
2022, 2443.00
2023, 2445.00
2024, 2444.00
2025, 2444.00
2026, 2446.00
2027, 2447.00
2028, 2447.00
2029, 2449.00
2030, 2447.00
2031, 2449.00
2032, 2447.00
2033, 2448.00
2034, 2451.00
2035, 2452.00
2036, 2453.00
2037, 2453.00
2038, 2453.00
2039, 2454.00
2040, 2456.00
2041, 2456.00
2042, 2456.00
2043, 2458.00
2044, 2459.00
2045, 2459.00
2046, 2461.00
2047, 2461.00
2048, 2461.00
2049, 2463.00
2050, 2463.00
2051, 2464.00
2052, 2465.00
2053, 2464.00
2054, 2466.00
2055, 2467.00
2056, 2470.00
2057, 2468.00
2058, 2471.00
2059, 2470.00
2060, 2472.00
2061, 2473.00
2062, 2474.00
2063, 2474.00
2064, 2475.00
2065, 2476.00
2066, 2475.00
2067, 2477.00
2068, 2480.00
2069, 2481.00
2070, 2478.00
2071, 2480.00
2072, 2483.00
2073, 2482.00
2074, 2484.00
2075, 2484.00
2076, 2485.00
2077, 2485.00
2078, 2488.00
2079, 2487.00
2080, 2489.00
2081, 2489.00
2082, 2490.00
2083, 2490.00
2084, 2489.00
2085, 2492.00
2086, 2492.00
2087, 2494.00
2088, 2496.00
2089, 2496.00
2090, 2495.00
2091, 2496.00
2092, 2496.00
2093, 2497.00
2094, 2497.00
2095, 2499.00
2096, 2499.00
2097, 2499.00
2098, 2501.00
2099, 2501.00
2100, 2501.00
2101, 2500.00
2102, 2504.00
2103, 2503.00
2104, 2505.00
2105, 2504.00
2106, 2504.00
2107, 2504.00
2108, 2506.00
2109, 2504.00
2110, 2506.00
2111, 2506.00
2112, 2507.00
2113, 2508.00
2114, 2506.00
2115, 2508.00
2116, 2507.00
2117, 2508.00
2118, 2507.00
2119, 2509.00
2120, 2510.00
2121, 2509.00
2122, 2510.00
2123, 2511.00
2124, 2512.00
2125, 2510.00
2126, 2513.00
2127, 2512.00
2128, 2513.00
2129, 2513.00
2130, 2513.00
2131, 2514.00
2132, 2513.00
2133, 2515.00
2134, 2515.00
2135, 2515.00
2136, 2515.00
2137, 2515.00
2138, 2515.00
2139, 2518.00
2140, 2517.00
2141, 2516.00
2142, 2517.00
2143, 2517.00
2144, 2518.00
2145, 2516.00
2146, 2520.00
2147, 2517.00
2148, 2520.00
2149, 2518.00
2150, 2520.00
