FW version: 24
Log Version: 3.0.3

General Info:
       Command/Macro Performed,            Timestamp,             Device ID, COM Port, UART/I2C, Test Name, Host Major, Host Minor, Host Revision, Host Git Commit
            Single_measurement,  2023_06_29_10_45_17,       Insight2_F4_xxx,    USB-C,      USB,          ,          0,          1,             1,      4031237645

Show Spectrometer Status:
l0_version, f4_version, battery_perc, battery_mVolt, accelerometer_temp, accelerometer_x, accelerometer_y, accelerometer_z, compass_temp, compass_x, compass_y, compass_z, lamp_0, lamp_1, gain_0, gain_1
        17,         24,           92,          2060,               5872,           65472,             124,           18396,            0,     65528,     65405,     65535,   3276,   3276,      1,      1

Temperature Statistic Info:
NTC AVG [°C], NTC2 AVG [°C]
      37.840,        37.526

Statistic Info:
M1:  num,      min,      max,   median,      AVG,      STD,M2:  num,      min,      max,   median,      AVG,      STD
     301,  1817.00,  2077.00,  1871.00,  1902.22,  80.9093,     401,  2403.00,  2560.00,  2466.00,  2470.90,  50.7855,

Measurements:
Wavelength, Data Amplitude
1350, 1864.00
1351, 1864.00
1352, 1863.00
1353, 1862.00
1354, 1861.00
1355, 1860.00
1356, 1859.00
1357, 1858.00
1358, 1858.00
1359, 1856.00
1360, 1855.00
1361, 1854.00
1362, 1854.00
1363, 1851.00
1364, 1851.00
1365, 1849.00
1366, 1847.00
1367, 1848.00
1368, 1846.00
1369, 1844.00
1370, 1843.00
1371, 1843.00
1372, 1840.00
1373, 1839.00
1374, 1838.00
1375, 1838.00
1376, 1837.00
1377, 1835.00
1378, 1834.00
1379, 1833.00
1380, 1832.00
1381, 1831.00
1382, 1829.00
1383, 1829.00
1384, 1829.00
1385, 1827.00
1386, 1827.00
1387, 1826.00
1388, 1826.00
1389, 1826.00
1390, 1825.00
1391, 1823.00
1392, 1824.00
1393, 1823.00
1394, 1823.00
1395, 1821.00
1396, 1822.00
1397, 1821.00
1398, 1821.00
1399, 1821.00
1400, 1821.00
1401, 1819.00
1402, 1821.00
1403, 1820.00
1404, 1819.00
1405, 1819.00
1406, 1819.00
1407, 1819.00
1408, 1819.00
1409, 1819.00
1410, 1818.00
1411, 1819.00
1412, 1818.00
1413, 1818.00
1414, 1818.00
1415, 1817.00
1416, 1817.00
1417, 1818.00
1418, 1817.00
1419, 1818.00
1420, 1817.00
1421, 1817.00
1422, 1817.00
1423, 1817.00
1424, 1817.00
1425, 1818.00
1426, 1818.00
1427, 1817.00
1428, 1818.00
1429, 1818.00
1430, 1818.00
1431, 1819.00
1432, 1819.00
1433, 1818.00
1434, 1821.00
1435, 1819.00
1436, 1820.00
1437, 1821.00
1438, 1820.00
1439, 1821.00
1440, 1822.00
1441, 1822.00
1442, 1821.00
1443, 1823.00
1444, 1823.00
1445, 1823.00
1446, 1825.00
1447, 1825.00
1448, 1826.00
1449, 1826.00
1450, 1825.00
1451, 1827.00
1452, 1827.00
1453, 1828.00
1454, 1829.00
1455, 1829.00
1456, 1829.00
1457, 1830.00
1458, 1830.00
1459, 1832.00
1460, 1832.00
1461, 1833.00
1462, 1833.00
1463, 1834.00
1464, 1835.00
1465, 1835.00
1466, 1837.00
1467, 1837.00
1468, 1838.00
1469, 1839.00
1470, 1840.00
1471, 1841.00
1472, 1842.00
1473, 1842.00
1474, 1843.00
1475, 1844.00
1476, 1845.00
1477, 1846.00
1478, 1847.00
1479, 1848.00
1480, 1849.00
1481, 1850.00
1482, 1851.00
1483, 1851.00
1484, 1853.00
1485, 1854.00
1486, 1855.00
1487, 1855.00
1488, 1856.00
1489, 1859.00
1490, 1859.00
1491, 1860.00
1492, 1861.00
1493, 1862.00
1494, 1863.00
1495, 1864.00
1496, 1866.00
1497, 1867.00
1498, 1868.00
1499, 1869.00
1500, 1871.00
1501, 1871.00
1502, 1872.00
1503, 1874.00
1504, 1874.00
1505, 1876.00
1506, 1876.00
1507, 1877.00
1508, 1879.00
1509, 1878.00
1510, 1881.00
1511, 1882.00
1512, 1883.00
1513, 1886.00
1514, 1886.00
1515, 1887.00
1516, 1888.00
1517, 1889.00
1518, 1890.00
1519, 1890.00
1520, 1894.00
1521, 1893.00
1522, 1896.00
1523, 1897.00
1524, 1899.00
1525, 1898.00
1526, 1901.00
1527, 1902.00
1528, 1903.00
1529, 1905.00
1530, 1905.00
1531, 1907.00
1532, 1909.00
1533, 1910.00
1534, 1911.00
1535, 1912.00
1536, 1914.00
1537, 1915.00
1538, 1917.00
1539, 1917.00
1540, 1919.00
1541, 1920.00
1542, 1921.00
1543, 1922.00
1544, 1923.00
1545, 1925.00
1546, 1926.00
1547, 1926.00
1548, 1930.00
1549, 1931.00
1550, 1931.00
1551, 1934.00
1552, 1934.00
1553, 1935.00
1554, 1937.00
1555, 1939.00
1556, 1940.00
1557, 1941.00
1558, 1943.00
1559, 1945.00
1560, 1947.00
1561, 1948.00
1562, 1948.00
1563, 1950.00
1564, 1951.00
1565, 1955.00
1566, 1956.00
1567, 1956.00
1568, 1957.00
1569, 1961.00
1570, 1962.00
1571, 1962.00
1572, 1963.00
1573, 1966.00
1574, 1967.00
1575, 1967.00
1576, 1970.00
1577, 1970.00
1578, 1972.00
1579, 1974.00
1580, 1976.00
1581, 1976.00
1582, 1978.00
1583, 1980.00
1584, 1981.00
1585, 1982.00
1586, 1982.00
1587, 1984.00
1588, 1985.00
1589, 1988.00
1590, 1989.00
1591, 1990.00
1592, 1989.00
1593, 1993.00
1594, 1993.00
1595, 1995.00
1596, 1996.00
1597, 1998.00
1598, 1999.00
1599, 2000.00
1600, 2000.00
1601, 2002.00
1602, 2005.00
1603, 2005.00
1604, 2008.00
1605, 2009.00
1606, 2010.00
1607, 2012.00
1608, 2013.00
1609, 2015.00
1610, 2016.00
1611, 2019.00
1612, 2020.00
1613, 2022.00
1614, 2023.00
1615, 2024.00
1616, 2026.00
1617, 2027.00
1618, 2029.00
1619, 2031.00
1620, 2033.00
1621, 2034.00
1622, 2038.00
1623, 2037.00
1624, 2038.00
1625, 2042.00
1626, 2042.00
1627, 2045.00
1628, 2046.00
1629, 2047.00
1630, 2050.00
1631, 2052.00
1632, 2052.00
1633, 2054.00
1634, 2056.00
1635, 2058.00
1636, 2059.00
1637, 2060.00
1638, 2061.00
1639, 2062.00
1640, 2063.00
1641, 2065.00
1642, 2067.00
1643, 2068.00
1644, 2069.00
1645, 2071.00
1646, 2072.00
1647, 2073.00
1648, 2075.00
1649, 2076.00
1650, 2077.00

1750, 2558.00
1751, 2559.00
1752, 2558.00
1753, 2558.00
1754, 2560.00
1755, 2559.00
1756, 2557.00
1757, 2558.00
1758, 2557.00
1759, 2557.00
1760, 2558.00
1761, 2557.00
1762, 2556.00
1763, 2556.00
1764, 2556.00
1765, 2556.00
1766, 2559.00
1767, 2555.00
1768, 2557.00
1769, 2556.00
1770, 2555.00
1771, 2555.00
1772, 2555.00
1773, 2555.00
1774, 2553.00
1775, 2553.00
1776, 2554.00
1777, 2553.00
1778, 2551.00
1779, 2553.00
1780, 2552.00
1781, 2551.00
1782, 2549.00
1783, 2549.00
1784, 2549.00
1785, 2549.00
1786, 2549.00
1787, 2548.00
1788, 2546.00
1789, 2548.00
1790, 2547.00
1791, 2545.00
1792, 2545.00
1793, 2546.00
1794, 2545.00
1795, 2544.00
1796, 2544.00
1797, 2542.00
1798, 2541.00
1799, 2541.00
1800, 2540.00
1801, 2539.00
1802, 2539.00
1803, 2540.00
1804, 2539.00
1805, 2538.00
1806, 2537.00
1807, 2537.00
1808, 2538.00
1809, 2537.00
1810, 2535.00
1811, 2535.00
1812, 2534.00
1813, 2533.00
1814, 2535.00
1815, 2533.00
1816, 2533.00
1817, 2531.00
1818, 2530.00
1819, 2529.00
1820, 2528.00
1821, 2529.00
1822, 2524.00
1823, 2527.00
1824, 2523.00
1825, 2523.00
1826, 2522.00
1827, 2521.00
1828, 2519.00
1829, 2517.00
1830, 2517.00
1831, 2514.00
1832, 2513.00
1833, 2512.00
1834, 2510.00
1835, 2508.00
1836, 2505.00
1837, 2503.00
1838, 2502.00
1839, 2501.00
1840, 2498.00
1841, 2494.00
1842, 2493.00
1843, 2490.00
1844, 2489.00
1845, 2484.00
1846, 2485.00
1847, 2483.00
1848, 2481.00
1849, 2475.00
1850, 2474.00
1851, 2471.00
1852, 2470.00
1853, 2467.00
1854, 2465.00
1855, 2461.00
1856, 2461.00
1857, 2461.00
1858, 2455.00
1859, 2454.00
1860, 2451.00
1861, 2449.00
1862, 2447.00
1863, 2445.00
1864, 2445.00
1865, 2440.00
1866, 2440.00
1867, 2435.00
1868, 2437.00
1869, 2433.00
1870, 2432.00
1871, 2432.00
1872, 2430.00
1873, 2430.00
1874, 2429.00
1875, 2427.00
1876, 2424.00
1877, 2425.00
1878, 2422.00
1879, 2423.00
1880, 2422.00
1881, 2419.00
1882, 2421.00
1883, 2419.00
1884, 2418.00
1885, 2418.00
1886, 2416.00
1887, 2417.00
1888, 2416.00
1889, 2415.00
1890, 2414.00
1891, 2414.00
1892, 2414.00
1893, 2413.00
1894, 2413.00
1895, 2413.00
1896, 2412.00
1897, 2412.00
1898, 2412.00
1899, 2411.00
1900, 2412.00
1901, 2410.00
1902, 2409.00
1903, 2409.00
1904, 2408.00
1905, 2408.00
1906, 2409.00
1907, 2408.00
1908, 2408.00
1909, 2407.00
1910, 2408.00
1911, 2407.00
1912, 2407.00
1913, 2407.00
1914, 2406.00
1915, 2406.00
1916, 2406.00
1917, 2405.00
1918, 2405.00
1919, 2406.00
1920, 2404.00
1921, 2405.00
1922, 2405.00
1923, 2405.00
1924, 2404.00
1925, 2404.00
1926, 2405.00
1927, 2407.00
1928, 2406.00
1929, 2404.00
1930, 2403.00
1931, 2405.00
1932, 2406.00
1933, 2405.00
1934, 2404.00
1935, 2406.00
1936, 2404.00
1937, 2406.00
1938, 2404.00
1939, 2406.00
1940, 2406.00
1941, 2405.00
1942, 2405.00
1943, 2404.00
1944, 2407.00
1945, 2407.00
1946, 2407.00
1947, 2407.00
1948, 2410.00
1949, 2407.00
1950, 2409.00
1951, 2410.00
1952, 2410.00
1953, 2409.00
1954, 2409.00
1955, 2408.00
1956, 2412.00
1957, 2410.00
1958, 2410.00
1959, 2411.00
1960, 2411.00
1961, 2412.00
1962, 2413.00
1963, 2411.00
1964, 2414.00
1965, 2413.00
1966, 2414.00
1967, 2414.00
1968, 2414.00
1969, 2415.00
1970, 2415.00
1971, 2415.00
1972, 2419.00
1973, 2417.00
1974, 2417.00
1975, 2419.00
1976, 2418.00
1977, 2418.00
1978, 2420.00
1979, 2422.00
1980, 2420.00
1981, 2421.00
1982, 2421.00
1983, 2425.00
1984, 2423.00
1985, 2424.00
1986, 2423.00
1987, 2426.00
1988, 2426.00
1989, 2426.00
1990, 2427.00
1991, 2425.00
1992, 2426.00
1993, 2426.00
1994, 2429.00
1995, 2428.00
1996, 2429.00
1997, 2429.00
1998, 2431.00
1999, 2431.00
2000, 2430.00
2001, 2431.00
2002, 2431.00
2003, 2432.00
2004, 2435.00
2005, 2435.00
2006, 2434.00
2007, 2435.00
2008, 2437.00
2009, 2437.00
2010, 2436.00
2011, 2438.00
2012, 2438.00
2013, 2439.00
2014, 2437.00
2015, 2439.00
2016, 2441.00
2017, 2439.00
2018, 2442.00
2019, 2442.00
2020, 2441.00
2021, 2443.00
2022, 2444.00
2023, 2445.00
2024, 2445.00
2025, 2445.00
2026, 2444.00
2027, 2447.00
2028, 2447.00
2029, 2446.00
2030, 2448.00
2031, 2448.00
2032, 2452.00
2033, 2450.00
2034, 2450.00
2035, 2452.00
2036, 2453.00
2037, 2452.00
2038, 2454.00
2039, 2453.00
2040, 2456.00
2041, 2456.00
2042, 2455.00
2043, 2456.00
2044, 2459.00
2045, 2458.00
2046, 2459.00
2047, 2459.00
2048, 2460.00
2049, 2461.00
2050, 2462.00
2051, 2464.00
2052, 2464.00
2053, 2466.00
2054, 2465.00
2055, 2467.00
2056, 2466.00
2057, 2469.00
2058, 2470.00
2059, 2470.00
2060, 2470.00
2061, 2472.00
2062, 2474.00
2063, 2474.00
2064, 2475.00
2065, 2475.00
2066, 2477.00
2067, 2478.00
2068, 2476.00
2069, 2478.00
2070, 2479.00
2071, 2481.00
2072, 2482.00
2073, 2482.00
2074, 2484.00
2075, 2484.00
2076, 2486.00
2077, 2485.00
2078, 2485.00
2079, 2487.00
2080, 2488.00
2081, 2488.00
2082, 2490.00
2083, 2489.00
2084, 2492.00
2085, 2493.00
2086, 2493.00
2087, 2493.00
2088, 2491.00
2089, 2494.00
2090, 2495.00
2091, 2494.00
2092, 2495.00
2093, 2498.00
2094, 2498.00
2095, 2500.00
2096, 2499.00
2097, 2499.00
2098, 2501.00
2099, 2499.00
2100, 2500.00
2101, 2500.00
2102, 2501.00
2103, 2503.00
2104, 2503.00
2105, 2504.00
2106, 2503.00
2107, 2505.00
2108, 2504.00
2109, 2504.00
2110, 2506.00
2111, 2505.00
2112, 2505.00
2113, 2506.00
2114, 2506.00
2115, 2506.00
2116, 2507.00
2117, 2511.00
2118, 2508.00
2119, 2507.00
2120, 2511.00
2121, 2510.00
2122, 2510.00
2123, 2510.00
2124, 2510.00
2125, 2512.00
2126, 2511.00
2127, 2509.00
2128, 2512.00
2129, 2513.00
2130, 2512.00
2131, 2511.00
2132, 2512.00
2133, 2515.00
2134, 2513.00
2135, 2516.00
2136, 2515.00
2137, 2515.00
2138, 2516.00
2139, 2515.00
2140, 2515.00
2141, 2517.00
2142, 2516.00
2143, 2516.00
2144, 2517.00
2145, 2518.00
2146, 2517.00
2147, 2517.00
2148, 2518.00
2149, 2520.00
2150, 2518.00
