FW version: 24
Log Version: 3.0.3

General Info:
       Command/Macro Performed,            Timestamp,             Device ID, COM Port, UART/I2C, Test Name, Host Major, Host Minor, Host Revision, Host Git Commit
            Single_measurement,  2023_06_29_10_44_19,       Insight2_F4_xxx,    USB-C,      USB,          ,          0,          1,             1,      4031237645

Show Spectrometer Status:
l0_version, f4_version, battery_perc, battery_mVolt, accelerometer_temp, accelerometer_x, accelerometer_y, accelerometer_z, compass_temp, compass_x, compass_y, compass_z, lamp_0, lamp_1, gain_0, gain_1
        17,         24,           92,          2066,               5808,           65480,              76,           18484,            0,     65480,     65407,     65535,   2047,   2047,      1,      1

Temperature Statistic Info:
NTC AVG [°C], NTC2 AVG [°C]
      37.382,        37.063

Statistic Info:
M1:  num,      min,      max,   median,      AVG,      STD,M2:  num,      min,      max,   median,      AVG,      STD
     301,   723.00,   838.00,   749.00,   762.20,  36.0113,     401,  1087.00,  1159.00,  1119.00,  1119.92,  23.5939,

Measurements:
Wavelength, Data Amplitude
1350, 740.00
1351, 740.00
1352, 740.00
1353, 740.00
1354, 739.00
1355, 739.00
1356, 739.00
1357, 738.00
1358, 738.00
1359, 738.00
1360, 737.00
1361, 736.00
1362, 737.00
1363, 736.00
1364, 736.00
1365, 735.00
1366, 735.00
1367, 734.00
1368, 734.00
1369, 734.00
1370, 733.00
1371, 732.00
1372, 733.00
1373, 731.00
1374, 732.00
1375, 731.00
1376, 731.00
1377, 729.00
1378, 728.00
1379, 729.00
1380, 729.00
1381, 727.00
1382, 728.00
1383, 728.00
1384, 728.00
1385, 727.00
1386, 727.00
1387, 727.00
1388, 726.00
1389, 726.00
1390, 726.00
1391, 726.00
1392, 726.00
1393, 726.00
1394, 725.00
1395, 725.00
1396, 725.00
1397, 725.00
1398, 725.00
1399, 724.00
1400, 725.00
1401, 725.00
1402, 725.00
1403, 725.00
1404, 725.00
1405, 726.00
1406, 725.00
1407, 724.00
1408, 723.00
1409, 725.00
1410, 724.00
1411, 724.00
1412, 725.00
1413, 724.00
1414, 724.00
1415, 725.00
1416, 724.00
1417, 724.00
1418, 724.00
1419, 724.00
1420, 725.00
1421, 724.00
1422, 725.00
1423, 725.00
1424, 725.00
1425, 725.00
1426, 725.00
1427, 725.00
1428, 725.00
1429, 726.00
1430, 725.00
1431, 726.00
1432, 726.00
1433, 726.00
1434, 726.00
1435, 726.00
1436, 726.00
1437, 726.00
1438, 726.00
1439, 727.00
1440, 727.00
1441, 727.00
1442, 727.00
1443, 728.00
1444, 727.00
1445, 728.00
1446, 729.00
1447, 728.00
1448, 729.00
1449, 729.00
1450, 730.00
1451, 728.00
1452, 730.00
1453, 730.00
1454, 730.00
1455, 730.00
1456, 732.00
1457, 731.00
1458, 731.00
1459, 730.00
1460, 732.00
1461, 732.00
1462, 732.00
1463, 732.00
1464, 733.00
1465, 734.00
1466, 733.00
1467, 735.00
1468, 734.00
1469, 735.00
1470, 735.00
1471, 736.00
1472, 737.00
1473, 736.00
1474, 737.00
1475, 737.00
1476, 738.00
1477, 738.00
1478, 738.00
1479, 739.00
1480, 740.00
1481, 740.00
1482, 741.00
1483, 741.00
1484, 741.00
1485, 742.00
1486, 742.00
1487, 744.00
1488, 743.00
1489, 744.00
1490, 744.00
1491, 745.00
1492, 744.00
1493, 746.00
1494, 746.00
1495, 746.00
1496, 747.00
1497, 748.00
1498, 749.00
1499, 749.00
1500, 750.00
1501, 749.00
1502, 750.00
1503, 751.00
1504, 751.00
1505, 751.00
1506, 752.00
1507, 753.00
1508, 754.00
1509, 754.00
1510, 755.00
1511, 755.00
1512, 756.00
1513, 756.00
1514, 757.00
1515, 757.00
1516, 757.00
1517, 759.00
1518, 759.00
1519, 760.00
1520, 760.00
1521, 761.00
1522, 761.00
1523, 762.00
1524, 763.00
1525, 763.00
1526, 763.00
1527, 764.00
1528, 765.00
1529, 765.00
1530, 765.00
1531, 767.00
1532, 767.00
1533, 768.00
1534, 768.00
1535, 769.00
1536, 769.00
1537, 770.00
1538, 770.00
1539, 772.00
1540, 771.00
1541, 773.00
1542, 773.00
1543, 773.00
1544, 773.00
1545, 774.00
1546, 775.00
1547, 776.00
1548, 776.00
1549, 776.00
1550, 777.00
1551, 778.00
1552, 779.00
1553, 779.00
1554, 779.00
1555, 779.00
1556, 780.00
1557, 781.00
1558, 781.00
1559, 782.00
1560, 783.00
1561, 783.00
1562, 784.00
1563, 785.00
1564, 785.00
1565, 786.00
1566, 786.00
1567, 788.00
1568, 788.00
1569, 787.00
1570, 789.00
1571, 789.00
1572, 790.00
1573, 791.00
1574, 791.00
1575, 792.00
1576, 793.00
1577, 793.00
1578, 793.00
1579, 794.00
1580, 795.00
1581, 795.00
1582, 796.00
1583, 796.00
1584, 797.00
1585, 798.00
1586, 799.00
1587, 799.00
1588, 800.00
1589, 800.00
1590, 800.00
1591, 801.00
1592, 802.00
1593, 802.00
1594, 803.00
1595, 803.00
1596, 804.00
1597, 805.00
1598, 805.00
1599, 806.00
1600, 806.00
1601, 807.00
1602, 807.00
1603, 809.00
1604, 808.00
1605, 809.00
1606, 810.00
1607, 812.00
1608, 811.00
1609, 812.00
1610, 813.00
1611, 814.00
1612, 813.00
1613, 816.00
1614, 815.00
1615, 816.00
1616, 818.00
1617, 817.00
1618, 818.00
1619, 819.00
1620, 820.00
1621, 821.00
1622, 822.00
1623, 822.00
1624, 823.00
1625, 824.00
1626, 824.00
1627, 826.00
1628, 826.00
1629, 827.00
1630, 826.00
1631, 827.00
1632, 828.00
1633, 829.00
1634, 830.00
1635, 829.00
1636, 831.00
1637, 832.00
1638, 831.00
1639, 832.00
1640, 833.00
1641, 833.00
1642, 834.00
1643, 833.00
1644, 835.00
1645, 835.00
1646, 835.00
1647, 837.00
1648, 836.00
1649, 837.00
1650, 838.00

1750, 1156.00
1751, 1159.00
1752, 1156.00
1753, 1158.00
1754, 1157.00
1755, 1156.00
1756, 1157.00
1757, 1156.00
1758, 1156.00
1759, 1158.00
1760, 1158.00
1761, 1157.00
1762, 1157.00
1763, 1157.00
1764, 1158.00
1765, 1158.00
1766, 1157.00
1767, 1156.00
1768, 1158.00
1769, 1155.00
1770, 1156.00
1771, 1157.00
1772, 1157.00
1773, 1155.00
1774, 1157.00
1775, 1157.00
1776, 1157.00
1777, 1154.00
1778, 1155.00
1779, 1156.00
1780, 1154.00
1781, 1154.00
1782, 1155.00
1783, 1154.00
1784, 1154.00
1785, 1155.00
1786, 1154.00
1787, 1154.00
1788, 1154.00
1789, 1154.00
1790, 1152.00
1791, 1152.00
1792, 1153.00
1793, 1153.00
1794, 1153.00
1795, 1152.00
1796, 1152.00
1797, 1150.00
1798, 1152.00
1799, 1152.00
1800, 1151.00
1801, 1150.00
1802, 1151.00
1803, 1149.00
1804, 1150.00
1805, 1150.00
1806, 1149.00
1807, 1149.00
1808, 1149.00
1809, 1149.00
1810, 1148.00
1811, 1148.00
1812, 1148.00
1813, 1149.00
1814, 1148.00
1815, 1148.00
1816, 1146.00
1817, 1147.00
1818, 1146.00
1819, 1146.00
1820, 1147.00
1821, 1144.00
1822, 1145.00
1823, 1143.00
1824, 1143.00
1825, 1142.00
1826, 1143.00
1827, 1142.00
1828, 1140.00
1829, 1140.00
1830, 1140.00
1831, 1138.00
1832, 1138.00
1833, 1138.00
1834, 1137.00
1835, 1136.00
1836, 1136.00
1837, 1135.00
1838, 1134.00
1839, 1131.00
1840, 1131.00
1841, 1131.00
1842, 1131.00
1843, 1128.00
1844, 1127.00
1845, 1126.00
1846, 1125.00
1847, 1126.00
1848, 1122.00
1849, 1122.00
1850, 1120.00
1851, 1119.00
1852, 1120.00
1853, 1117.00
1854, 1115.00
1855, 1117.00
1856, 1114.00
1857, 1112.00
1858, 1111.00
1859, 1111.00
1860, 1110.00
1861, 1110.00
1862, 1108.00
1863, 1108.00
1864, 1105.00
1865, 1105.00
1866, 1105.00
1867, 1105.00
1868, 1104.00
1869, 1102.00
1870, 1102.00
1871, 1101.00
1872, 1101.00
1873, 1100.00
1874, 1099.00
1875, 1097.00
1876, 1099.00
1877, 1097.00
1878, 1097.00
1879, 1096.00
1880, 1096.00
1881, 1097.00
1882, 1095.00
1883, 1096.00
1884, 1095.00
1885, 1093.00
1886, 1095.00
1887, 1094.00
1888, 1093.00
1889, 1092.00
1890, 1094.00
1891, 1093.00
1892, 1092.00
1893, 1092.00
1894, 1095.00
1895, 1092.00
1896, 1090.00
1897, 1092.00
1898, 1091.00
1899, 1091.00
1900, 1091.00
1901, 1090.00
1902, 1091.00
1903, 1091.00
1904, 1090.00
1905, 1089.00
1906, 1090.00
1907, 1091.00
1908, 1090.00
1909, 1090.00
1910, 1091.00
1911, 1089.00
1912, 1090.00
1913, 1088.00
1914, 1090.00
1915, 1090.00
1916, 1089.00
1917, 1088.00
1918, 1090.00
1919, 1089.00
1920, 1091.00
1921, 1089.00
1922, 1089.00
1923, 1089.00
1924, 1089.00
1925, 1087.00
1926, 1090.00
1927, 1089.00
1928, 1090.00
1929, 1089.00
1930, 1088.00
1931, 1089.00
1932, 1089.00
1933, 1088.00
1934, 1088.00
1935, 1089.00
1936, 1088.00
1937, 1088.00
1938, 1088.00
1939, 1088.00
1940, 1089.00
1941, 1089.00
1942, 1090.00
1943, 1090.00
1944, 1088.00
1945, 1090.00
1946, 1090.00
1947, 1088.00
1948, 1089.00
1949, 1091.00
1950, 1090.00
1951, 1091.00
1952, 1091.00
1953, 1089.00
1954, 1089.00
1955, 1092.00
1956, 1091.00
1957, 1091.00
1958, 1091.00
1959, 1090.00
1960, 1092.00
1961, 1092.00
1962, 1092.00
1963, 1093.00
1964, 1093.00
1965, 1092.00
1966, 1093.00
1967, 1093.00
1968, 1096.00
1969, 1092.00
1970, 1095.00
1971, 1093.00
1972, 1094.00
1973, 1094.00
1974, 1096.00
1975, 1096.00
1976, 1097.00
1977, 1095.00
1978, 1095.00
1979, 1097.00
1980, 1097.00
1981, 1096.00
1982, 1096.00
1983, 1098.00
1984, 1098.00
1985, 1097.00
1986, 1099.00
1987, 1097.00
1988, 1098.00
1989, 1099.00
1990, 1098.00
1991, 1100.00
1992, 1100.00
1993, 1098.00
1994, 1099.00
1995, 1100.00
1996, 1098.00
1997, 1102.00
1998, 1100.00
1999, 1100.00
2000, 1102.00
2001, 1103.00
2002, 1102.00
2003, 1101.00
2004, 1104.00
2005, 1102.00
2006, 1104.00
2007, 1104.00
2008, 1105.00
2009, 1103.00
2010, 1105.00
2011, 1106.00
2012, 1104.00
2013, 1104.00
2014, 1105.00
2015, 1104.00
2016, 1106.00
2017, 1104.00
2018, 1105.00
2019, 1108.00
2020, 1108.00
2021, 1107.00
2022, 1107.00
2023, 1107.00
2024, 1109.00
2025, 1109.00
2026, 1109.00
2027, 1109.00
2028, 1109.00
2029, 1109.00
2030, 1109.00
2031, 1111.00
2032, 1110.00
2033, 1110.00
2034, 1111.00
2035, 1112.00
2036, 1110.00
2037, 1113.00
2038, 1112.00
2039, 1113.00
2040, 1113.00
2041, 1114.00
2042, 1115.00
2043, 1116.00
2044, 1115.00
2045, 1115.00
2046, 1114.00
2047, 1114.00
2048, 1116.00
2049, 1116.00
2050, 1117.00
2051, 1117.00
2052, 1118.00
2053, 1119.00
2054, 1120.00
2055, 1120.00
2056, 1119.00
2057, 1121.00
2058, 1120.00
2059, 1122.00
2060, 1122.00
2061, 1122.00
2062, 1124.00
2063, 1123.00
2064, 1122.00
2065, 1124.00
2066, 1125.00
2067, 1125.00
2068, 1124.00
2069, 1125.00
2070, 1125.00
2071, 1126.00
2072, 1128.00
2073, 1127.00
2074, 1126.00
2075, 1128.00
2076, 1130.00
2077, 1128.00
2078, 1129.00
2079, 1131.00
2080, 1129.00
2081, 1130.00
2082, 1130.00
2083, 1130.00
2084, 1134.00
2085, 1130.00
2086, 1131.00
2087, 1132.00
2088, 1132.00
2089, 1133.00
2090, 1133.00
2091, 1133.00
2092, 1133.00
2093, 1134.00
2094, 1133.00
2095, 1134.00
2096, 1136.00
2097, 1136.00
2098, 1136.00
2099, 1136.00
2100, 1136.00
2101, 1137.00
2102, 1136.00
2103, 1137.00
2104, 1138.00
2105, 1137.00
2106, 1138.00
2107, 1139.00
2108, 1138.00
2109, 1137.00
2110, 1138.00
2111, 1138.00
2112, 1139.00
2113, 1140.00
2114, 1140.00
2115, 1139.00
2116, 1141.00
2117, 1141.00
2118, 1141.00
2119, 1141.00
2120, 1140.00
2121, 1141.00
2122, 1141.00
2123, 1141.00
2124, 1140.00
2125, 1141.00
2126, 1144.00
2127, 1143.00
2128, 1141.00
2129, 1142.00
2130, 1143.00
2131, 1143.00
2132, 1145.00
2133, 1144.00
2134, 1144.00
2135, 1142.00
2136, 1143.00
2137, 1145.00
2138, 1143.00
2139, 1144.00
2140, 1145.00
2141, 1144.00
2142, 1144.00
2143, 1144.00
2144, 1144.00
2145, 1146.00
2146, 1145.00
2147, 1146.00
2148, 1143.00
2149, 1147.00
2150, 1144.00
