FW version: 24
Log Version: 3.0.3

General Info:
       Command/Macro Performed,            Timestamp,             Device ID, COM Port, UART/I2C, Test Name, Host Major, Host Minor, Host Revision, Host Git Commit
            Single_measurement,  2023_06_29_10_44_43,       Insight2_F4_xxx,    USB-C,      USB,          ,          0,          1,             1,      4031237645

Show Spectrometer Status:
l0_version, f4_version, battery_perc, battery_mVolt, accelerometer_temp, accelerometer_x, accelerometer_y, accelerometer_z, compass_temp, compass_x, compass_y, compass_z, lamp_0, lamp_1, gain_0, gain_1
        17,         24,           92,          2060,               5856,           65444,              76,           18472,            0,     65535,     65358,     65518,   2457,   2457,      1,      1

Temperature Statistic Info:
NTC AVG [°C], NTC2 AVG [°C]
      37.554,        37.208

Statistic Info:
M1:  num,      min,      max,   median,      AVG,      STD,M2:  num,      min,      max,   median,      AVG,      STD
     301,  1048.00,  1210.00,  1082.00,  1101.48,  50.2498,     401,  1497.00,  1595.00,  1537.00,  1540.29,  32.2022,

Measurements:
Wavelength, Data Amplitude
1350, 1073.00
1351, 1074.00
1352, 1073.00
1353, 1073.00
1354, 1073.00
1355, 1071.00
1356, 1071.00
1357, 1071.00
1358, 1070.00
1359, 1069.00
1360, 1069.00
1361, 1068.00
1362, 1069.00
1363, 1067.00
1364, 1066.00
1365, 1066.00
1366, 1066.00
1367, 1065.00
1368, 1063.00
1369, 1063.00
1370, 1063.00
1371, 1062.00
1372, 1061.00
1373, 1060.00
1374, 1059.00
1375, 1060.00
1376, 1059.00
1377, 1058.00
1378, 1057.00
1379, 1057.00
1380, 1057.00
1381, 1056.00
1382, 1056.00
1383, 1055.00
1384, 1054.00
1385, 1053.00
1386, 1053.00
1387, 1053.00
1388, 1053.00
1389, 1052.00
1390, 1053.00
1391, 1052.00
1392, 1052.00
1393, 1051.00
1394, 1051.00
1395, 1050.00
1396, 1051.00
1397, 1050.00
1398, 1051.00
1399, 1050.00
1400, 1050.00
1401, 1050.00
1402, 1050.00
1403, 1051.00
1404, 1050.00
1405, 1050.00
1406, 1049.00
1407, 1049.00
1408, 1049.00
1409, 1049.00
1410, 1050.00
1411, 1050.00
1412, 1050.00
1413, 1050.00
1414, 1050.00
1415, 1049.00
1416, 1049.00
1417, 1049.00
1418, 1049.00
1419, 1048.00
1420, 1050.00
1421, 1048.00
1422, 1049.00
1423, 1049.00
1424, 1049.00
1425, 1049.00
1426, 1050.00
1427, 1050.00
1428, 1049.00
1429, 1050.00
1430, 1050.00
1431, 1050.00
1432, 1050.00
1433, 1051.00
1434, 1051.00
1435, 1051.00
1436, 1051.00
1437, 1052.00
1438, 1052.00
1439, 1052.00
1440, 1051.00
1441, 1052.00
1442, 1052.00
1443, 1052.00
1444, 1052.00
1445, 1052.00
1446, 1053.00
1447, 1054.00
1448, 1055.00
1449, 1054.00
1450, 1056.00
1451, 1055.00
1452, 1056.00
1453, 1057.00
1454, 1057.00
1455, 1057.00
1456, 1057.00
1457, 1057.00
1458, 1057.00
1459, 1058.00
1460, 1059.00
1461, 1059.00
1462, 1059.00
1463, 1061.00
1464, 1060.00
1465, 1060.00
1466, 1061.00
1467, 1062.00
1468, 1062.00
1469, 1064.00
1470, 1064.00
1471, 1064.00
1472, 1064.00
1473, 1065.00
1474, 1065.00
1475, 1067.00
1476, 1067.00
1477, 1068.00
1478, 1069.00
1479, 1069.00
1480, 1069.00
1481, 1070.00
1482, 1070.00
1483, 1071.00
1484, 1071.00
1485, 1072.00
1486, 1073.00
1487, 1073.00
1488, 1074.00
1489, 1075.00
1490, 1075.00
1491, 1077.00
1492, 1076.00
1493, 1077.00
1494, 1078.00
1495, 1079.00
1496, 1079.00
1497, 1080.00
1498, 1081.00
1499, 1081.00
1500, 1082.00
1501, 1084.00
1502, 1083.00
1503, 1085.00
1504, 1085.00
1505, 1086.00
1506, 1087.00
1507, 1088.00
1508, 1089.00
1509, 1088.00
1510, 1089.00
1511, 1090.00
1512, 1090.00
1513, 1092.00
1514, 1093.00
1515, 1093.00
1516, 1094.00
1517, 1094.00
1518, 1095.00
1519, 1095.00
1520, 1098.00
1521, 1098.00
1522, 1098.00
1523, 1100.00
1524, 1101.00
1525, 1101.00
1526, 1102.00
1527, 1103.00
1528, 1104.00
1529, 1105.00
1530, 1104.00
1531, 1105.00
1532, 1107.00
1533, 1108.00
1534, 1109.00
1535, 1109.00
1536, 1111.00
1537, 1111.00
1538, 1111.00
1539, 1113.00
1540, 1113.00
1541, 1114.00
1542, 1114.00
1543, 1116.00
1544, 1116.00
1545, 1117.00
1546, 1118.00
1547, 1117.00
1548, 1120.00
1549, 1119.00
1550, 1121.00
1551, 1122.00
1552, 1122.00
1553, 1124.00
1554, 1123.00
1555, 1125.00
1556, 1125.00
1557, 1127.00
1558, 1128.00
1559, 1129.00
1560, 1130.00
1561, 1129.00
1562, 1131.00
1563, 1132.00
1564, 1133.00
1565, 1133.00
1566, 1134.00
1567, 1135.00
1568, 1137.00
1569, 1138.00
1570, 1138.00
1571, 1140.00
1572, 1140.00
1573, 1141.00
1574, 1142.00
1575, 1143.00
1576, 1144.00
1577, 1144.00
1578, 1145.00
1579, 1146.00
1580, 1146.00
1581, 1147.00
1582, 1149.00
1583, 1149.00
1584, 1149.00
1585, 1150.00
1586, 1152.00
1587, 1152.00
1588, 1152.00
1589, 1154.00
1590, 1154.00
1591, 1155.00
1592, 1156.00
1593, 1156.00
1594, 1157.00
1595, 1159.00
1596, 1160.00
1597, 1161.00
1598, 1161.00
1599, 1162.00
1600, 1164.00
1601, 1164.00
1602, 1165.00
1603, 1165.00
1604, 1166.00
1605, 1166.00
1606, 1168.00
1607, 1169.00
1608, 1170.00
1609, 1171.00
1610, 1172.00
1611, 1173.00
1612, 1175.00
1613, 1176.00
1614, 1176.00
1615, 1176.00
1616, 1178.00
1617, 1179.00
1618, 1181.00
1619, 1180.00
1620, 1182.00
1621, 1183.00
1622, 1185.00
1623, 1186.00
1624, 1186.00
1625, 1188.00
1626, 1189.00
1627, 1190.00
1628, 1191.00
1629, 1191.00
1630, 1192.00
1631, 1193.00
1632, 1195.00
1633, 1195.00
1634, 1196.00
1635, 1197.00
1636, 1199.00
1637, 1199.00
1638, 1199.00
1639, 1201.00
1640, 1202.00
1641, 1203.00
1642, 1203.00
1643, 1204.00
1644, 1204.00
1645, 1205.00
1646, 1206.00
1647, 1208.00
1648, 1208.00
1649, 1209.00
1650, 1210.00

1750, 1593.00
1751, 1593.00
1752, 1593.00
1753, 1594.00
1754, 1595.00
1755, 1594.00
1756, 1593.00
1757, 1592.00
1758, 1592.00
1759, 1594.00
1760, 1593.00
1761, 1593.00
1762, 1592.00
1763, 1594.00
1764, 1592.00
1765, 1593.00
1766, 1594.00
1767, 1593.00
1768, 1591.00
1769, 1593.00
1770, 1592.00
1771, 1593.00
1772, 1590.00
1773, 1591.00
1774, 1592.00
1775, 1591.00
1776, 1591.00
1777, 1589.00
1778, 1592.00
1779, 1591.00
1780, 1590.00
1781, 1589.00
1782, 1588.00
1783, 1589.00
1784, 1587.00
1785, 1589.00
1786, 1587.00
1787, 1587.00
1788, 1587.00
1789, 1587.00
1790, 1584.00
1791, 1587.00
1792, 1585.00
1793, 1585.00
1794, 1585.00
1795, 1586.00
1796, 1583.00
1797, 1584.00
1798, 1583.00
1799, 1584.00
1800, 1585.00
1801, 1583.00
1802, 1583.00
1803, 1581.00
1804, 1582.00
1805, 1583.00
1806, 1582.00
1807, 1583.00
1808, 1581.00
1809, 1580.00
1810, 1580.00
1811, 1581.00
1812, 1579.00
1813, 1580.00
1814, 1578.00
1815, 1578.00
1816, 1578.00
1817, 1578.00
1818, 1578.00
1819, 1577.00
1820, 1577.00
1821, 1575.00
1822, 1574.00
1823, 1573.00
1824, 1572.00
1825, 1572.00
1826, 1571.00
1827, 1570.00
1828, 1571.00
1829, 1569.00
1830, 1568.00
1831, 1568.00
1832, 1566.00
1833, 1565.00
1834, 1564.00
1835, 1562.00
1836, 1559.00
1837, 1560.00
1838, 1558.00
1839, 1557.00
1840, 1556.00
1841, 1556.00
1842, 1553.00
1843, 1551.00
1844, 1550.00
1845, 1549.00
1846, 1546.00
1847, 1548.00
1848, 1544.00
1849, 1543.00
1850, 1543.00
1851, 1541.00
1852, 1537.00
1853, 1537.00
1854, 1535.00
1855, 1532.00
1856, 1533.00
1857, 1532.00
1858, 1530.00
1859, 1528.00
1860, 1527.00
1861, 1527.00
1862, 1525.00
1863, 1523.00
1864, 1521.00
1865, 1521.00
1866, 1520.00
1867, 1520.00
1868, 1518.00
1869, 1517.00
1870, 1516.00
1871, 1515.00
1872, 1515.00
1873, 1513.00
1874, 1514.00
1875, 1513.00
1876, 1511.00
1877, 1509.00
1878, 1510.00
1879, 1509.00
1880, 1509.00
1881, 1505.00
1882, 1507.00
1883, 1507.00
1884, 1507.00
1885, 1507.00
1886, 1507.00
1887, 1506.00
1888, 1504.00
1889, 1503.00
1890, 1502.00
1891, 1503.00
1892, 1505.00
1893, 1503.00
1894, 1504.00
1895, 1502.00
1896, 1503.00
1897, 1502.00
1898, 1503.00
1899, 1502.00
1900, 1502.00
1901, 1501.00
1902, 1502.00
1903, 1500.00
1904, 1500.00
1905, 1500.00
1906, 1500.00
1907, 1499.00
1908, 1500.00
1909, 1501.00
1910, 1499.00
1911, 1498.00
1912, 1499.00
1913, 1498.00
1914, 1498.00
1915, 1498.00
1916, 1497.00
1917, 1499.00
1918, 1499.00
1919, 1499.00
1920, 1498.00
1921, 1499.00
1922, 1498.00
1923, 1498.00
1924, 1497.00
1925, 1497.00
1926, 1497.00
1927, 1498.00
1928, 1499.00
1929, 1497.00
1930, 1497.00
1931, 1498.00
1932, 1497.00
1933, 1499.00
1934, 1499.00
1935, 1497.00
1936, 1497.00
1937, 1499.00
1938, 1499.00
1939, 1497.00
1940, 1499.00
1941, 1499.00
1942, 1499.00
1943, 1500.00
1944, 1499.00
1945, 1500.00
1946, 1500.00
1947, 1499.00
1948, 1500.00
1949, 1500.00
1950, 1499.00
1951, 1500.00
1952, 1499.00
1953, 1500.00
1954, 1500.00
1955, 1502.00
1956, 1500.00
1957, 1503.00
1958, 1502.00
1959, 1502.00
1960, 1501.00
1961, 1502.00
1962, 1504.00
1963, 1503.00
1964, 1502.00
1965, 1503.00
1966, 1505.00
1967, 1503.00
1968, 1505.00
1969, 1506.00
1970, 1507.00
1971, 1506.00
1972, 1506.00
1973, 1505.00
1974, 1506.00
1975, 1506.00
1976, 1508.00
1977, 1507.00
1978, 1507.00
1979, 1509.00
1980, 1509.00
1981, 1507.00
1982, 1509.00
1983, 1509.00
1984, 1510.00
1985, 1512.00
1986, 1507.00
1987, 1512.00
1988, 1512.00
1989, 1512.00
1990, 1511.00
1991, 1513.00
1992, 1513.00
1993, 1514.00
1994, 1513.00
1995, 1513.00
1996, 1514.00
1997, 1513.00
1998, 1515.00
1999, 1515.00
2000, 1516.00
2001, 1516.00
2002, 1515.00
2003, 1517.00
2004, 1517.00
2005, 1519.00
2006, 1517.00
2007, 1516.00
2008, 1518.00
2009, 1519.00
2010, 1519.00
2011, 1519.00
2012, 1519.00
2013, 1519.00
2014, 1521.00
2015, 1521.00
2016, 1520.00
2017, 1520.00
2018, 1520.00
2019, 1521.00
2020, 1523.00
2021, 1522.00
2022, 1522.00
2023, 1522.00
2024, 1525.00
2025, 1523.00
2026, 1525.00
2027, 1524.00
2028, 1525.00
2029, 1525.00
2030, 1527.00
2031, 1527.00
2032, 1528.00
2033, 1527.00
2034, 1527.00
2035, 1528.00
2036, 1529.00
2037, 1530.00
2038, 1531.00
2039, 1530.00
2040, 1531.00
2041, 1531.00
2042, 1531.00
2043, 1530.00
2044, 1531.00
2045, 1533.00
2046, 1534.00
2047, 1535.00
2048, 1535.00
2049, 1535.00
2050, 1535.00
2051, 1535.00
2052, 1539.00
2053, 1536.00
2054, 1537.00
2055, 1539.00
2056, 1539.00
2057, 1541.00
2058, 1540.00
2059, 1541.00
2060, 1541.00
2061, 1541.00
2062, 1543.00
2063, 1543.00
2064, 1544.00
2065, 1544.00
2066, 1546.00
2067, 1546.00
2068, 1546.00
2069, 1547.00
2070, 1547.00
2071, 1547.00
2072, 1547.00
2073, 1549.00
2074, 1549.00
2075, 1550.00
2076, 1550.00
2077, 1551.00
2078, 1551.00
2079, 1553.00
2080, 1552.00
2081, 1552.00
2082, 1553.00
2083, 1554.00
2084, 1555.00
2085, 1555.00
2086, 1555.00
2087, 1557.00
2088, 1556.00
2089, 1557.00
2090, 1557.00
2091, 1559.00
2092, 1557.00
2093, 1560.00
2094, 1557.00
2095, 1559.00
2096, 1560.00
2097, 1562.00
2098, 1561.00
2099, 1561.00
2100, 1561.00
2101, 1562.00
2102, 1562.00
2103, 1562.00
2104, 1563.00
2105, 1563.00
2106, 1564.00
2107, 1562.00
2108, 1564.00
2109, 1564.00
2110, 1563.00
2111, 1564.00
2112, 1565.00
2113, 1565.00
2114, 1565.00
2115, 1565.00
2116, 1565.00
2117, 1566.00
2118, 1568.00
2119, 1569.00
2120, 1568.00
2121, 1567.00
2122, 1568.00
2123, 1568.00
2124, 1568.00
2125, 1568.00
2126, 1569.00
2127, 1568.00
2128, 1568.00
2129, 1569.00
2130, 1569.00
2131, 1569.00
2132, 1568.00
2133, 1572.00
2134, 1571.00
2135, 1569.00
2136, 1570.00
2137, 1571.00
2138, 1571.00
2139, 1571.00
2140, 1574.00
2141, 1571.00
2142, 1572.00
2143, 1572.00
2144, 1572.00
2145, 1573.00
2146, 1574.00
2147, 1573.00
2148, 1574.00
2149, 1573.00
2150, 1574.00
