FW version: 24
Log Version: 3.0.3

General Info:
       Command/Macro Performed,            Timestamp,             Device ID, COM Port, UART/I2C, Test Name, Host Major, Host Minor, Host Revision, Host Git Commit
            Single_measurement,  2023_06_29_11_03_08,       Insight2_F4_xxx,    USB-C,      USB,          ,          0,          1,             1,      4031237645

Show Spectrometer Status:
l0_version, f4_version, battery_perc, battery_mVolt, accelerometer_temp, accelerometer_x, accelerometer_y, accelerometer_z, compass_temp, compass_x, compass_y, compass_z, lamp_0, lamp_1, gain_0, gain_1
        17,         24,           94,          2067,               5792,           65424,           65504,           18432,            0,     65531,     65523,     65498,   2047,   2047,      1,      1

Temperature Statistic Info:
NTC AVG [°C], NTC2 AVG [°C]
      38.070,        37.783

Statistic Info:
M1:  num,      min,      max,   median,      AVG,      STD,M2:  num,      min,      max,   median,      AVG,      STD
     301,   748.00,   873.00,   776.00,   790.17,  39.6966,     401,  1118.00,  1197.00,  1154.00,  1154.37,  26.0080,

Measurements:
Wavelength, Data Amplitude
1350, 767.00
1351, 766.00
1352, 766.00
1353, 765.00
1354, 765.00
1355, 766.00
1356, 766.00
1357, 764.00
1358, 764.00
1359, 763.00
1360, 763.00
1361, 763.00
1362, 762.00
1363, 762.00
1364, 761.00
1365, 761.00
1366, 760.00
1367, 759.00
1368, 759.00
1369, 759.00
1370, 759.00
1371, 758.00
1372, 757.00
1373, 756.00
1374, 757.00
1375, 755.00
1376, 755.00
1377, 755.00
1378, 753.00
1379, 754.00
1380, 754.00
1381, 753.00
1382, 753.00
1383, 753.00
1384, 752.00
1385, 752.00
1386, 751.00
1387, 751.00
1388, 751.00
1389, 751.00
1390, 751.00
1391, 751.00
1392, 749.00
1393, 751.00
1394, 749.00
1395, 750.00
1396, 750.00
1397, 751.00
1398, 750.00
1399, 750.00
1400, 749.00
1401, 749.00
1402, 749.00
1403, 749.00
1404, 749.00
1405, 749.00
1406, 748.00
1407, 749.00
1408, 748.00
1409, 748.00
1410, 748.00
1411, 749.00
1412, 749.00
1413, 748.00
1414, 749.00
1415, 748.00
1416, 748.00
1417, 749.00
1418, 748.00
1419, 749.00
1420, 749.00
1421, 749.00
1422, 749.00
1423, 749.00
1424, 749.00
1425, 749.00
1426, 748.00
1427, 749.00
1428, 749.00
1429, 749.00
1430, 749.00
1431, 749.00
1432, 749.00
1433, 749.00
1434, 749.00
1435, 750.00
1436, 750.00
1437, 751.00
1438, 750.00
1439, 750.00
1440, 751.00
1441, 751.00
1442, 752.00
1443, 751.00
1444, 752.00
1445, 751.00
1446, 753.00
1447, 753.00
1448, 753.00
1449, 753.00
1450, 753.00
1451, 754.00
1452, 755.00
1453, 754.00
1454, 755.00
1455, 755.00
1456, 755.00
1457, 755.00
1458, 755.00
1459, 756.00
1460, 756.00
1461, 756.00
1462, 757.00
1463, 758.00
1464, 758.00
1465, 758.00
1466, 758.00
1467, 759.00
1468, 759.00
1469, 760.00
1470, 760.00
1471, 761.00
1472, 761.00
1473, 762.00
1474, 762.00
1475, 762.00
1476, 763.00
1477, 764.00
1478, 765.00
1479, 765.00
1480, 765.00
1481, 766.00
1482, 766.00
1483, 767.00
1484, 767.00
1485, 767.00
1486, 768.00
1487, 769.00
1488, 769.00
1489, 771.00
1490, 770.00
1491, 771.00
1492, 771.00
1493, 772.00
1494, 772.00
1495, 773.00
1496, 774.00
1497, 775.00
1498, 775.00
1499, 775.00
1500, 776.00
1501, 776.00
1502, 777.00
1503, 777.00
1504, 778.00
1505, 778.00
1506, 779.00
1507, 779.00
1508, 781.00
1509, 780.00
1510, 781.00
1511, 781.00
1512, 783.00
1513, 784.00
1514, 784.00
1515, 785.00
1516, 785.00
1517, 786.00
1518, 787.00
1519, 788.00
1520, 788.00
1521, 788.00
1522, 788.00
1523, 790.00
1524, 791.00
1525, 791.00
1526, 792.00
1527, 792.00
1528, 793.00
1529, 793.00
1530, 793.00
1531, 795.00
1532, 795.00
1533, 796.00
1534, 796.00
1535, 797.00
1536, 798.00
1537, 799.00
1538, 800.00
1539, 800.00
1540, 800.00
1541, 802.00
1542, 801.00
1543, 803.00
1544, 802.00
1545, 804.00
1546, 804.00
1547, 805.00
1548, 805.00
1549, 807.00
1550, 807.00
1551, 808.00
1552, 808.00
1553, 808.00
1554, 809.00
1555, 810.00
1556, 811.00
1557, 810.00
1558, 812.00
1559, 812.00
1560, 812.00
1561, 814.00
1562, 815.00
1563, 815.00
1564, 816.00
1565, 816.00
1566, 817.00
1567, 818.00
1568, 818.00
1569, 819.00
1570, 819.00
1571, 821.00
1572, 821.00
1573, 822.00
1574, 823.00
1575, 824.00
1576, 823.00
1577, 825.00
1578, 825.00
1579, 826.00
1580, 826.00
1581, 827.00
1582, 828.00
1583, 829.00
1584, 828.00
1585, 830.00
1586, 829.00
1587, 831.00
1588, 832.00
1589, 832.00
1590, 833.00
1591, 833.00
1592, 835.00
1593, 835.00
1594, 835.00
1595, 836.00
1596, 836.00
1597, 836.00
1598, 837.00
1599, 838.00
1600, 839.00
1601, 840.00
1602, 840.00
1603, 841.00
1604, 841.00
1605, 842.00
1606, 843.00
1607, 843.00
1608, 844.00
1609, 845.00
1610, 846.00
1611, 846.00
1612, 848.00
1613, 848.00
1614, 849.00
1615, 849.00
1616, 851.00
1617, 852.00
1618, 853.00
1619, 853.00
1620, 853.00
1621, 855.00
1622, 856.00
1623, 857.00
1624, 857.00
1625, 858.00
1626, 858.00
1627, 859.00
1628, 860.00
1629, 861.00
1630, 861.00
1631, 862.00
1632, 863.00
1633, 863.00
1634, 865.00
1635, 866.00
1636, 866.00
1637, 866.00
1638, 866.00
1639, 867.00
1640, 867.00
1641, 869.00
1642, 869.00
1643, 869.00
1644, 870.00
1645, 870.00
1646, 870.00
1647, 872.00
1648, 871.00
1649, 872.00
1650, 873.00

1750, 1196.00
1751, 1195.00
1752, 1196.00
1753, 1196.00
1754, 1196.00
1755, 1194.00
1756, 1195.00
1757, 1196.00
1758, 1196.00
1759, 1196.00
1760, 1195.00
1761, 1195.00
1762, 1195.00
1763, 1196.00
1764, 1195.00
1765, 1195.00
1766, 1194.00
1767, 1195.00
1768, 1194.00
1769, 1195.00
1770, 1194.00
1771, 1195.00
1772, 1197.00
1773, 1194.00
1774, 1195.00
1775, 1193.00
1776, 1194.00
1777, 1193.00
1778, 1191.00
1779, 1193.00
1780, 1193.00
1781, 1193.00
1782, 1192.00
1783, 1191.00
1784, 1192.00
1785, 1193.00
1786, 1192.00
1787, 1190.00
1788, 1189.00
1789, 1189.00
1790, 1190.00
1791, 1189.00
1792, 1190.00
1793, 1190.00
1794, 1189.00
1795, 1188.00
1796, 1188.00
1797, 1189.00
1798, 1190.00
1799, 1190.00
1800, 1188.00
1801, 1187.00
1802, 1188.00
1803, 1188.00
1804, 1188.00
1805, 1187.00
1806, 1186.00
1807, 1186.00
1808, 1187.00
1809, 1187.00
1810, 1186.00
1811, 1185.00
1812, 1186.00
1813, 1185.00
1814, 1186.00
1815, 1184.00
1816, 1183.00
1817, 1184.00
1818, 1183.00
1819, 1182.00
1820, 1180.00
1821, 1182.00
1822, 1181.00
1823, 1180.00
1824, 1182.00
1825, 1178.00
1826, 1178.00
1827, 1179.00
1828, 1177.00
1829, 1178.00
1830, 1176.00
1831, 1175.00
1832, 1174.00
1833, 1173.00
1834, 1173.00
1835, 1173.00
1836, 1172.00
1837, 1170.00
1838, 1170.00
1839, 1169.00
1840, 1167.00
1841, 1165.00
1842, 1165.00
1843, 1164.00
1844, 1161.00
1845, 1161.00
1846, 1160.00
1847, 1157.00
1848, 1158.00
1849, 1157.00
1850, 1153.00
1851, 1154.00
1852, 1154.00
1853, 1153.00
1854, 1150.00
1855, 1148.00
1856, 1146.00
1857, 1144.00
1858, 1143.00
1859, 1145.00
1860, 1143.00
1861, 1141.00
1862, 1140.00
1863, 1141.00
1864, 1138.00
1865, 1138.00
1866, 1137.00
1867, 1136.00
1868, 1137.00
1869, 1133.00
1870, 1134.00
1871, 1132.00
1872, 1131.00
1873, 1132.00
1874, 1130.00
1875, 1131.00
1876, 1129.00
1877, 1128.00
1878, 1127.00
1879, 1129.00
1880, 1127.00
1881, 1127.00
1882, 1127.00
1883, 1127.00
1884, 1126.00
1885, 1125.00
1886, 1125.00
1887, 1125.00
1888, 1125.00
1889, 1125.00
1890, 1125.00
1891, 1125.00
1892, 1123.00
1893, 1124.00
1894, 1122.00
1895, 1124.00
1896, 1124.00
1897, 1123.00
1898, 1121.00
1899, 1123.00
1900, 1121.00
1901, 1120.00
1902, 1122.00
1903, 1121.00
1904, 1120.00
1905, 1121.00
1906, 1121.00
1907, 1122.00
1908, 1120.00
1909, 1122.00
1910, 1121.00
1911, 1120.00
1912, 1120.00
1913, 1122.00
1914, 1120.00
1915, 1120.00
1916, 1120.00
1917, 1120.00
1918, 1118.00
1919, 1120.00
1920, 1120.00
1921, 1118.00
1922, 1120.00
1923, 1120.00
1924, 1119.00
1925, 1121.00
1926, 1118.00
1927, 1119.00
1928, 1120.00
1929, 1120.00
1930, 1119.00
1931, 1119.00
1932, 1119.00
1933, 1121.00
1934, 1120.00
1935, 1119.00
1936, 1119.00
1937, 1121.00
1938, 1120.00
1939, 1120.00
1940, 1120.00
1941, 1122.00
1942, 1122.00
1943, 1121.00
1944, 1121.00
1945, 1121.00
1946, 1121.00
1947, 1121.00
1948, 1122.00
1949, 1122.00
1950, 1122.00
1951, 1122.00
1952, 1122.00
1953, 1122.00
1954, 1123.00
1955, 1122.00
1956, 1123.00
1957, 1123.00
1958, 1122.00
1959, 1123.00
1960, 1123.00
1961, 1124.00
1962, 1123.00
1963, 1123.00
1964, 1123.00
1965, 1124.00
1966, 1125.00
1967, 1125.00
1968, 1127.00
1969, 1126.00
1970, 1127.00
1971, 1126.00
1972, 1127.00
1973, 1128.00
1974, 1127.00
1975, 1129.00
1976, 1129.00
1977, 1128.00
1978, 1127.00
1979, 1129.00
1980, 1129.00
1981, 1129.00
1982, 1129.00
1983, 1130.00
1984, 1131.00
1985, 1131.00
1986, 1132.00
1987, 1130.00
1988, 1131.00
1989, 1129.00
1990, 1131.00
1991, 1132.00
1992, 1131.00
1993, 1132.00
1994, 1135.00
1995, 1131.00
1996, 1135.00
1997, 1133.00
1998, 1134.00
1999, 1136.00
2000, 1135.00
2001, 1134.00
2002, 1134.00
2003, 1135.00
2004, 1135.00
2005, 1134.00
2006, 1138.00
2007, 1136.00
2008, 1137.00
2009, 1135.00
2010, 1137.00
2011, 1139.00
2012, 1138.00
2013, 1138.00
2014, 1139.00
2015, 1141.00
2016, 1139.00
2017, 1141.00
2018, 1141.00
2019, 1140.00
2020, 1141.00
2021, 1141.00
2022, 1140.00
2023, 1142.00
2024, 1141.00
2025, 1141.00
2026, 1142.00
2027, 1142.00
2028, 1143.00
2029, 1144.00
2030, 1143.00
2031, 1144.00
2032, 1146.00
2033, 1145.00
2034, 1145.00
2035, 1146.00
2036, 1145.00
2037, 1146.00
2038, 1147.00
2039, 1145.00
2040, 1147.00
2041, 1147.00
2042, 1149.00
2043, 1149.00
2044, 1149.00
2045, 1149.00
2046, 1151.00
2047, 1151.00
2048, 1150.00
2049, 1152.00
2050, 1151.00
2051, 1152.00
2052, 1154.00
2053, 1154.00
2054, 1154.00
2055, 1154.00
2056, 1155.00
2057, 1155.00
2058, 1155.00
2059, 1156.00
2060, 1156.00
2061, 1157.00
2062, 1157.00
2063, 1158.00
2064, 1157.00
2065, 1158.00
2066, 1158.00
2067, 1160.00
2068, 1159.00
2069, 1162.00
2070, 1162.00
2071, 1162.00
2072, 1161.00
2073, 1163.00
2074, 1163.00
2075, 1163.00
2076, 1164.00
2077, 1164.00
2078, 1164.00
2079, 1168.00
2080, 1165.00
2081, 1166.00
2082, 1166.00
2083, 1168.00
2084, 1168.00
2085, 1169.00
2086, 1169.00
2087, 1168.00
2088, 1167.00
2089, 1168.00
2090, 1169.00
2091, 1170.00
2092, 1170.00
2093, 1172.00
2094, 1172.00
2095, 1170.00
2096, 1171.00
2097, 1171.00
2098, 1171.00
2099, 1173.00
2100, 1173.00
2101, 1174.00
2102, 1173.00
2103, 1174.00
2104, 1172.00
2105, 1174.00
2106, 1175.00
2107, 1174.00
2108, 1174.00
2109, 1174.00
2110, 1174.00
2111, 1176.00
2112, 1176.00
2113, 1174.00
2114, 1177.00
2115, 1176.00
2116, 1178.00
2117, 1178.00
2118, 1177.00
2119, 1179.00
2120, 1178.00
2121, 1177.00
2122, 1178.00
2123, 1177.00
2124, 1179.00
2125, 1178.00
2126, 1179.00
2127, 1179.00
2128, 1177.00
2129, 1180.00
2130, 1180.00
2131, 1180.00
2132, 1181.00
2133, 1179.00
2134, 1180.00
2135, 1181.00
2136, 1180.00
2137, 1181.00
2138, 1180.00
2139, 1181.00
2140, 1181.00
2141, 1181.00
2142, 1183.00
2143, 1181.00
2144, 1181.00
2145, 1183.00
2146, 1182.00
2147, 1184.00
2148, 1182.00
2149, 1183.00
2150, 1184.00
