FW version: 24
Log Version: 3.0.3

General Info:
       Command/Macro Performed,            Timestamp,             Device ID, COM Port, UART/I2C, Test Name, Host Major, Host Minor, Host Revision, Host Git Commit
            Single_measurement,  2023_06_29_11_04_10,       Insight2_F4_xxx,    USB-C,      USB,          ,          0,          1,             1,      4031237645

Show Spectrometer Status:
l0_version, f4_version, battery_perc, battery_mVolt, accelerometer_temp, accelerometer_x, accelerometer_y, accelerometer_z, compass_temp, compass_x, compass_y, compass_z, lamp_0, lamp_1, gain_0, gain_1
        17,         24,           94,          2073,               5728,           65388,           65464,           18404,            0,     65517,     65529,     65533,   3276,   3276,      1,      1

Temperature Statistic Info:
NTC AVG [°C], NTC2 AVG [°C]
      38.391,        38.099

Statistic Info:
M1:  num,      min,      max,   median,      AVG,      STD,M2:  num,      min,      max,   median,      AVG,      STD
     301,  1876.00,  2162.00,  1934.00,  1969.95,  88.9428,     401,  2470.00,  2640.00,  2540.00,  2544.31,  55.8805,

Measurements:
Wavelength, Data Amplitude
1350, 1929.00
1351, 1928.00
1352, 1928.00
1353, 1928.00
1354, 1926.00
1355, 1923.00
1356, 1924.00
1357, 1922.00
1358, 1921.00
1359, 1919.00
1360, 1919.00
1361, 1917.00
1362, 1918.00
1363, 1916.00
1364, 1912.00
1365, 1912.00
1366, 1911.00
1367, 1910.00
1368, 1909.00
1369, 1906.00
1370, 1906.00
1371, 1904.00
1372, 1903.00
1373, 1902.00
1374, 1900.00
1375, 1899.00
1376, 1898.00
1377, 1897.00
1378, 1894.00
1379, 1894.00
1380, 1893.00
1381, 1892.00
1382, 1891.00
1383, 1890.00
1384, 1889.00
1385, 1889.00
1386, 1887.00
1387, 1887.00
1388, 1886.00
1389, 1886.00
1390, 1885.00
1391, 1884.00
1392, 1883.00
1393, 1882.00
1394, 1883.00
1395, 1881.00
1396, 1882.00
1397, 1880.00
1398, 1882.00
1399, 1879.00
1400, 1880.00
1401, 1879.00
1402, 1879.00
1403, 1879.00
1404, 1879.00
1405, 1878.00
1406, 1879.00
1407, 1879.00
1408, 1879.00
1409, 1879.00
1410, 1878.00
1411, 1877.00
1412, 1877.00
1413, 1878.00
1414, 1877.00
1415, 1877.00
1416, 1877.00
1417, 1876.00
1418, 1877.00
1419, 1877.00
1420, 1877.00
1421, 1877.00
1422, 1876.00
1423, 1877.00
1424, 1879.00
1425, 1876.00
1426, 1877.00
1427, 1877.00
1428, 1876.00
1429, 1877.00
1430, 1878.00
1431, 1878.00
1432, 1878.00
1433, 1879.00
1434, 1879.00
1435, 1880.00
1436, 1879.00
1437, 1880.00
1438, 1881.00
1439, 1880.00
1440, 1880.00
1441, 1881.00
1442, 1881.00
1443, 1882.00
1444, 1883.00
1445, 1883.00
1446, 1884.00
1447, 1885.00
1448, 1885.00
1449, 1885.00
1450, 1885.00
1451, 1886.00
1452, 1887.00
1453, 1888.00
1454, 1889.00
1455, 1889.00
1456, 1890.00
1457, 1890.00
1458, 1891.00
1459, 1891.00
1460, 1892.00
1461, 1894.00
1462, 1894.00
1463, 1895.00
1464, 1896.00
1465, 1897.00
1466, 1897.00
1467, 1897.00
1468, 1899.00
1469, 1900.00
1470, 1901.00
1471, 1903.00
1472, 1903.00
1473, 1903.00
1474, 1905.00
1475, 1905.00
1476, 1907.00
1477, 1907.00
1478, 1909.00
1479, 1910.00
1480, 1910.00
1481, 1912.00
1482, 1913.00
1483, 1915.00
1484, 1916.00
1485, 1917.00
1486, 1918.00
1487, 1919.00
1488, 1921.00
1489, 1921.00
1490, 1923.00
1491, 1923.00
1492, 1925.00
1493, 1927.00
1494, 1927.00
1495, 1927.00
1496, 1929.00
1497, 1931.00
1498, 1931.00
1499, 1932.00
1500, 1934.00
1501, 1935.00
1502, 1936.00
1503, 1938.00
1504, 1939.00
1505, 1940.00
1506, 1941.00
1507, 1942.00
1508, 1944.00
1509, 1944.00
1510, 1947.00
1511, 1947.00
1512, 1948.00
1513, 1949.00
1514, 1951.00
1515, 1954.00
1516, 1954.00
1517, 1955.00
1518, 1957.00
1519, 1959.00
1520, 1959.00
1521, 1961.00
1522, 1963.00
1523, 1964.00
1524, 1965.00
1525, 1966.00
1526, 1968.00
1527, 1970.00
1528, 1971.00
1529, 1973.00
1530, 1973.00
1531, 1973.00
1532, 1977.00
1533, 1978.00
1534, 1979.00
1535, 1981.00
1536, 1983.00
1537, 1983.00
1538, 1986.00
1539, 1986.00
1540, 1987.00
1541, 1989.00
1542, 1990.00
1543, 1993.00
1544, 1994.00
1545, 1995.00
1546, 1997.00
1547, 1998.00
1548, 1999.00
1549, 2002.00
1550, 2002.00
1551, 2004.00
1552, 2006.00
1553, 2007.00
1554, 2009.00
1555, 2011.00
1556, 2011.00
1557, 2013.00
1558, 2015.00
1559, 2017.00
1560, 2019.00
1561, 2021.00
1562, 2022.00
1563, 2023.00
1564, 2025.00
1565, 2025.00
1566, 2028.00
1567, 2030.00
1568, 2032.00
1569, 2034.00
1570, 2035.00
1571, 2036.00
1572, 2038.00
1573, 2039.00
1574, 2042.00
1575, 2043.00
1576, 2044.00
1577, 2046.00
1578, 2048.00
1579, 2048.00
1580, 2051.00
1581, 2053.00
1582, 2052.00
1583, 2055.00
1584, 2057.00
1585, 2058.00
1586, 2059.00
1587, 2060.00
1588, 2063.00
1589, 2063.00
1590, 2064.00
1591, 2067.00
1592, 2069.00
1593, 2070.00
1594, 2071.00
1595, 2073.00
1596, 2074.00
1597, 2075.00
1598, 2076.00
1599, 2079.00
1600, 2080.00
1601, 2082.00
1602, 2083.00
1603, 2083.00
1604, 2086.00
1605, 2088.00
1606, 2089.00
1607, 2091.00
1608, 2093.00
1609, 2093.00
1610, 2095.00
1611, 2097.00
1612, 2099.00
1613, 2102.00
1614, 2103.00
1615, 2106.00
1616, 2106.00
1617, 2108.00
1618, 2110.00
1619, 2112.00
1620, 2113.00
1621, 2116.00
1622, 2117.00
1623, 2119.00
1624, 2121.00
1625, 2122.00
1626, 2124.00
1627, 2126.00
1628, 2127.00
1629, 2131.00
1630, 2130.00
1631, 2133.00
1632, 2135.00
1633, 2137.00
1634, 2137.00
1635, 2139.00
1636, 2140.00
1637, 2142.00
1638, 2144.00
1639, 2145.00
1640, 2148.00
1641, 2149.00
1642, 2150.00
1643, 2152.00
1644, 2152.00
1645, 2155.00
1646, 2155.00
1647, 2157.00
1648, 2159.00
1649, 2160.00
1650, 2162.00

1750, 2638.00
1751, 2638.00
1752, 2640.00
1753, 2640.00
1754, 2639.00
1755, 2640.00
1756, 2640.00
1757, 2640.00
1758, 2639.00
1759, 2638.00
1760, 2637.00
1761, 2639.00
1762, 2639.00
1763, 2638.00
1764, 2638.00
1765, 2640.00
1766, 2638.00
1767, 2637.00
1768, 2637.00
1769, 2637.00
1770, 2638.00
1771, 2636.00
1772, 2638.00
1773, 2634.00
1774, 2637.00
1775, 2634.00
1776, 2635.00
1777, 2634.00
1778, 2634.00
1779, 2632.00
1780, 2632.00
1781, 2633.00
1782, 2630.00
1783, 2631.00
1784, 2630.00
1785, 2631.00
1786, 2628.00
1787, 2629.00
1788, 2628.00
1789, 2627.00
1790, 2629.00
1791, 2624.00
1792, 2625.00
1793, 2623.00
1794, 2623.00
1795, 2624.00
1796, 2623.00
1797, 2624.00
1798, 2621.00
1799, 2621.00
1800, 2621.00
1801, 2620.00
1802, 2621.00
1803, 2619.00
1804, 2619.00
1805, 2616.00
1806, 2618.00
1807, 2617.00
1808, 2617.00
1809, 2616.00
1810, 2616.00
1811, 2614.00
1812, 2614.00
1813, 2612.00
1814, 2612.00
1815, 2611.00
1816, 2611.00
1817, 2610.00
1818, 2608.00
1819, 2608.00
1820, 2608.00
1821, 2605.00
1822, 2604.00
1823, 2602.00
1824, 2601.00
1825, 2602.00
1826, 2601.00
1827, 2598.00
1828, 2597.00
1829, 2596.00
1830, 2594.00
1831, 2592.00
1832, 2590.00
1833, 2588.00
1834, 2585.00
1835, 2585.00
1836, 2581.00
1837, 2581.00
1838, 2577.00
1839, 2575.00
1840, 2572.00
1841, 2570.00
1842, 2569.00
1843, 2565.00
1844, 2563.00
1845, 2559.00
1846, 2559.00
1847, 2555.00
1848, 2553.00
1849, 2549.00
1850, 2548.00
1851, 2544.00
1852, 2543.00
1853, 2540.00
1854, 2536.00
1855, 2533.00
1856, 2533.00
1857, 2529.00
1858, 2526.00
1859, 2524.00
1860, 2521.00
1861, 2517.00
1862, 2517.00
1863, 2514.00
1864, 2512.00
1865, 2509.00
1866, 2509.00
1867, 2507.00
1868, 2504.00
1869, 2504.00
1870, 2501.00
1871, 2500.00
1872, 2498.00
1873, 2498.00
1874, 2497.00
1875, 2493.00
1876, 2493.00
1877, 2490.00
1878, 2491.00
1879, 2489.00
1880, 2488.00
1881, 2487.00
1882, 2486.00
1883, 2486.00
1884, 2486.00
1885, 2485.00
1886, 2484.00
1887, 2483.00
1888, 2483.00
1889, 2481.00
1890, 2482.00
1891, 2478.00
1892, 2481.00
1893, 2482.00
1894, 2478.00
1895, 2478.00
1896, 2479.00
1897, 2478.00
1898, 2477.00
1899, 2475.00
1900, 2477.00
1901, 2476.00
1902, 2476.00
1903, 2476.00
1904, 2475.00
1905, 2474.00
1906, 2474.00
1907, 2474.00
1908, 2474.00
1909, 2473.00
1910, 2473.00
1911, 2472.00
1912, 2473.00
1913, 2473.00
1914, 2473.00
1915, 2472.00
1916, 2472.00
1917, 2473.00
1918, 2471.00
1919, 2472.00
1920, 2472.00
1921, 2472.00
1922, 2470.00
1923, 2472.00
1924, 2472.00
1925, 2472.00
1926, 2471.00
1927, 2471.00
1928, 2472.00
1929, 2472.00
1930, 2471.00
1931, 2472.00
1932, 2471.00
1933, 2471.00
1934, 2471.00
1935, 2470.00
1936, 2473.00
1937, 2471.00
1938, 2474.00
1939, 2471.00
1940, 2473.00
1941, 2473.00
1942, 2473.00
1943, 2473.00
1944, 2472.00
1945, 2474.00
1946, 2474.00
1947, 2473.00
1948, 2473.00
1949, 2474.00
1950, 2475.00
1951, 2476.00
1952, 2475.00
1953, 2478.00
1954, 2477.00
1955, 2477.00
1956, 2476.00
1957, 2476.00
1958, 2478.00
1959, 2479.00
1960, 2479.00
1961, 2480.00
1962, 2480.00
1963, 2479.00
1964, 2481.00
1965, 2481.00
1966, 2482.00
1967, 2482.00
1968, 2482.00
1969, 2483.00
1970, 2483.00
1971, 2484.00
1972, 2486.00
1973, 2486.00
1974, 2486.00
1975, 2484.00
1976, 2489.00
1977, 2488.00
1978, 2488.00
1979, 2490.00
1980, 2491.00
1981, 2489.00
1982, 2491.00
1983, 2492.00
1984, 2493.00
1985, 2493.00
1986, 2493.00
1987, 2492.00
1988, 2496.00
1989, 2494.00
1990, 2497.00
1991, 2495.00
1992, 2498.00
1993, 2496.00
1994, 2499.00
1995, 2497.00
1996, 2499.00
1997, 2501.00
1998, 2500.00
1999, 2501.00
2000, 2503.00
2001, 2502.00
2002, 2503.00
2003, 2505.00
2004, 2505.00
2005, 2505.00
2006, 2508.00
2007, 2506.00
2008, 2507.00
2009, 2507.00
2010, 2506.00
2011, 2508.00
2012, 2509.00
2013, 2509.00
2014, 2512.00
2015, 2510.00
2016, 2511.00
2017, 2511.00
2018, 2515.00
2019, 2512.00
2020, 2515.00
2021, 2515.00
2022, 2514.00
2023, 2516.00
2024, 2518.00
2025, 2516.00
2026, 2515.00
2027, 2519.00
2028, 2518.00
2029, 2521.00
2030, 2521.00
2031, 2520.00
2032, 2521.00
2033, 2524.00
2034, 2524.00
2035, 2523.00
2036, 2524.00
2037, 2525.00
2038, 2526.00
2039, 2526.00
2040, 2528.00
2041, 2530.00
2042, 2529.00
2043, 2531.00
2044, 2530.00
2045, 2531.00
2046, 2531.00
2047, 2534.00
2048, 2535.00
2049, 2535.00
2050, 2536.00
2051, 2535.00
2052, 2537.00
2053, 2539.00
2054, 2540.00
2055, 2540.00
2056, 2541.00
2057, 2542.00
2058, 2543.00
2059, 2544.00
2060, 2546.00
2061, 2547.00
2062, 2549.00
2063, 2548.00
2064, 2549.00
2065, 2551.00
2066, 2553.00
2067, 2554.00
2068, 2551.00
2069, 2555.00
2070, 2555.00
2071, 2558.00
2072, 2557.00
2073, 2558.00
2074, 2558.00
2075, 2559.00
2076, 2561.00
2077, 2562.00
2078, 2563.00
2079, 2564.00
2080, 2565.00
2081, 2566.00
2082, 2565.00
2083, 2565.00
2084, 2565.00
2085, 2569.00
2086, 2568.00
2087, 2568.00
2088, 2570.00
2089, 2569.00
2090, 2571.00
2091, 2572.00
2092, 2573.00
2093, 2572.00
2094, 2574.00
2095, 2574.00
2096, 2576.00
2097, 2575.00
2098, 2576.00
2099, 2577.00
2100, 2577.00
2101, 2580.00
2102, 2578.00
2103, 2579.00
2104, 2580.00
2105, 2581.00
2106, 2581.00
2107, 2580.00
2108, 2580.00
2109, 2583.00
2110, 2583.00
2111, 2584.00
2112, 2583.00
2113, 2585.00
2114, 2585.00
2115, 2585.00
2116, 2585.00
2117, 2587.00
2118, 2585.00
2119, 2587.00
2120, 2589.00
2121, 2586.00
2122, 2591.00
2123, 2589.00
2124, 2588.00
2125, 2590.00
2126, 2588.00
2127, 2589.00
2128, 2590.00
2129, 2592.00
2130, 2592.00
2131, 2593.00
2132, 2592.00
2133, 2592.00
2134, 2592.00
2135, 2592.00
2136, 2594.00
2137, 2595.00
2138, 2593.00
2139, 2593.00
2140, 2596.00
2141, 2594.00
2142, 2595.00
2143, 2594.00
2144, 2593.00
2145, 2596.00
2146, 2597.00
2147, 2596.00
2148, 2595.00
2149, 2598.00
2150, 2596.00
