FW version: 24
Log Version: 3.0.3

General Info:
       Command/Macro Performed,            Timestamp,             Device ID, COM Port, UART/I2C, Test Name, Host Major, Host Minor, Host Revision, Host Git Commit
            Single_measurement,  2023_06_28_12_16_47,       Insight2_F4_xxx,    USB-C,      USB,          ,          0,          1,             1,      4031237645

Show Spectrometer Status:
l0_version, f4_version, battery_perc, battery_mVolt, accelerometer_temp, accelerometer_x, accelerometer_y, accelerometer_z, compass_temp, compass_x, compass_y, compass_z, lamp_0, lamp_1, gain_0, gain_1
        17,         24,           49,          1906,               6608,           65200,            1104,           18800,            0,     65535,     65532,     18815,   2866,   2866,      1,      1

Temperature Statistic Info:
NTC AVG [°C], NTC2 AVG [°C]
      40.529,        40.203

Statistic Info:
M1:  num,      min,      max,   median,      AVG,      STD,M2:  num,      min,      max,   median,      AVG,      STD
     301,  1365.00,  1569.00,  1408.00,  1432.16,  63.2524,     401,  1870.00,  1992.00,  1921.00,  1924.34,  39.5937,

Measurements:
Wavelength, Data Amplitude
1350, 1399.00
1351, 1398.00
1352, 1397.00
1353, 1398.00
1354, 1396.00
1355, 1395.00
1356, 1396.00
1357, 1395.00
1358, 1394.00
1359, 1394.00
1360, 1392.00
1361, 1392.00
1362, 1393.00
1363, 1390.00
1364, 1388.00
1365, 1387.00
1366, 1387.00
1367, 1387.00
1368, 1386.00
1369, 1383.00
1370, 1383.00
1371, 1382.00
1372, 1381.00
1373, 1380.00
1374, 1381.00
1375, 1379.00
1376, 1379.00
1377, 1377.00
1378, 1376.00
1379, 1376.00
1380, 1376.00
1381, 1375.00
1382, 1374.00
1383, 1373.00
1384, 1373.00
1385, 1372.00
1386, 1372.00
1387, 1371.00
1388, 1371.00
1389, 1370.00
1390, 1371.00
1391, 1371.00
1392, 1370.00
1393, 1369.00
1394, 1369.00
1395, 1368.00
1396, 1369.00
1397, 1369.00
1398, 1368.00
1399, 1368.00
1400, 1366.00
1401, 1367.00
1402, 1368.00
1403, 1367.00
1404, 1367.00
1405, 1367.00
1406, 1365.00
1407, 1366.00
1408, 1366.00
1409, 1365.00
1410, 1367.00
1411, 1366.00
1412, 1366.00
1413, 1366.00
1414, 1367.00
1415, 1366.00
1416, 1366.00
1417, 1366.00
1418, 1365.00
1419, 1366.00
1420, 1366.00
1421, 1365.00
1422, 1366.00
1423, 1366.00
1424, 1367.00
1425, 1367.00
1426, 1366.00
1427, 1366.00
1428, 1366.00
1429, 1367.00
1430, 1367.00
1431, 1367.00
1432, 1368.00
1433, 1367.00
1434, 1367.00
1435, 1367.00
1436, 1369.00
1437, 1368.00
1438, 1368.00
1439, 1370.00
1440, 1369.00
1441, 1370.00
1442, 1371.00
1443, 1370.00
1444, 1371.00
1445, 1372.00
1446, 1372.00
1447, 1372.00
1448, 1373.00
1449, 1373.00
1450, 1373.00
1451, 1374.00
1452, 1374.00
1453, 1375.00
1454, 1375.00
1455, 1375.00
1456, 1376.00
1457, 1377.00
1458, 1377.00
1459, 1377.00
1460, 1378.00
1461, 1379.00
1462, 1379.00
1463, 1380.00
1464, 1381.00
1465, 1381.00
1466, 1382.00
1467, 1383.00
1468, 1383.00
1469, 1383.00
1470, 1385.00
1471, 1385.00
1472, 1386.00
1473, 1387.00
1474, 1387.00
1475, 1388.00
1476, 1390.00
1477, 1389.00
1478, 1390.00
1479, 1391.00
1480, 1392.00
1481, 1392.00
1482, 1394.00
1483, 1394.00
1484, 1395.00
1485, 1395.00
1486, 1396.00
1487, 1398.00
1488, 1398.00
1489, 1398.00
1490, 1400.00
1491, 1400.00
1492, 1401.00
1493, 1402.00
1494, 1401.00
1495, 1404.00
1496, 1404.00
1497, 1405.00
1498, 1406.00
1499, 1408.00
1500, 1408.00
1501, 1409.00
1502, 1410.00
1503, 1410.00
1504, 1411.00
1505, 1414.00
1506, 1414.00
1507, 1415.00
1508, 1414.00
1509, 1417.00
1510, 1417.00
1511, 1418.00
1512, 1418.00
1513, 1420.00
1514, 1420.00
1515, 1421.00
1516, 1422.00
1517, 1424.00
1518, 1424.00
1519, 1425.00
1520, 1426.00
1521, 1426.00
1522, 1429.00
1523, 1429.00
1524, 1430.00
1525, 1432.00
1526, 1432.00
1527, 1433.00
1528, 1434.00
1529, 1435.00
1530, 1436.00
1531, 1436.00
1532, 1438.00
1533, 1439.00
1534, 1441.00
1535, 1440.00
1536, 1442.00
1537, 1444.00
1538, 1444.00
1539, 1444.00
1540, 1445.00
1541, 1448.00
1542, 1449.00
1543, 1449.00
1544, 1450.00
1545, 1453.00
1546, 1453.00
1547, 1453.00
1548, 1455.00
1549, 1456.00
1550, 1457.00
1551, 1458.00
1552, 1458.00
1553, 1460.00
1554, 1461.00
1555, 1462.00
1556, 1463.00
1557, 1464.00
1558, 1465.00
1559, 1467.00
1560, 1467.00
1561, 1467.00
1562, 1469.00
1563, 1470.00
1564, 1471.00
1565, 1473.00
1566, 1474.00
1567, 1475.00
1568, 1477.00
1569, 1478.00
1570, 1479.00
1571, 1480.00
1572, 1481.00
1573, 1482.00
1574, 1483.00
1575, 1484.00
1576, 1485.00
1577, 1486.00
1578, 1487.00
1579, 1488.00
1580, 1490.00
1581, 1490.00
1582, 1491.00
1583, 1492.00
1584, 1493.00
1585, 1494.00
1586, 1495.00
1587, 1496.00
1588, 1498.00
1589, 1498.00
1590, 1499.00
1591, 1501.00
1592, 1502.00
1593, 1503.00
1594, 1503.00
1595, 1503.00
1596, 1505.00
1597, 1507.00
1598, 1506.00
1599, 1509.00
1600, 1509.00
1601, 1510.00
1602, 1511.00
1603, 1512.00
1604, 1514.00
1605, 1516.00
1606, 1516.00
1607, 1517.00
1608, 1519.00
1609, 1519.00
1610, 1521.00
1611, 1522.00
1612, 1524.00
1613, 1525.00
1614, 1526.00
1615, 1528.00
1616, 1529.00
1617, 1530.00
1618, 1531.00
1619, 1533.00
1620, 1534.00
1621, 1535.00
1622, 1537.00
1623, 1538.00
1624, 1539.00
1625, 1540.00
1626, 1542.00
1627, 1543.00
1628, 1545.00
1629, 1545.00
1630, 1548.00
1631, 1547.00
1632, 1550.00
1633, 1551.00
1634, 1552.00
1635, 1552.00
1636, 1553.00
1637, 1554.00
1638, 1555.00
1639, 1557.00
1640, 1557.00
1641, 1559.00
1642, 1559.00
1643, 1561.00
1644, 1561.00
1645, 1562.00
1646, 1564.00
1647, 1565.00
1648, 1566.00
1649, 1569.00
1650, 1569.00

1750, 1991.00
1751, 1991.00
1752, 1990.00
1753, 1989.00
1754, 1990.00
1755, 1992.00
1756, 1990.00
1757, 1991.00
1758, 1991.00
1759, 1990.00
1760, 1990.00
1761, 1991.00
1762, 1990.00
1763, 1990.00
1764, 1991.00
1765, 1989.00
1766, 1987.00
1767, 1989.00
1768, 1989.00
1769, 1989.00
1770, 1988.00
1771, 1987.00
1772, 1986.00
1773, 1987.00
1774, 1988.00
1775, 1985.00
1776, 1985.00
1777, 1985.00
1778, 1987.00
1779, 1985.00
1780, 1985.00
1781, 1985.00
1782, 1984.00
1783, 1983.00
1784, 1983.00
1785, 1985.00
1786, 1983.00
1787, 1982.00
1788, 1983.00
1789, 1982.00
1790, 1980.00
1791, 1982.00
1792, 1980.00
1793, 1981.00
1794, 1980.00
1795, 1980.00
1796, 1981.00
1797, 1977.00
1798, 1977.00
1799, 1977.00
1800, 1978.00
1801, 1976.00
1802, 1976.00
1803, 1976.00
1804, 1975.00
1805, 1975.00
1806, 1975.00
1807, 1972.00
1808, 1974.00
1809, 1974.00
1810, 1971.00
1811, 1973.00
1812, 1971.00
1813, 1972.00
1814, 1970.00
1815, 1969.00
1816, 1971.00
1817, 1969.00
1818, 1971.00
1819, 1969.00
1820, 1967.00
1821, 1966.00
1822, 1968.00
1823, 1964.00
1824, 1963.00
1825, 1962.00
1826, 1961.00
1827, 1962.00
1828, 1961.00
1829, 1959.00
1830, 1957.00
1831, 1957.00
1832, 1956.00
1833, 1955.00
1834, 1954.00
1835, 1953.00
1836, 1949.00
1837, 1947.00
1838, 1945.00
1839, 1946.00
1840, 1944.00
1841, 1941.00
1842, 1940.00
1843, 1939.00
1844, 1935.00
1845, 1936.00
1846, 1933.00
1847, 1930.00
1848, 1928.00
1849, 1927.00
1850, 1925.00
1851, 1923.00
1852, 1920.00
1853, 1918.00
1854, 1919.00
1855, 1915.00
1856, 1913.00
1857, 1913.00
1858, 1911.00
1859, 1908.00
1860, 1907.00
1861, 1903.00
1862, 1904.00
1863, 1902.00
1864, 1899.00
1865, 1898.00
1866, 1898.00
1867, 1896.00
1868, 1896.00
1869, 1894.00
1870, 1893.00
1871, 1892.00
1872, 1890.00
1873, 1891.00
1874, 1890.00
1875, 1887.00
1876, 1888.00
1877, 1888.00
1878, 1886.00
1879, 1884.00
1880, 1886.00
1881, 1883.00
1882, 1883.00
1883, 1882.00
1884, 1880.00
1885, 1881.00
1886, 1882.00
1887, 1880.00
1888, 1879.00
1889, 1880.00
1890, 1881.00
1891, 1879.00
1892, 1879.00
1893, 1879.00
1894, 1878.00
1895, 1877.00
1896, 1878.00
1897, 1877.00
1898, 1878.00
1899, 1878.00
1900, 1876.00
1901, 1875.00
1902, 1876.00
1903, 1875.00
1904, 1875.00
1905, 1875.00
1906, 1873.00
1907, 1875.00
1908, 1873.00
1909, 1872.00
1910, 1875.00
1911, 1871.00
1912, 1873.00
1913, 1873.00
1914, 1873.00
1915, 1873.00
1916, 1872.00
1917, 1872.00
1918, 1872.00
1919, 1872.00
1920, 1870.00
1921, 1871.00
1922, 1872.00
1923, 1870.00
1924, 1870.00
1925, 1872.00
1926, 1873.00
1927, 1872.00
1928, 1871.00
1929, 1870.00
1930, 1872.00
1931, 1872.00
1932, 1871.00
1933, 1874.00
1934, 1871.00
1935, 1873.00
1936, 1872.00
1937, 1872.00
1938, 1872.00
1939, 1873.00
1940, 1872.00
1941, 1873.00
1942, 1870.00
1943, 1873.00
1944, 1875.00
1945, 1874.00
1946, 1874.00
1947, 1873.00
1948, 1876.00
1949, 1874.00
1950, 1875.00
1951, 1876.00
1952, 1877.00
1953, 1875.00
1954, 1877.00
1955, 1878.00
1956, 1879.00
1957, 1877.00
1958, 1878.00
1959, 1879.00
1960, 1878.00
1961, 1879.00
1962, 1878.00
1963, 1877.00
1964, 1881.00
1965, 1879.00
1966, 1879.00
1967, 1879.00
1968, 1881.00
1969, 1881.00
1970, 1879.00
1971, 1882.00
1972, 1882.00
1973, 1884.00
1974, 1883.00
1975, 1885.00
1976, 1883.00
1977, 1884.00
1978, 1886.00
1979, 1885.00
1980, 1885.00
1981, 1885.00
1982, 1886.00
1983, 1885.00
1984, 1888.00
1985, 1889.00
1986, 1888.00
1987, 1888.00
1988, 1889.00
1989, 1891.00
1990, 1890.00
1991, 1890.00
1992, 1892.00
1993, 1891.00
1994, 1891.00
1995, 1893.00
1996, 1893.00
1997, 1894.00
1998, 1894.00
1999, 1894.00
2000, 1894.00
2001, 1895.00
2002, 1895.00
2003, 1895.00
2004, 1897.00
2005, 1897.00
2006, 1897.00
2007, 1897.00
2008, 1900.00
2009, 1897.00
2010, 1898.00
2011, 1899.00
2012, 1899.00
2013, 1901.00
2014, 1903.00
2015, 1901.00
2016, 1903.00
2017, 1900.00
2018, 1902.00
2019, 1903.00
2020, 1903.00
2021, 1903.00
2022, 1904.00
2023, 1906.00
2024, 1908.00
2025, 1905.00
2026, 1906.00
2027, 1907.00
2028, 1907.00
2029, 1907.00
2030, 1909.00
2031, 1907.00
2032, 1909.00
2033, 1910.00
2034, 1910.00
2035, 1909.00
2036, 1910.00
2037, 1911.00
2038, 1912.00
2039, 1913.00
2040, 1914.00
2041, 1914.00
2042, 1914.00
2043, 1913.00
2044, 1916.00
2045, 1915.00
2046, 1917.00
2047, 1917.00
2048, 1917.00
2049, 1919.00
2050, 1921.00
2051, 1919.00
2052, 1921.00
2053, 1919.00
2054, 1922.00
2055, 1925.00
2056, 1925.00
2057, 1924.00
2058, 1926.00
2059, 1926.00
2060, 1927.00
2061, 1927.00
2062, 1928.00
2063, 1927.00
2064, 1930.00
2065, 1929.00
2066, 1929.00
2067, 1932.00
2068, 1933.00
2069, 1932.00
2070, 1933.00
2071, 1932.00
2072, 1931.00
2073, 1935.00
2074, 1935.00
2075, 1935.00
2076, 1939.00
2077, 1937.00
2078, 1939.00
2079, 1940.00
2080, 1940.00
2081, 1938.00
2082, 1942.00
2083, 1942.00
2084, 1943.00
2085, 1941.00
2086, 1945.00
2087, 1944.00
2088, 1944.00
2089, 1946.00
2090, 1946.00
2091, 1948.00
2092, 1947.00
2093, 1945.00
2094, 1948.00
2095, 1946.00
2096, 1949.00
2097, 1947.00
2098, 1949.00
2099, 1949.00
2100, 1950.00
2101, 1949.00
2102, 1951.00
2103, 1951.00
2104, 1952.00
2105, 1953.00
2106, 1952.00
2107, 1951.00
2108, 1954.00
2109, 1953.00
2110, 1955.00
2111, 1953.00
2112, 1955.00
2113, 1955.00
2114, 1957.00
2115, 1955.00
2116, 1955.00
2117, 1957.00
2118, 1957.00
2119, 1957.00
2120, 1956.00
2121, 1957.00
2122, 1955.00
2123, 1957.00
2124, 1959.00
2125, 1956.00
2126, 1957.00
2127, 1960.00
2128, 1959.00
2129, 1961.00
2130, 1959.00
2131, 1960.00
2132, 1959.00
2133, 1961.00
2134, 1961.00
2135, 1960.00
2136, 1962.00
2137, 1962.00
2138, 1964.00
2139, 1963.00
2140, 1964.00
2141, 1964.00
2142, 1965.00
2143, 1964.00
2144, 1963.00
2145, 1964.00
2146, 1964.00
2147, 1964.00
2148, 1962.00
2149, 1963.00
2150, 1964.00
