FW version: 24
Log Version: 3.0.3

General Info:
       Command/Macro Performed,            Timestamp,             Device ID, COM Port, UART/I2C, Test Name, Host Major, Host Minor, Host Revision, Host Git Commit
            Single_measurement,  2023_06_28_12_16_20,       Insight2_F4_xxx,    USB-C,      USB,          ,          0,          1,             1,      4031237645

Show Spectrometer Status:
l0_version, f4_version, battery_perc, battery_mVolt, accelerometer_temp, accelerometer_x, accelerometer_y, accelerometer_z, compass_temp, compass_x, compass_y, compass_z, lamp_0, lamp_1, gain_0, gain_1
        17,         24,           49,          1907,               6576,           65172,            1104,           18712,            0,     65495,     65532,     18712,   2457,   2457,      1,      1

Temperature Statistic Info:
NTC AVG [°C], NTC2 AVG [°C]
      40.292,        39.995

Statistic Info:
M1:  num,      min,      max,   median,      AVG,      STD,M2:  num,      min,      max,   median,      AVG,      STD
     301,  1013.00,  1172.00,  1048.00,  1066.05,  49.0120,     401,  1448.00,  1543.00,  1488.00,  1490.73,  31.0444,

Measurements:
Wavelength, Data Amplitude
1350, 1038.00
1351, 1038.00
1352, 1037.00
1353, 1037.00
1354, 1037.00
1355, 1037.00
1356, 1037.00
1357, 1035.00
1358, 1035.00
1359, 1034.00
1360, 1034.00
1361, 1034.00
1362, 1032.00
1363, 1032.00
1364, 1032.00
1365, 1031.00
1366, 1030.00
1367, 1030.00
1368, 1028.00
1369, 1028.00
1370, 1029.00
1371, 1027.00
1372, 1026.00
1373, 1025.00
1374, 1025.00
1375, 1025.00
1376, 1024.00
1377, 1023.00
1378, 1021.00
1379, 1022.00
1380, 1021.00
1381, 1021.00
1382, 1020.00
1383, 1020.00
1384, 1018.00
1385, 1018.00
1386, 1019.00
1387, 1018.00
1388, 1018.00
1389, 1018.00
1390, 1017.00
1391, 1017.00
1392, 1017.00
1393, 1017.00
1394, 1017.00
1395, 1016.00
1396, 1017.00
1397, 1016.00
1398, 1016.00
1399, 1015.00
1400, 1015.00
1401, 1015.00
1402, 1015.00
1403, 1015.00
1404, 1015.00
1405, 1015.00
1406, 1016.00
1407, 1015.00
1408, 1015.00
1409, 1014.00
1410, 1015.00
1411, 1015.00
1412, 1015.00
1413, 1015.00
1414, 1014.00
1415, 1013.00
1416, 1015.00
1417, 1015.00
1418, 1014.00
1419, 1015.00
1420, 1015.00
1421, 1014.00
1422, 1015.00
1423, 1015.00
1424, 1015.00
1425, 1015.00
1426, 1015.00
1427, 1015.00
1428, 1015.00
1429, 1015.00
1430, 1015.00
1431, 1015.00
1432, 1015.00
1433, 1016.00
1434, 1017.00
1435, 1017.00
1436, 1016.00
1437, 1016.00
1438, 1018.00
1439, 1017.00
1440, 1018.00
1441, 1019.00
1442, 1018.00
1443, 1018.00
1444, 1018.00
1445, 1019.00
1446, 1019.00
1447, 1019.00
1448, 1020.00
1449, 1020.00
1450, 1020.00
1451, 1021.00
1452, 1022.00
1453, 1021.00
1454, 1022.00
1455, 1024.00
1456, 1024.00
1457, 1023.00
1458, 1024.00
1459, 1024.00
1460, 1025.00
1461, 1025.00
1462, 1026.00
1463, 1026.00
1464, 1026.00
1465, 1027.00
1466, 1028.00
1467, 1029.00
1468, 1028.00
1469, 1028.00
1470, 1029.00
1471, 1031.00
1472, 1030.00
1473, 1032.00
1474, 1031.00
1475, 1032.00
1476, 1033.00
1477, 1032.00
1478, 1034.00
1479, 1035.00
1480, 1035.00
1481, 1036.00
1482, 1037.00
1483, 1038.00
1484, 1038.00
1485, 1038.00
1486, 1040.00
1487, 1039.00
1488, 1040.00
1489, 1040.00
1490, 1041.00
1491, 1042.00
1492, 1041.00
1493, 1043.00
1494, 1044.00
1495, 1044.00
1496, 1046.00
1497, 1047.00
1498, 1047.00
1499, 1047.00
1500, 1048.00
1501, 1048.00
1502, 1050.00
1503, 1050.00
1504, 1051.00
1505, 1051.00
1506, 1051.00
1507, 1053.00
1508, 1053.00
1509, 1054.00
1510, 1056.00
1511, 1056.00
1512, 1057.00
1513, 1058.00
1514, 1059.00
1515, 1058.00
1516, 1060.00
1517, 1060.00
1518, 1061.00
1519, 1062.00
1520, 1062.00
1521, 1063.00
1522, 1063.00
1523, 1064.00
1524, 1065.00
1525, 1066.00
1526, 1067.00
1527, 1067.00
1528, 1069.00
1529, 1069.00
1530, 1070.00
1531, 1069.00
1532, 1072.00
1533, 1072.00
1534, 1073.00
1535, 1074.00
1536, 1075.00
1537, 1075.00
1538, 1076.00
1539, 1077.00
1540, 1077.00
1541, 1079.00
1542, 1079.00
1543, 1080.00
1544, 1080.00
1545, 1082.00
1546, 1083.00
1547, 1083.00
1548, 1085.00
1549, 1084.00
1550, 1085.00
1551, 1086.00
1552, 1087.00
1553, 1088.00
1554, 1088.00
1555, 1091.00
1556, 1090.00
1557, 1091.00
1558, 1091.00
1559, 1093.00
1560, 1094.00
1561, 1094.00
1562, 1096.00
1563, 1096.00
1564, 1098.00
1565, 1098.00
1566, 1099.00
1567, 1099.00
1568, 1100.00
1569, 1102.00
1570, 1103.00
1571, 1103.00
1572, 1104.00
1573, 1105.00
1574, 1105.00
1575, 1107.00
1576, 1107.00
1577, 1108.00
1578, 1109.00
1579, 1109.00
1580, 1109.00
1581, 1110.00
1582, 1111.00
1583, 1112.00
1584, 1113.00
1585, 1114.00
1586, 1115.00
1587, 1114.00
1588, 1116.00
1589, 1117.00
1590, 1118.00
1591, 1119.00
1592, 1120.00
1593, 1120.00
1594, 1122.00
1595, 1121.00
1596, 1123.00
1597, 1123.00
1598, 1124.00
1599, 1126.00
1600, 1126.00
1601, 1125.00
1602, 1126.00
1603, 1129.00
1604, 1130.00
1605, 1131.00
1606, 1132.00
1607, 1132.00
1608, 1133.00
1609, 1134.00
1610, 1135.00
1611, 1136.00
1612, 1137.00
1613, 1137.00
1614, 1139.00
1615, 1139.00
1616, 1141.00
1617, 1142.00
1618, 1143.00
1619, 1144.00
1620, 1145.00
1621, 1145.00
1622, 1148.00
1623, 1147.00
1624, 1149.00
1625, 1149.00
1626, 1151.00
1627, 1152.00
1628, 1153.00
1629, 1154.00
1630, 1154.00
1631, 1155.00
1632, 1156.00
1633, 1156.00
1634, 1158.00
1635, 1158.00
1636, 1160.00
1637, 1161.00
1638, 1162.00
1639, 1162.00
1640, 1163.00
1641, 1163.00
1642, 1164.00
1643, 1166.00
1644, 1166.00
1645, 1166.00
1646, 1168.00
1647, 1168.00
1648, 1169.00
1649, 1171.00
1650, 1172.00

1750, 1542.00
1751, 1541.00
1752, 1542.00
1753, 1541.00
1754, 1542.00
1755, 1541.00
1756, 1541.00
1757, 1542.00
1758, 1541.00
1759, 1541.00
1760, 1543.00
1761, 1540.00
1762, 1543.00
1763, 1541.00
1764, 1539.00
1765, 1541.00
1766, 1541.00
1767, 1541.00
1768, 1539.00
1769, 1540.00
1770, 1540.00
1771, 1538.00
1772, 1539.00
1773, 1538.00
1774, 1541.00
1775, 1539.00
1776, 1538.00
1777, 1537.00
1778, 1537.00
1779, 1537.00
1780, 1537.00
1781, 1536.00
1782, 1536.00
1783, 1535.00
1784, 1536.00
1785, 1535.00
1786, 1536.00
1787, 1535.00
1788, 1535.00
1789, 1535.00
1790, 1534.00
1791, 1533.00
1792, 1534.00
1793, 1534.00
1794, 1532.00
1795, 1534.00
1796, 1532.00
1797, 1533.00
1798, 1531.00
1799, 1531.00
1800, 1532.00
1801, 1531.00
1802, 1530.00
1803, 1530.00
1804, 1531.00
1805, 1530.00
1806, 1529.00
1807, 1530.00
1808, 1529.00
1809, 1528.00
1810, 1529.00
1811, 1528.00
1812, 1527.00
1813, 1529.00
1814, 1525.00
1815, 1526.00
1816, 1526.00
1817, 1524.00
1818, 1525.00
1819, 1525.00
1820, 1526.00
1821, 1524.00
1822, 1524.00
1823, 1523.00
1824, 1522.00
1825, 1521.00
1826, 1520.00
1827, 1520.00
1828, 1519.00
1829, 1518.00
1830, 1516.00
1831, 1515.00
1832, 1512.00
1833, 1513.00
1834, 1510.00
1835, 1512.00
1836, 1511.00
1837, 1508.00
1838, 1507.00
1839, 1507.00
1840, 1506.00
1841, 1503.00
1842, 1503.00
1843, 1500.00
1844, 1499.00
1845, 1498.00
1846, 1496.00
1847, 1498.00
1848, 1494.00
1849, 1493.00
1850, 1491.00
1851, 1490.00
1852, 1488.00
1853, 1486.00
1854, 1485.00
1855, 1484.00
1856, 1482.00
1857, 1481.00
1858, 1482.00
1859, 1479.00
1860, 1477.00
1861, 1476.00
1862, 1475.00
1863, 1472.00
1864, 1471.00
1865, 1470.00
1866, 1471.00
1867, 1468.00
1868, 1468.00
1869, 1467.00
1870, 1465.00
1871, 1465.00
1872, 1466.00
1873, 1464.00
1874, 1462.00
1875, 1463.00
1876, 1461.00
1877, 1461.00
1878, 1461.00
1879, 1460.00
1880, 1457.00
1881, 1460.00
1882, 1458.00
1883, 1458.00
1884, 1457.00
1885, 1456.00
1886, 1457.00
1887, 1457.00
1888, 1456.00
1889, 1454.00
1890, 1455.00
1891, 1454.00
1892, 1452.00
1893, 1453.00
1894, 1454.00
1895, 1454.00
1896, 1453.00
1897, 1453.00
1898, 1452.00
1899, 1452.00
1900, 1453.00
1901, 1452.00
1902, 1451.00
1903, 1450.00
1904, 1452.00
1905, 1450.00
1906, 1450.00
1907, 1452.00
1908, 1451.00
1909, 1451.00
1910, 1450.00
1911, 1451.00
1912, 1451.00
1913, 1450.00
1914, 1451.00
1915, 1451.00
1916, 1449.00
1917, 1449.00
1918, 1450.00
1919, 1451.00
1920, 1450.00
1921, 1449.00
1922, 1449.00
1923, 1449.00
1924, 1450.00
1925, 1450.00
1926, 1449.00
1927, 1450.00
1928, 1449.00
1929, 1449.00
1930, 1449.00
1931, 1449.00
1932, 1450.00
1933, 1450.00
1934, 1450.00
1935, 1449.00
1936, 1448.00
1937, 1449.00
1938, 1450.00
1939, 1450.00
1940, 1451.00
1941, 1451.00
1942, 1450.00
1943, 1451.00
1944, 1449.00
1945, 1451.00
1946, 1453.00
1947, 1450.00
1948, 1452.00
1949, 1452.00
1950, 1452.00
1951, 1452.00
1952, 1452.00
1953, 1452.00
1954, 1452.00
1955, 1452.00
1956, 1453.00
1957, 1453.00
1958, 1454.00
1959, 1454.00
1960, 1455.00
1961, 1454.00
1962, 1455.00
1963, 1455.00
1964, 1455.00
1965, 1456.00
1966, 1456.00
1967, 1457.00
1968, 1456.00
1969, 1457.00
1970, 1456.00
1971, 1459.00
1972, 1457.00
1973, 1457.00
1974, 1458.00
1975, 1458.00
1976, 1461.00
1977, 1460.00
1978, 1460.00
1979, 1459.00
1980, 1462.00
1981, 1462.00
1982, 1460.00
1983, 1460.00
1984, 1461.00
1985, 1460.00
1986, 1461.00
1987, 1462.00
1988, 1463.00
1989, 1465.00
1990, 1466.00
1991, 1462.00
1992, 1464.00
1993, 1464.00
1994, 1466.00
1995, 1466.00
1996, 1466.00
1997, 1466.00
1998, 1467.00
1999, 1466.00
2000, 1466.00
2001, 1467.00
2002, 1469.00
2003, 1468.00
2004, 1468.00
2005, 1469.00
2006, 1472.00
2007, 1469.00
2008, 1471.00
2009, 1472.00
2010, 1469.00
2011, 1471.00
2012, 1469.00
2013, 1470.00
2014, 1470.00
2015, 1472.00
2016, 1472.00
2017, 1473.00
2018, 1474.00
2019, 1473.00
2020, 1475.00
2021, 1476.00
2022, 1475.00
2023, 1475.00
2024, 1476.00
2025, 1476.00
2026, 1477.00
2027, 1477.00
2028, 1479.00
2029, 1478.00
2030, 1480.00
2031, 1479.00
2032, 1481.00
2033, 1478.00
2034, 1480.00
2035, 1480.00
2036, 1480.00
2037, 1483.00
2038, 1481.00
2039, 1484.00
2040, 1481.00
2041, 1485.00
2042, 1482.00
2043, 1484.00
2044, 1485.00
2045, 1485.00
2046, 1486.00
2047, 1486.00
2048, 1487.00
2049, 1486.00
2050, 1487.00
2051, 1486.00
2052, 1488.00
2053, 1490.00
2054, 1488.00
2055, 1490.00
2056, 1490.00
2057, 1490.00
2058, 1493.00
2059, 1491.00
2060, 1492.00
2061, 1493.00
2062, 1492.00
2063, 1495.00
2064, 1496.00
2065, 1496.00
2066, 1495.00
2067, 1497.00
2068, 1495.00
2069, 1497.00
2070, 1499.00
2071, 1500.00
2072, 1499.00
2073, 1500.00
2074, 1501.00
2075, 1501.00
2076, 1503.00
2077, 1499.00
2078, 1503.00
2079, 1502.00
2080, 1503.00
2081, 1505.00
2082, 1504.00
2083, 1505.00
2084, 1506.00
2085, 1506.00
2086, 1505.00
2087, 1507.00
2088, 1506.00
2089, 1508.00
2090, 1508.00
2091, 1508.00
2092, 1508.00
2093, 1509.00
2094, 1510.00
2095, 1511.00
2096, 1511.00
2097, 1511.00
2098, 1513.00
2099, 1511.00
2100, 1512.00
2101, 1514.00
2102, 1513.00
2103, 1512.00
2104, 1513.00
2105, 1514.00
2106, 1514.00
2107, 1515.00
2108, 1514.00
2109, 1514.00
2110, 1514.00
2111, 1515.00
2112, 1516.00
2113, 1515.00
2114, 1515.00
2115, 1518.00
2116, 1516.00
2117, 1516.00
2118, 1518.00
2119, 1517.00
2120, 1519.00
2121, 1518.00
2122, 1518.00
2123, 1517.00
2124, 1518.00
2125, 1518.00
2126, 1518.00
2127, 1520.00
2128, 1520.00
2129, 1519.00
2130, 1520.00
2131, 1521.00
2132, 1520.00
2133, 1522.00
2134, 1521.00
2135, 1519.00
2136, 1523.00
2137, 1520.00
2138, 1521.00
2139, 1521.00
2140, 1523.00
2141, 1523.00
2142, 1522.00
2143, 1524.00
2144, 1524.00
2145, 1523.00
2146, 1522.00
2147, 1523.00
2148, 1523.00
2149, 1524.00
2150, 1526.00
