FW version: 24
Log Version: 3.0.3

General Info:
       Command/Macro Performed,            Timestamp,             Device ID, COM Port, UART/I2C, Test Name, Host Major, Host Minor, Host Revision, Host Git Commit
            Single_measurement,  2023_06_28_12_17_02,       Insight2_F4_xxx,    USB-C,      USB,          ,          0,          1,             1,      4031237645

Show Spectrometer Status:
l0_version, f4_version, battery_perc, battery_mVolt, accelerometer_temp, accelerometer_x, accelerometer_y, accelerometer_z, compass_temp, compass_x, compass_y, compass_z, lamp_0, lamp_1, gain_0, gain_1
        17,         24,           49,          1904,               6624,           65200,            1096,           18784,            0,     65522,     65515,     18808,   3276,   3276,      1,      1

Temperature Statistic Info:
NTC AVG [°C], NTC2 AVG [°C]
      40.646,        40.352

Statistic Info:
M1:  num,      min,      max,   median,      AVG,      STD,M2:  num,      min,      max,   median,      AVG,      STD
     301,  1754.00,  2006.00,  1807.00,  1836.99,  78.4405,     401,  2321.00,  2472.00,  2382.00,  2386.76,  48.7245,

Measurements:
Wavelength, Data Amplitude
1350, 1798.00
1351, 1799.00
1352, 1797.00
1353, 1797.00
1354, 1795.00
1355, 1794.00
1356, 1793.00
1357, 1793.00
1358, 1791.00
1359, 1790.00
1360, 1790.00
1361, 1789.00
1362, 1788.00
1363, 1786.00
1364, 1784.00
1365, 1784.00
1366, 1783.00
1367, 1782.00
1368, 1779.00
1369, 1779.00
1370, 1778.00
1371, 1776.00
1372, 1775.00
1373, 1774.00
1374, 1773.00
1375, 1773.00
1376, 1772.00
1377, 1770.00
1378, 1769.00
1379, 1769.00
1380, 1767.00
1381, 1766.00
1382, 1766.00
1383, 1766.00
1384, 1764.00
1385, 1763.00
1386, 1762.00
1387, 1762.00
1388, 1761.00
1389, 1761.00
1390, 1760.00
1391, 1759.00
1392, 1760.00
1393, 1760.00
1394, 1758.00
1395, 1758.00
1396, 1758.00
1397, 1758.00
1398, 1757.00
1399, 1756.00
1400, 1756.00
1401, 1757.00
1402, 1756.00
1403, 1757.00
1404, 1756.00
1405, 1757.00
1406, 1756.00
1407, 1756.00
1408, 1755.00
1409, 1755.00
1410, 1754.00
1411, 1755.00
1412, 1755.00
1413, 1755.00
1414, 1754.00
1415, 1756.00
1416, 1754.00
1417, 1754.00
1418, 1754.00
1419, 1755.00
1420, 1754.00
1421, 1754.00
1422, 1755.00
1423, 1755.00
1424, 1756.00
1425, 1755.00
1426, 1755.00
1427, 1755.00
1428, 1755.00
1429, 1755.00
1430, 1756.00
1431, 1756.00
1432, 1757.00
1433, 1756.00
1434, 1757.00
1435, 1756.00
1436, 1757.00
1437, 1758.00
1438, 1758.00
1439, 1758.00
1440, 1760.00
1441, 1759.00
1442, 1759.00
1443, 1761.00
1444, 1760.00
1445, 1762.00
1446, 1762.00
1447, 1762.00
1448, 1762.00
1449, 1763.00
1450, 1763.00
1451, 1765.00
1452, 1765.00
1453, 1764.00
1454, 1767.00
1455, 1767.00
1456, 1768.00
1457, 1768.00
1458, 1768.00
1459, 1768.00
1460, 1770.00
1461, 1771.00
1462, 1770.00
1463, 1771.00
1464, 1773.00
1465, 1773.00
1466, 1774.00
1467, 1775.00
1468, 1774.00
1469, 1776.00
1470, 1777.00
1471, 1778.00
1472, 1779.00
1473, 1780.00
1474, 1781.00
1475, 1781.00
1476, 1782.00
1477, 1784.00
1478, 1784.00
1479, 1786.00
1480, 1786.00
1481, 1787.00
1482, 1788.00
1483, 1790.00
1484, 1790.00
1485, 1791.00
1486, 1793.00
1487, 1794.00
1488, 1794.00
1489, 1794.00
1490, 1796.00
1491, 1798.00
1492, 1798.00
1493, 1800.00
1494, 1801.00
1495, 1802.00
1496, 1802.00
1497, 1803.00
1498, 1805.00
1499, 1805.00
1500, 1807.00
1501, 1808.00
1502, 1809.00
1503, 1810.00
1504, 1811.00
1505, 1812.00
1506, 1813.00
1507, 1814.00
1508, 1814.00
1509, 1815.00
1510, 1817.00
1511, 1818.00
1512, 1821.00
1513, 1821.00
1514, 1822.00
1515, 1824.00
1516, 1824.00
1517, 1825.00
1518, 1827.00
1519, 1828.00
1520, 1829.00
1521, 1831.00
1522, 1831.00
1523, 1833.00
1524, 1834.00
1525, 1836.00
1526, 1836.00
1527, 1839.00
1528, 1838.00
1529, 1840.00
1530, 1841.00
1531, 1843.00
1532, 1844.00
1533, 1846.00
1534, 1846.00
1535, 1848.00
1536, 1848.00
1537, 1849.00
1538, 1851.00
1539, 1852.00
1540, 1853.00
1541, 1855.00
1542, 1856.00
1543, 1857.00
1544, 1859.00
1545, 1860.00
1546, 1862.00
1547, 1863.00
1548, 1863.00
1549, 1865.00
1550, 1866.00
1551, 1868.00
1552, 1870.00
1553, 1870.00
1554, 1872.00
1555, 1873.00
1556, 1875.00
1557, 1876.00
1558, 1877.00
1559, 1879.00
1560, 1880.00
1561, 1882.00
1562, 1882.00
1563, 1883.00
1564, 1887.00
1565, 1887.00
1566, 1889.00
1567, 1891.00
1568, 1892.00
1569, 1894.00
1570, 1895.00
1571, 1895.00
1572, 1897.00
1573, 1899.00
1574, 1901.00
1575, 1901.00
1576, 1902.00
1577, 1905.00
1578, 1905.00
1579, 1907.00
1580, 1909.00
1581, 1909.00
1582, 1911.00
1583, 1911.00
1584, 1914.00
1585, 1915.00
1586, 1915.00
1587, 1917.00
1588, 1918.00
1589, 1919.00
1590, 1921.00
1591, 1921.00
1592, 1923.00
1593, 1924.00
1594, 1926.00
1595, 1927.00
1596, 1928.00
1597, 1929.00
1598, 1931.00
1599, 1931.00
1600, 1933.00
1601, 1936.00
1602, 1935.00
1603, 1937.00
1604, 1939.00
1605, 1940.00
1606, 1942.00
1607, 1944.00
1608, 1945.00
1609, 1947.00
1610, 1949.00
1611, 1950.00
1612, 1951.00
1613, 1953.00
1614, 1954.00
1615, 1955.00
1616, 1958.00
1617, 1959.00
1618, 1960.00
1619, 1962.00
1620, 1964.00
1621, 1966.00
1622, 1967.00
1623, 1968.00
1624, 1969.00
1625, 1971.00
1626, 1972.00
1627, 1975.00
1628, 1975.00
1629, 1978.00
1630, 1979.00
1631, 1981.00
1632, 1981.00
1633, 1983.00
1634, 1985.00
1635, 1985.00
1636, 1987.00
1637, 1989.00
1638, 1990.00
1639, 1991.00
1640, 1992.00
1641, 1993.00
1642, 1995.00
1643, 1997.00
1644, 1997.00
1645, 1999.00
1646, 2000.00
1647, 2001.00
1648, 2002.00
1649, 2004.00
1650, 2006.00

1750, 2469.00
1751, 2467.00
1752, 2469.00
1753, 2469.00
1754, 2469.00
1755, 2470.00
1756, 2469.00
1757, 2469.00
1758, 2469.00
1759, 2469.00
1760, 2472.00
1761, 2470.00
1762, 2469.00
1763, 2469.00
1764, 2469.00
1765, 2467.00
1766, 2469.00
1767, 2469.00
1768, 2467.00
1769, 2468.00
1770, 2466.00
1771, 2467.00
1772, 2466.00
1773, 2466.00
1774, 2465.00
1775, 2465.00
1776, 2465.00
1777, 2465.00
1778, 2461.00
1779, 2464.00
1780, 2463.00
1781, 2462.00
1782, 2463.00
1783, 2461.00
1784, 2461.00
1785, 2459.00
1786, 2459.00
1787, 2460.00
1788, 2458.00
1789, 2458.00
1790, 2457.00
1791, 2455.00
1792, 2456.00
1793, 2455.00
1794, 2455.00
1795, 2455.00
1796, 2455.00
1797, 2453.00
1798, 2453.00
1799, 2452.00
1800, 2452.00
1801, 2452.00
1802, 2451.00
1803, 2452.00
1804, 2451.00
1805, 2452.00
1806, 2450.00
1807, 2449.00
1808, 2447.00
1809, 2448.00
1810, 2448.00
1811, 2448.00
1812, 2448.00
1813, 2445.00
1814, 2446.00
1815, 2445.00
1816, 2444.00
1817, 2441.00
1818, 2440.00
1819, 2440.00
1820, 2439.00
1821, 2440.00
1822, 2440.00
1823, 2437.00
1824, 2436.00
1825, 2433.00
1826, 2433.00
1827, 2433.00
1828, 2431.00
1829, 2429.00
1830, 2428.00
1831, 2426.00
1832, 2426.00
1833, 2425.00
1834, 2420.00
1835, 2421.00
1836, 2421.00
1837, 2416.00
1838, 2415.00
1839, 2415.00
1840, 2411.00
1841, 2409.00
1842, 2407.00
1843, 2405.00
1844, 2402.00
1845, 2399.00
1846, 2397.00
1847, 2395.00
1848, 2395.00
1849, 2390.00
1850, 2387.00
1851, 2386.00
1852, 2382.00
1853, 2381.00
1854, 2377.00
1855, 2376.00
1856, 2377.00
1857, 2372.00
1858, 2370.00
1859, 2369.00
1860, 2367.00
1861, 2365.00
1862, 2360.00
1863, 2361.00
1864, 2359.00
1865, 2356.00
1866, 2357.00
1867, 2352.00
1868, 2351.00
1869, 2350.00
1870, 2349.00
1871, 2347.00
1872, 2346.00
1873, 2345.00
1874, 2345.00
1875, 2343.00
1876, 2342.00
1877, 2342.00
1878, 2341.00
1879, 2340.00
1880, 2337.00
1881, 2336.00
1882, 2339.00
1883, 2335.00
1884, 2333.00
1885, 2333.00
1886, 2333.00
1887, 2333.00
1888, 2331.00
1889, 2333.00
1890, 2330.00
1891, 2330.00
1892, 2331.00
1893, 2330.00
1894, 2330.00
1895, 2328.00
1896, 2327.00
1897, 2327.00
1898, 2329.00
1899, 2327.00
1900, 2328.00
1901, 2326.00
1902, 2326.00
1903, 2325.00
1904, 2325.00
1905, 2325.00
1906, 2325.00
1907, 2323.00
1908, 2324.00
1909, 2326.00
1910, 2325.00
1911, 2325.00
1912, 2325.00
1913, 2324.00
1914, 2324.00
1915, 2324.00
1916, 2323.00
1917, 2323.00
1918, 2323.00
1919, 2323.00
1920, 2324.00
1921, 2323.00
1922, 2323.00
1923, 2323.00
1924, 2323.00
1925, 2322.00
1926, 2322.00
1927, 2324.00
1928, 2323.00
1929, 2321.00
1930, 2324.00
1931, 2322.00
1932, 2325.00
1933, 2324.00
1934, 2324.00
1935, 2323.00
1936, 2325.00
1937, 2325.00
1938, 2325.00
1939, 2322.00
1940, 2325.00
1941, 2324.00
1942, 2323.00
1943, 2325.00
1944, 2324.00
1945, 2324.00
1946, 2327.00
1947, 2323.00
1948, 2325.00
1949, 2325.00
1950, 2325.00
1951, 2325.00
1952, 2326.00
1953, 2326.00
1954, 2327.00
1955, 2329.00
1956, 2330.00
1957, 2328.00
1958, 2330.00
1959, 2329.00
1960, 2329.00
1961, 2331.00
1962, 2331.00
1963, 2330.00
1964, 2332.00
1965, 2333.00
1966, 2333.00
1967, 2331.00
1968, 2333.00
1969, 2332.00
1970, 2334.00
1971, 2335.00
1972, 2336.00
1973, 2336.00
1974, 2336.00
1975, 2336.00
1976, 2336.00
1977, 2339.00
1978, 2337.00
1979, 2339.00
1980, 2339.00
1981, 2342.00
1982, 2340.00
1983, 2343.00
1984, 2341.00
1985, 2343.00
1986, 2342.00
1987, 2344.00
1988, 2343.00
1989, 2344.00
1990, 2345.00
1991, 2344.00
1992, 2344.00
1993, 2346.00
1994, 2346.00
1995, 2347.00
1996, 2348.00
1997, 2349.00
1998, 2348.00
1999, 2349.00
2000, 2349.00
2001, 2349.00
2002, 2350.00
2003, 2352.00
2004, 2352.00
2005, 2353.00
2006, 2354.00
2007, 2355.00
2008, 2355.00
2009, 2355.00
2010, 2355.00
2011, 2357.00
2012, 2357.00
2013, 2357.00
2014, 2357.00
2015, 2357.00
2016, 2358.00
2017, 2358.00
2018, 2359.00
2019, 2359.00
2020, 2360.00
2021, 2361.00
2022, 2362.00
2023, 2361.00
2024, 2363.00
2025, 2360.00
2026, 2365.00
2027, 2366.00
2028, 2366.00
2029, 2366.00
2030, 2364.00
2031, 2367.00
2032, 2368.00
2033, 2370.00
2034, 2369.00
2035, 2371.00
2036, 2371.00
2037, 2369.00
2038, 2371.00
2039, 2369.00
2040, 2374.00
2041, 2372.00
2042, 2374.00
2043, 2374.00
2044, 2374.00
2045, 2376.00
2046, 2376.00
2047, 2378.00
2048, 2380.00
2049, 2379.00
2050, 2381.00
2051, 2383.00
2052, 2380.00
2053, 2382.00
2054, 2382.00
2055, 2385.00
2056, 2385.00
2057, 2386.00
2058, 2388.00
2059, 2388.00
2060, 2389.00
2061, 2389.00
2062, 2391.00
2063, 2389.00
2064, 2393.00
2065, 2392.00
2066, 2393.00
2067, 2393.00
2068, 2395.00
2069, 2396.00
2070, 2396.00
2071, 2397.00
2072, 2399.00
2073, 2399.00
2074, 2398.00
2075, 2401.00
2076, 2404.00
2077, 2403.00
2078, 2403.00
2079, 2404.00
2080, 2403.00
2081, 2406.00
2082, 2405.00
2083, 2405.00
2084, 2408.00
2085, 2409.00
2086, 2408.00
2087, 2408.00
2088, 2409.00
2089, 2410.00
2090, 2411.00
2091, 2411.00
2092, 2411.00
2093, 2415.00
2094, 2416.00
2095, 2414.00
2096, 2416.00
2097, 2416.00
2098, 2415.00
2099, 2418.00
2100, 2417.00
2101, 2418.00
2102, 2418.00
2103, 2419.00
2104, 2421.00
2105, 2421.00
2106, 2419.00
2107, 2420.00
2108, 2422.00
2109, 2420.00
2110, 2421.00
2111, 2422.00
2112, 2423.00
2113, 2425.00
2114, 2422.00
2115, 2424.00
2116, 2421.00
2117, 2424.00
2118, 2424.00
2119, 2424.00
2120, 2425.00
2121, 2426.00
2122, 2427.00
2123, 2427.00
2124, 2427.00
2125, 2428.00
2126, 2429.00
2127, 2429.00
2128, 2426.00
2129, 2427.00
2130, 2428.00
2131, 2429.00
2132, 2431.00
2133, 2429.00
2134, 2429.00
2135, 2430.00
2136, 2431.00
2137, 2431.00
2138, 2432.00
2139, 2433.00
2140, 2432.00
2141, 2433.00
2142, 2432.00
2143, 2433.00
2144, 2433.00
2145, 2432.00
2146, 2434.00
2147, 2436.00
2148, 2434.00
2149, 2433.00
2150, 2435.00
