FW version: 24
Log Version: 3.0.3

General Info:
       Command/Macro Performed,            Timestamp,             Device ID, COM Port, UART/I2C, Test Name, Host Major, Host Minor, Host Revision, Host Git Commit
            Single_measurement,  2023_07_04_10_43_06,       Insight2_F4_xxx,    USB-C,      USB,          ,          0,          1,             1,      4031237645

Show Spectrometer Status:
l0_version, f4_version, battery_perc, battery_mVolt, accelerometer_temp, accelerometer_x, accelerometer_y, accelerometer_z, compass_temp, compass_x, compass_y, compass_z, lamp_0, lamp_1, gain_0, gain_1
        17,         24,            2,          1762,               4992,           64812,            1468,           18956,            0,     65452,     65471,     19036,   3276,   3276,      0,      0

Temperature Statistic Info:
NTC AVG [°C], NTC2 AVG [°C]
      33.777,        33.442

Statistic Info:
M1:  num,      min,      max,   median,      AVG,      STD,M2:  num,      min,      max,   median,      AVG,      STD
     301,   729.00,   834.00,   750.00,   763.66,  32.4696,     401,   934.00,   999.00,   961.00,   962.60,  21.3717,

Measurements:
Wavelength, Data Amplitude
1350, 749.00
1351, 749.00
1352, 749.00
1353, 748.00
1354, 748.00
1355, 748.00
1356, 747.00
1357, 747.00
1358, 746.00
1359, 746.00
1360, 746.00
1361, 746.00
1362, 745.00
1363, 744.00
1364, 743.00
1365, 743.00
1366, 743.00
1367, 742.00
1368, 742.00
1369, 742.00
1370, 742.00
1371, 741.00
1372, 740.00
1373, 739.00
1374, 739.00
1375, 739.00
1376, 738.00
1377, 738.00
1378, 737.00
1379, 736.00
1380, 736.00
1381, 736.00
1382, 735.00
1383, 735.00
1384, 735.00
1385, 735.00
1386, 734.00
1387, 734.00
1388, 734.00
1389, 733.00
1390, 733.00
1391, 732.00
1392, 733.00
1393, 733.00
1394, 732.00
1395, 732.00
1396, 732.00
1397, 732.00
1398, 732.00
1399, 731.00
1400, 731.00
1401, 731.00
1402, 731.00
1403, 731.00
1404, 730.00
1405, 730.00
1406, 730.00
1407, 730.00
1408, 730.00
1409, 730.00
1410, 730.00
1411, 730.00
1412, 730.00
1413, 730.00
1414, 730.00
1415, 730.00
1416, 730.00
1417, 730.00
1418, 729.00
1419, 729.00
1420, 729.00
1421, 729.00
1422, 729.00
1423, 730.00
1424, 729.00
1425, 730.00
1426, 729.00
1427, 730.00
1428, 730.00
1429, 730.00
1430, 730.00
1431, 730.00
1432, 730.00
1433, 730.00
1434, 730.00
1435, 731.00
1436, 731.00
1437, 731.00
1438, 731.00
1439, 731.00
1440, 731.00
1441, 731.00
1442, 731.00
1443, 732.00
1444, 732.00
1445, 732.00
1446, 732.00
1447, 732.00
1448, 733.00
1449, 733.00
1450, 733.00
1451, 733.00
1452, 733.00
1453, 733.00
1454, 733.00
1455, 734.00
1456, 734.00
1457, 734.00
1458, 735.00
1459, 735.00
1460, 735.00
1461, 736.00
1462, 735.00
1463, 736.00
1464, 736.00
1465, 736.00
1466, 737.00
1467, 737.00
1468, 738.00
1469, 737.00
1470, 738.00
1471, 739.00
1472, 739.00
1473, 739.00
1474, 739.00
1475, 740.00
1476, 740.00
1477, 741.00
1478, 741.00
1479, 741.00
1480, 742.00
1481, 742.00
1482, 742.00
1483, 743.00
1484, 743.00
1485, 744.00
1486, 744.00
1487, 744.00
1488, 745.00
1489, 746.00
1490, 746.00
1491, 747.00
1492, 747.00
1493, 747.00
1494, 748.00
1495, 747.00
1496, 748.00
1497, 749.00
1498, 749.00
1499, 750.00
1500, 750.00
1501, 750.00
1502, 751.00
1503, 752.00
1504, 752.00
1505, 752.00
1506, 753.00
1507, 753.00
1508, 753.00
1509, 754.00
1510, 755.00
1511, 755.00
1512, 756.00
1513, 756.00
1514, 757.00
1515, 757.00
1516, 757.00
1517, 758.00
1518, 758.00
1519, 759.00
1520, 759.00
1521, 760.00
1522, 760.00
1523, 761.00
1524, 762.00
1525, 762.00
1526, 763.00
1527, 763.00
1528, 763.00
1529, 765.00
1530, 765.00
1531, 765.00
1532, 766.00
1533, 766.00
1534, 767.00
1535, 768.00
1536, 768.00
1537, 768.00
1538, 769.00
1539, 770.00
1540, 770.00
1541, 771.00
1542, 771.00
1543, 772.00
1544, 772.00
1545, 773.00
1546, 773.00
1547, 774.00
1548, 774.00
1549, 775.00
1550, 776.00
1551, 776.00
1552, 777.00
1553, 777.00
1554, 777.00
1555, 779.00
1556, 779.00
1557, 779.00
1558, 780.00
1559, 781.00
1560, 781.00
1561, 782.00
1562, 782.00
1563, 783.00
1564, 784.00
1565, 784.00
1566, 785.00
1567, 786.00
1568, 786.00
1569, 787.00
1570, 788.00
1571, 788.00
1572, 789.00
1573, 789.00
1574, 790.00
1575, 790.00
1576, 791.00
1577, 792.00
1578, 792.00
1579, 792.00
1580, 793.00
1581, 793.00
1582, 794.00
1583, 794.00
1584, 795.00
1585, 795.00
1586, 796.00
1587, 796.00
1588, 797.00
1589, 798.00
1590, 798.00
1591, 799.00
1592, 800.00
1593, 800.00
1594, 800.00
1595, 801.00
1596, 801.00
1597, 802.00
1598, 803.00
1599, 803.00
1600, 803.00
1601, 804.00
1602, 805.00
1603, 805.00
1604, 806.00
1605, 807.00
1606, 807.00
1607, 808.00
1608, 808.00
1609, 809.00
1610, 809.00
1611, 810.00
1612, 811.00
1613, 812.00
1614, 812.00
1615, 813.00
1616, 813.00
1617, 814.00
1618, 815.00
1619, 816.00
1620, 816.00
1621, 817.00
1622, 818.00
1623, 818.00
1624, 819.00
1625, 820.00
1626, 820.00
1627, 820.00
1628, 821.00
1629, 822.00
1630, 823.00
1631, 823.00
1632, 824.00
1633, 824.00
1634, 825.00
1635, 826.00
1636, 827.00
1637, 827.00
1638, 828.00
1639, 828.00
1640, 828.00
1641, 829.00
1642, 830.00
1643, 830.00
1644, 830.00
1645, 831.00
1646, 832.00
1647, 833.00
1648, 833.00
1649, 833.00
1650, 834.00

1750, 999.00
1751, 999.00
1752, 999.00
1753, 998.00
1754, 999.00
1755, 999.00
1756, 999.00
1757, 998.00
1758, 998.00
1759, 999.00
1760, 999.00
1761, 999.00
1762, 999.00
1763, 999.00
1764, 998.00
1765, 999.00
1766, 999.00
1767, 999.00
1768, 998.00
1769, 998.00
1770, 998.00
1771, 997.00
1772, 997.00
1773, 998.00
1774, 998.00
1775, 998.00
1776, 997.00
1777, 997.00
1778, 997.00
1779, 996.00
1780, 996.00
1781, 996.00
1782, 996.00
1783, 996.00
1784, 996.00
1785, 995.00
1786, 995.00
1787, 995.00
1788, 994.00
1789, 994.00
1790, 995.00
1791, 994.00
1792, 994.00
1793, 993.00
1794, 993.00
1795, 993.00
1796, 993.00
1797, 993.00
1798, 992.00
1799, 991.00
1800, 992.00
1801, 992.00
1802, 991.00
1803, 991.00
1804, 991.00
1805, 992.00
1806, 990.00
1807, 990.00
1808, 990.00
1809, 991.00
1810, 990.00
1811, 990.00
1812, 989.00
1813, 989.00
1814, 989.00
1815, 990.00
1816, 989.00
1817, 989.00
1818, 989.00
1819, 988.00
1820, 986.00
1821, 987.00
1822, 987.00
1823, 987.00
1824, 986.00
1825, 986.00
1826, 985.00
1827, 985.00
1828, 984.00
1829, 983.00
1830, 983.00
1831, 982.00
1832, 981.00
1833, 981.00
1834, 980.00
1835, 980.00
1836, 979.00
1837, 977.00
1838, 977.00
1839, 977.00
1840, 976.00
1841, 976.00
1842, 973.00
1843, 973.00
1844, 972.00
1845, 971.00
1846, 970.00
1847, 969.00
1848, 968.00
1849, 967.00
1850, 966.00
1851, 965.00
1852, 964.00
1853, 963.00
1854, 962.00
1855, 960.00
1856, 960.00
1857, 959.00
1858, 958.00
1859, 957.00
1860, 956.00
1861, 955.00
1862, 954.00
1863, 953.00
1864, 952.00
1865, 951.00
1866, 951.00
1867, 950.00
1868, 949.00
1869, 949.00
1870, 948.00
1871, 947.00
1872, 946.00
1873, 946.00
1874, 945.00
1875, 944.00
1876, 944.00
1877, 943.00
1878, 943.00
1879, 943.00
1880, 942.00
1881, 943.00
1882, 942.00
1883, 941.00
1884, 941.00
1885, 941.00
1886, 940.00
1887, 939.00
1888, 939.00
1889, 939.00
1890, 939.00
1891, 938.00
1892, 938.00
1893, 938.00
1894, 938.00
1895, 939.00
1896, 937.00
1897, 938.00
1898, 938.00
1899, 937.00
1900, 937.00
1901, 937.00
1902, 937.00
1903, 937.00
1904, 937.00
1905, 937.00
1906, 936.00
1907, 936.00
1908, 936.00
1909, 936.00
1910, 936.00
1911, 936.00
1912, 935.00
1913, 935.00
1914, 935.00
1915, 935.00
1916, 935.00
1917, 935.00
1918, 935.00
1919, 935.00
1920, 935.00
1921, 935.00
1922, 935.00
1923, 935.00
1924, 935.00
1925, 934.00
1926, 935.00
1927, 935.00
1928, 935.00
1929, 935.00
1930, 934.00
1931, 934.00
1932, 934.00
1933, 934.00
1934, 935.00
1935, 935.00
1936, 934.00
1937, 935.00
1938, 935.00
1939, 935.00
1940, 935.00
1941, 935.00
1942, 935.00
1943, 935.00
1944, 935.00
1945, 935.00
1946, 936.00
1947, 936.00
1948, 936.00
1949, 936.00
1950, 936.00
1951, 936.00
1952, 936.00
1953, 936.00
1954, 936.00
1955, 936.00
1956, 937.00
1957, 937.00
1958, 937.00
1959, 937.00
1960, 938.00
1961, 938.00
1962, 938.00
1963, 938.00
1964, 938.00
1965, 938.00
1966, 938.00
1967, 938.00
1968, 938.00
1969, 938.00
1970, 939.00
1971, 940.00
1972, 939.00
1973, 940.00
1974, 940.00
1975, 940.00
1976, 941.00
1977, 941.00
1978, 941.00
1979, 941.00
1980, 942.00
1981, 942.00
1982, 941.00
1983, 941.00
1984, 942.00
1985, 943.00
1986, 943.00
1987, 943.00
1988, 943.00
1989, 943.00
1990, 943.00
1991, 943.00
1992, 944.00
1993, 943.00
1994, 945.00
1995, 945.00
1996, 945.00
1997, 945.00
1998, 945.00
1999, 946.00
2000, 946.00
2001, 946.00
2002, 946.00
2003, 946.00
2004, 947.00
2005, 947.00
2006, 947.00
2007, 947.00
2008, 947.00
2009, 948.00
2010, 948.00
2011, 948.00
2012, 949.00
2013, 949.00
2014, 949.00
2015, 949.00
2016, 950.00
2017, 949.00
2018, 950.00
2019, 950.00
2020, 950.00
2021, 951.00
2022, 951.00
2023, 951.00
2024, 951.00
2025, 951.00
2026, 952.00
2027, 952.00
2028, 952.00
2029, 953.00
2030, 953.00
2031, 954.00
2032, 952.00
2033, 953.00
2034, 953.00
2035, 954.00
2036, 955.00
2037, 955.00
2038, 955.00
2039, 955.00
2040, 955.00
2041, 956.00
2042, 956.00
2043, 957.00
2044, 957.00
2045, 957.00
2046, 957.00
2047, 957.00
2048, 958.00
2049, 959.00
2050, 959.00
2051, 960.00
2052, 959.00
2053, 960.00
2054, 960.00
2055, 961.00
2056, 961.00
2057, 962.00
2058, 962.00
2059, 963.00
2060, 962.00
2061, 962.00
2062, 963.00
2063, 963.00
2064, 964.00
2065, 964.00
2066, 964.00
2067, 965.00
2068, 966.00
2069, 966.00
2070, 966.00
2071, 966.00
2072, 966.00
2073, 967.00
2074, 967.00
2075, 968.00
2076, 968.00
2077, 969.00
2078, 968.00
2079, 969.00
2080, 969.00
2081, 969.00
2082, 970.00
2083, 970.00
2084, 971.00
2085, 971.00
2086, 972.00
2087, 971.00
2088, 971.00
2089, 972.00
2090, 972.00
2091, 972.00
2092, 972.00
2093, 972.00
2094, 973.00
2095, 974.00
2096, 974.00
2097, 974.00
2098, 975.00
2099, 974.00
2100, 975.00
2101, 975.00
2102, 975.00
2103, 975.00
2104, 976.00
2105, 976.00
2106, 976.00
2107, 977.00
2108, 977.00
2109, 977.00
2110, 977.00
2111, 977.00
2112, 977.00
2113, 977.00
2114, 978.00
2115, 977.00
2116, 978.00
2117, 978.00
2118, 978.00
2119, 978.00
2120, 978.00
2121, 979.00
2122, 978.00
2123, 978.00
2124, 979.00
2125, 979.00
2126, 979.00
2127, 979.00
2128, 980.00
2129, 980.00
2130, 980.00
2131, 980.00
2132, 980.00
2133, 979.00
2134, 980.00
2135, 981.00
2136, 980.00
2137, 980.00
2138, 981.00
2139, 980.00
2140, 981.00
2141, 981.00
2142, 981.00
2143, 981.00
2144, 982.00
2145, 981.00
2146, 981.00
2147, 981.00
2148, 981.00
2149, 981.00
2150, 981.00
