FW version: 24
Log Version: 3.0.3

General Info:
       Command/Macro Performed,            Timestamp,             Device ID, COM Port, UART/I2C, Test Name, Host Major, Host Minor, Host Revision, Host Git Commit
            Single_measurement,  2023_06_28_11_34_14,       Insight2_F4_xxx,    USB-C,      USB,          ,          0,          1,             1,      4031237645

Show Spectrometer Status:
l0_version, f4_version, battery_perc, battery_mVolt, accelerometer_temp, accelerometer_x, accelerometer_y, accelerometer_z, compass_temp, compass_x, compass_y, compass_z, lamp_0, lamp_1, gain_0, gain_1
        17,         24,           44,          1895,               6448,           65088,             860,           18736,            0,     65480,     65503,     18740,   2457,   2457,      1,      1

Temperature Statistic Info:
NTC AVG [°C], NTC2 AVG [°C]
      39.704,        39.382

Statistic Info:
M1:  num,      min,      max,   median,      AVG,      STD,M2:  num,      min,      max,   median,      AVG,      STD
     301,  1199.00,  1402.00,  1241.00,  1265.26,  62.7498,     401,  1669.00,  1794.00,  1721.00,  1725.20,  40.1907,

Measurements:
Wavelength, Data Amplitude
1350, 1233.00
1351, 1234.00
1352, 1232.00
1353, 1232.00
1354, 1231.00
1355, 1230.00
1356, 1230.00
1357, 1229.00
1358, 1229.00
1359, 1227.00
1360, 1227.00
1361, 1226.00
1362, 1226.00
1363, 1224.00
1364, 1223.00
1365, 1223.00
1366, 1221.00
1367, 1221.00
1368, 1220.00
1369, 1218.00
1370, 1218.00
1371, 1217.00
1372, 1215.00
1373, 1215.00
1374, 1214.00
1375, 1213.00
1376, 1212.00
1377, 1211.00
1378, 1210.00
1379, 1211.00
1380, 1210.00
1381, 1210.00
1382, 1208.00
1383, 1208.00
1384, 1207.00
1385, 1206.00
1386, 1206.00
1387, 1205.00
1388, 1205.00
1389, 1205.00
1390, 1205.00
1391, 1204.00
1392, 1203.00
1393, 1204.00
1394, 1203.00
1395, 1202.00
1396, 1202.00
1397, 1202.00
1398, 1203.00
1399, 1201.00
1400, 1202.00
1401, 1202.00
1402, 1201.00
1403, 1200.00
1404, 1201.00
1405, 1200.00
1406, 1201.00
1407, 1200.00
1408, 1201.00
1409, 1201.00
1410, 1200.00
1411, 1200.00
1412, 1201.00
1413, 1200.00
1414, 1200.00
1415, 1200.00
1416, 1199.00
1417, 1199.00
1418, 1200.00
1419, 1199.00
1420, 1200.00
1421, 1200.00
1422, 1200.00
1423, 1201.00
1424, 1200.00
1425, 1201.00
1426, 1199.00
1427, 1200.00
1428, 1200.00
1429, 1201.00
1430, 1201.00
1431, 1202.00
1432, 1200.00
1433, 1203.00
1434, 1201.00
1435, 1201.00
1436, 1202.00
1437, 1202.00
1438, 1203.00
1439, 1203.00
1440, 1203.00
1441, 1203.00
1442, 1204.00
1443, 1204.00
1444, 1204.00
1445, 1206.00
1446, 1205.00
1447, 1205.00
1448, 1205.00
1449, 1207.00
1450, 1207.00
1451, 1208.00
1452, 1207.00
1453, 1208.00
1454, 1209.00
1455, 1209.00
1456, 1209.00
1457, 1210.00
1458, 1211.00
1459, 1212.00
1460, 1211.00
1461, 1212.00
1462, 1213.00
1463, 1213.00
1464, 1214.00
1465, 1214.00
1466, 1215.00
1467, 1214.00
1468, 1215.00
1469, 1216.00
1470, 1218.00
1471, 1218.00
1472, 1218.00
1473, 1219.00
1474, 1220.00
1475, 1221.00
1476, 1221.00
1477, 1222.00
1478, 1223.00
1479, 1224.00
1480, 1224.00
1481, 1225.00
1482, 1226.00
1483, 1227.00
1484, 1228.00
1485, 1228.00
1486, 1229.00
1487, 1229.00
1488, 1231.00
1489, 1232.00
1490, 1233.00
1491, 1233.00
1492, 1234.00
1493, 1233.00
1494, 1236.00
1495, 1238.00
1496, 1238.00
1497, 1238.00
1498, 1239.00
1499, 1240.00
1500, 1241.00
1501, 1241.00
1502, 1242.00
1503, 1243.00
1504, 1244.00
1505, 1245.00
1506, 1246.00
1507, 1246.00
1508, 1247.00
1509, 1248.00
1510, 1250.00
1511, 1251.00
1512, 1251.00
1513, 1252.00
1514, 1253.00
1515, 1254.00
1516, 1255.00
1517, 1257.00
1518, 1257.00
1519, 1257.00
1520, 1258.00
1521, 1260.00
1522, 1261.00
1523, 1261.00
1524, 1262.00
1525, 1264.00
1526, 1266.00
1527, 1266.00
1528, 1267.00
1529, 1268.00
1530, 1269.00
1531, 1270.00
1532, 1271.00
1533, 1272.00
1534, 1273.00
1535, 1273.00
1536, 1275.00
1537, 1275.00
1538, 1276.00
1539, 1277.00
1540, 1278.00
1541, 1280.00
1542, 1280.00
1543, 1281.00
1544, 1283.00
1545, 1284.00
1546, 1285.00
1547, 1286.00
1548, 1286.00
1549, 1287.00
1550, 1289.00
1551, 1290.00
1552, 1291.00
1553, 1292.00
1554, 1293.00
1555, 1294.00
1556, 1296.00
1557, 1296.00
1558, 1297.00
1559, 1300.00
1560, 1300.00
1561, 1301.00
1562, 1301.00
1563, 1304.00
1564, 1304.00
1565, 1305.00
1566, 1306.00
1567, 1307.00
1568, 1309.00
1569, 1310.00
1570, 1311.00
1571, 1312.00
1572, 1313.00
1573, 1314.00
1574, 1315.00
1575, 1316.00
1576, 1319.00
1577, 1318.00
1578, 1320.00
1579, 1320.00
1580, 1321.00
1581, 1324.00
1582, 1324.00
1583, 1324.00
1584, 1326.00
1585, 1327.00
1586, 1329.00
1587, 1330.00
1588, 1330.00
1589, 1331.00
1590, 1332.00
1591, 1333.00
1592, 1334.00
1593, 1334.00
1594, 1336.00
1595, 1336.00
1596, 1338.00
1597, 1338.00
1598, 1340.00
1599, 1340.00
1600, 1342.00
1601, 1344.00
1602, 1344.00
1603, 1345.00
1604, 1346.00
1605, 1348.00
1606, 1349.00
1607, 1351.00
1608, 1352.00
1609, 1353.00
1610, 1354.00
1611, 1355.00
1612, 1356.00
1613, 1357.00
1614, 1359.00
1615, 1360.00
1616, 1361.00
1617, 1363.00
1618, 1363.00
1619, 1365.00
1620, 1367.00
1621, 1368.00
1622, 1371.00
1623, 1370.00
1624, 1370.00
1625, 1372.00
1626, 1374.00
1627, 1375.00
1628, 1377.00
1629, 1378.00
1630, 1380.00
1631, 1381.00
1632, 1382.00
1633, 1383.00
1634, 1383.00
1635, 1385.00
1636, 1387.00
1637, 1387.00
1638, 1388.00
1639, 1389.00
1640, 1390.00
1641, 1391.00
1642, 1393.00
1643, 1394.00
1644, 1393.00
1645, 1395.00
1646, 1396.00
1647, 1398.00
1648, 1399.00
1649, 1399.00
1650, 1402.00

1750, 1792.00
1751, 1792.00
1752, 1793.00
1753, 1793.00
1754, 1793.00
1755, 1792.00
1756, 1791.00
1757, 1794.00
1758, 1793.00
1759, 1793.00
1760, 1794.00
1761, 1793.00
1762, 1791.00
1763, 1793.00
1764, 1791.00
1765, 1789.00
1766, 1791.00
1767, 1789.00
1768, 1791.00
1769, 1793.00
1770, 1790.00
1771, 1789.00
1772, 1790.00
1773, 1789.00
1774, 1788.00
1775, 1788.00
1776, 1790.00
1777, 1787.00
1778, 1788.00
1779, 1788.00
1780, 1787.00
1781, 1787.00
1782, 1785.00
1783, 1786.00
1784, 1785.00
1785, 1787.00
1786, 1785.00
1787, 1785.00
1788, 1783.00
1789, 1782.00
1790, 1785.00
1791, 1784.00
1792, 1783.00
1793, 1783.00
1794, 1783.00
1795, 1782.00
1796, 1783.00
1797, 1781.00
1798, 1780.00
1799, 1779.00
1800, 1779.00
1801, 1777.00
1802, 1778.00
1803, 1778.00
1804, 1777.00
1805, 1777.00
1806, 1777.00
1807, 1778.00
1808, 1778.00
1809, 1776.00
1810, 1775.00
1811, 1775.00
1812, 1774.00
1813, 1774.00
1814, 1775.00
1815, 1773.00
1816, 1773.00
1817, 1773.00
1818, 1771.00
1819, 1770.00
1820, 1769.00
1821, 1769.00
1822, 1767.00
1823, 1767.00
1824, 1767.00
1825, 1765.00
1826, 1763.00
1827, 1762.00
1828, 1761.00
1829, 1760.00
1830, 1760.00
1831, 1758.00
1832, 1757.00
1833, 1754.00
1834, 1753.00
1835, 1752.00
1836, 1751.00
1837, 1749.00
1838, 1747.00
1839, 1747.00
1840, 1746.00
1841, 1743.00
1842, 1741.00
1843, 1738.00
1844, 1737.00
1845, 1736.00
1846, 1734.00
1847, 1732.00
1848, 1731.00
1849, 1728.00
1850, 1724.00
1851, 1723.00
1852, 1723.00
1853, 1719.00
1854, 1718.00
1855, 1716.00
1856, 1716.00
1857, 1713.00
1858, 1711.00
1859, 1709.00
1860, 1708.00
1861, 1706.00
1862, 1704.00
1863, 1704.00
1864, 1703.00
1865, 1701.00
1866, 1699.00
1867, 1699.00
1868, 1697.00
1869, 1696.00
1870, 1693.00
1871, 1691.00
1872, 1690.00
1873, 1690.00
1874, 1690.00
1875, 1690.00
1876, 1689.00
1877, 1686.00
1878, 1688.00
1879, 1684.00
1880, 1688.00
1881, 1684.00
1882, 1684.00
1883, 1684.00
1884, 1683.00
1885, 1683.00
1886, 1683.00
1887, 1681.00
1888, 1681.00
1889, 1681.00
1890, 1680.00
1891, 1678.00
1892, 1678.00
1893, 1680.00
1894, 1677.00
1895, 1677.00
1896, 1676.00
1897, 1677.00
1898, 1675.00
1899, 1677.00
1900, 1676.00
1901, 1677.00
1902, 1677.00
1903, 1677.00
1904, 1675.00
1905, 1676.00
1906, 1675.00
1907, 1675.00
1908, 1675.00
1909, 1674.00
1910, 1674.00
1911, 1674.00
1912, 1674.00
1913, 1673.00
1914, 1672.00
1915, 1674.00
1916, 1672.00
1917, 1673.00
1918, 1674.00
1919, 1670.00
1920, 1674.00
1921, 1674.00
1922, 1672.00
1923, 1672.00
1924, 1669.00
1925, 1671.00
1926, 1672.00
1927, 1674.00
1928, 1673.00
1929, 1672.00
1930, 1673.00
1931, 1674.00
1932, 1672.00
1933, 1672.00
1934, 1673.00
1935, 1672.00
1936, 1673.00
1937, 1670.00
1938, 1671.00
1939, 1674.00
1940, 1674.00
1941, 1672.00
1942, 1674.00
1943, 1673.00
1944, 1674.00
1945, 1674.00
1946, 1675.00
1947, 1675.00
1948, 1675.00
1949, 1674.00
1950, 1675.00
1951, 1676.00
1952, 1676.00
1953, 1676.00
1954, 1677.00
1955, 1677.00
1956, 1677.00
1957, 1677.00
1958, 1677.00
1959, 1678.00
1960, 1679.00
1961, 1678.00
1962, 1680.00
1963, 1678.00
1964, 1681.00
1965, 1680.00
1966, 1681.00
1967, 1681.00
1968, 1681.00
1969, 1681.00
1970, 1682.00
1971, 1681.00
1972, 1683.00
1973, 1682.00
1974, 1686.00
1975, 1684.00
1976, 1684.00
1977, 1685.00
1978, 1687.00
1979, 1685.00
1980, 1686.00
1981, 1685.00
1982, 1686.00
1983, 1688.00
1984, 1686.00
1985, 1687.00
1986, 1689.00
1987, 1688.00
1988, 1688.00
1989, 1690.00
1990, 1691.00
1991, 1690.00
1992, 1692.00
1993, 1690.00
1994, 1692.00
1995, 1693.00
1996, 1692.00
1997, 1692.00
1998, 1693.00
1999, 1694.00
2000, 1697.00
2001, 1695.00
2002, 1695.00
2003, 1698.00
2004, 1696.00
2005, 1697.00
2006, 1698.00
2007, 1697.00
2008, 1698.00
2009, 1699.00
2010, 1699.00
2011, 1699.00
2012, 1699.00
2013, 1700.00
2014, 1701.00
2015, 1701.00
2016, 1701.00
2017, 1703.00
2018, 1703.00
2019, 1702.00
2020, 1703.00
2021, 1703.00
2022, 1703.00
2023, 1704.00
2024, 1705.00
2025, 1704.00
2026, 1705.00
2027, 1707.00
2028, 1707.00
2029, 1707.00
2030, 1707.00
2031, 1707.00
2032, 1708.00
2033, 1710.00
2034, 1710.00
2035, 1711.00
2036, 1711.00
2037, 1713.00
2038, 1712.00
2039, 1713.00
2040, 1714.00
2041, 1714.00
2042, 1713.00
2043, 1715.00
2044, 1716.00
2045, 1717.00
2046, 1717.00
2047, 1717.00
2048, 1717.00
2049, 1719.00
2050, 1720.00
2051, 1720.00
2052, 1721.00
2053, 1720.00
2054, 1721.00
2055, 1723.00
2056, 1723.00
2057, 1725.00
2058, 1725.00
2059, 1727.00
2060, 1726.00
2061, 1726.00
2062, 1728.00
2063, 1729.00
2064, 1730.00
2065, 1730.00
2066, 1731.00
2067, 1731.00
2068, 1732.00
2069, 1732.00
2070, 1733.00
2071, 1734.00
2072, 1734.00
2073, 1735.00
2074, 1738.00
2075, 1737.00
2076, 1738.00
2077, 1738.00
2078, 1739.00
2079, 1738.00
2080, 1739.00
2081, 1740.00
2082, 1741.00
2083, 1742.00
2084, 1743.00
2085, 1743.00
2086, 1743.00
2087, 1745.00
2088, 1746.00
2089, 1745.00
2090, 1744.00
2091, 1747.00
2092, 1746.00
2093, 1748.00
2094, 1749.00
2095, 1748.00
2096, 1750.00
2097, 1749.00
2098, 1750.00
2099, 1749.00
2100, 1749.00
2101, 1751.00
2102, 1751.00
2103, 1751.00
2104, 1751.00
2105, 1752.00
2106, 1752.00
2107, 1755.00
2108, 1754.00
2109, 1753.00
2110, 1753.00
2111, 1755.00
2112, 1756.00
2113, 1755.00
2114, 1757.00
2115, 1757.00
2116, 1758.00
2117, 1757.00
2118, 1756.00
2119, 1757.00
2120, 1759.00
2121, 1757.00
2122, 1758.00
2123, 1757.00
2124, 1759.00
2125, 1759.00
2126, 1761.00
2127, 1761.00
2128, 1761.00
2129, 1761.00
2130, 1761.00
2131, 1760.00
2132, 1761.00
2133, 1763.00
2134, 1764.00
2135, 1762.00
2136, 1764.00
2137, 1763.00
2138, 1764.00
2139, 1764.00
2140, 1762.00
2141, 1766.00
2142, 1765.00
2143, 1765.00
2144, 1767.00
2145, 1764.00
2146, 1765.00
2147, 1766.00
2148, 1765.00
2149, 1766.00
2150, 1765.00
