FW version: 24
Log Version: 3.0.3

General Info:
       Command/Macro Performed,            Timestamp,             Device ID, COM Port, UART/I2C, Test Name, Host Major, Host Minor, Host Revision, Host Git Commit
            Single_measurement,  2023_06_28_11_34_29,       Insight2_F4_xxx,    USB-C,      USB,          ,          0,          1,             1,      4031237645

Show Spectrometer Status:
l0_version, f4_version, battery_perc, battery_mVolt, accelerometer_temp, accelerometer_x, accelerometer_y, accelerometer_z, compass_temp, compass_x, compass_y, compass_z, lamp_0, lamp_1, gain_0, gain_1
        17,         24,           44,          1898,               6464,           65292,             788,           18820,            0,     65421,     65431,     18860,   2866,   2866,      1,      1

Temperature Statistic Info:
NTC AVG [°C], NTC2 AVG [°C]
      39.821,        39.470

Statistic Info:
M1:  num,      min,      max,   median,      AVG,      STD,M2:  num,      min,      max,   median,      AVG,      STD
     301,  1617.00,  1879.00,  1670.00,  1702.94,  81.2240,     401,  2163.00,  2322.00,  2227.00,  2231.75,  51.4787,

Measurements:
Wavelength, Data Amplitude
1350, 1665.00
1351, 1665.00
1352, 1663.00
1353, 1662.00
1354, 1661.00
1355, 1660.00
1356, 1661.00
1357, 1659.00
1358, 1659.00
1359, 1656.00
1360, 1656.00
1361, 1654.00
1362, 1654.00
1363, 1651.00
1364, 1650.00
1365, 1649.00
1366, 1648.00
1367, 1647.00
1368, 1646.00
1369, 1643.00
1370, 1644.00
1371, 1642.00
1372, 1641.00
1373, 1639.00
1374, 1639.00
1375, 1637.00
1376, 1636.00
1377, 1635.00
1378, 1634.00
1379, 1633.00
1380, 1633.00
1381, 1631.00
1382, 1630.00
1383, 1629.00
1384, 1629.00
1385, 1628.00
1386, 1627.00
1387, 1626.00
1388, 1626.00
1389, 1626.00
1390, 1625.00
1391, 1623.00
1392, 1625.00
1393, 1623.00
1394, 1623.00
1395, 1623.00
1396, 1623.00
1397, 1622.00
1398, 1622.00
1399, 1622.00
1400, 1619.00
1401, 1621.00
1402, 1620.00
1403, 1619.00
1404, 1619.00
1405, 1619.00
1406, 1619.00
1407, 1619.00
1408, 1618.00
1409, 1619.00
1410, 1620.00
1411, 1619.00
1412, 1618.00
1413, 1618.00
1414, 1618.00
1415, 1618.00
1416, 1618.00
1417, 1618.00
1418, 1618.00
1419, 1618.00
1420, 1618.00
1421, 1617.00
1422, 1618.00
1423, 1619.00
1424, 1619.00
1425, 1618.00
1426, 1617.00
1427, 1619.00
1428, 1619.00
1429, 1618.00
1430, 1620.00
1431, 1619.00
1432, 1620.00
1433, 1620.00
1434, 1620.00
1435, 1621.00
1436, 1620.00
1437, 1621.00
1438, 1622.00
1439, 1623.00
1440, 1622.00
1441, 1622.00
1442, 1623.00
1443, 1623.00
1444, 1624.00
1445, 1625.00
1446, 1624.00
1447, 1626.00
1448, 1626.00
1449, 1625.00
1450, 1626.00
1451, 1627.00
1452, 1628.00
1453, 1629.00
1454, 1629.00
1455, 1630.00
1456, 1630.00
1457, 1631.00
1458, 1632.00
1459, 1632.00
1460, 1632.00
1461, 1632.00
1462, 1634.00
1463, 1635.00
1464, 1637.00
1465, 1636.00
1466, 1638.00
1467, 1638.00
1468, 1639.00
1469, 1639.00
1470, 1640.00
1471, 1640.00
1472, 1642.00
1473, 1642.00
1474, 1645.00
1475, 1645.00
1476, 1647.00
1477, 1647.00
1478, 1647.00
1479, 1647.00
1480, 1649.00
1481, 1651.00
1482, 1651.00
1483, 1653.00
1484, 1653.00
1485, 1654.00
1486, 1657.00
1487, 1657.00
1488, 1657.00
1489, 1660.00
1490, 1660.00
1491, 1661.00
1492, 1661.00
1493, 1663.00
1494, 1664.00
1495, 1665.00
1496, 1666.00
1497, 1668.00
1498, 1669.00
1499, 1669.00
1500, 1671.00
1501, 1670.00
1502, 1671.00
1503, 1674.00
1504, 1675.00
1505, 1676.00
1506, 1677.00
1507, 1677.00
1508, 1679.00
1509, 1679.00
1510, 1682.00
1511, 1681.00
1512, 1684.00
1513, 1684.00
1514, 1686.00
1515, 1687.00
1516, 1688.00
1517, 1689.00
1518, 1691.00
1519, 1692.00
1520, 1693.00
1521, 1695.00
1522, 1696.00
1523, 1697.00
1524, 1698.00
1525, 1699.00
1526, 1701.00
1527, 1703.00
1528, 1704.00
1529, 1705.00
1530, 1707.00
1531, 1707.00
1532, 1709.00
1533, 1710.00
1534, 1711.00
1535, 1713.00
1536, 1715.00
1537, 1717.00
1538, 1718.00
1539, 1718.00
1540, 1718.00
1541, 1720.00
1542, 1722.00
1543, 1723.00
1544, 1725.00
1545, 1726.00
1546, 1727.00
1547, 1729.00
1548, 1731.00
1549, 1733.00
1550, 1732.00
1551, 1735.00
1552, 1736.00
1553, 1737.00
1554, 1739.00
1555, 1740.00
1556, 1741.00
1557, 1743.00
1558, 1744.00
1559, 1745.00
1560, 1747.00
1561, 1747.00
1562, 1750.00
1563, 1751.00
1564, 1753.00
1565, 1754.00
1566, 1757.00
1567, 1758.00
1568, 1760.00
1569, 1762.00
1570, 1763.00
1571, 1763.00
1572, 1764.00
1573, 1766.00
1574, 1768.00
1575, 1769.00
1576, 1770.00
1577, 1772.00
1578, 1773.00
1579, 1775.00
1580, 1776.00
1581, 1778.00
1582, 1779.00
1583, 1780.00
1584, 1781.00
1585, 1782.00
1586, 1784.00
1587, 1785.00
1588, 1787.00
1589, 1789.00
1590, 1789.00
1591, 1791.00
1592, 1791.00
1593, 1793.00
1594, 1794.00
1595, 1796.00
1596, 1797.00
1597, 1799.00
1598, 1800.00
1599, 1802.00
1600, 1803.00
1601, 1804.00
1602, 1806.00
1603, 1808.00
1604, 1808.00
1605, 1809.00
1606, 1811.00
1607, 1814.00
1608, 1815.00
1609, 1816.00
1610, 1818.00
1611, 1819.00
1612, 1820.00
1613, 1823.00
1614, 1824.00
1615, 1826.00
1616, 1827.00
1617, 1830.00
1618, 1831.00
1619, 1833.00
1620, 1835.00
1621, 1835.00
1622, 1838.00
1623, 1839.00
1624, 1841.00
1625, 1843.00
1626, 1844.00
1627, 1846.00
1628, 1847.00
1629, 1849.00
1630, 1850.00
1631, 1853.00
1632, 1854.00
1633, 1855.00
1634, 1857.00
1635, 1859.00
1636, 1859.00
1637, 1860.00
1638, 1862.00
1639, 1864.00
1640, 1864.00
1641, 1867.00
1642, 1868.00
1643, 1868.00
1644, 1870.00
1645, 1872.00
1646, 1873.00
1647, 1875.00
1648, 1876.00
1649, 1877.00
1650, 1879.00

1750, 2321.00
1751, 2321.00
1752, 2319.00
1753, 2320.00
1754, 2321.00
1755, 2320.00
1756, 2321.00
1757, 2322.00
1758, 2318.00
1759, 2320.00
1760, 2319.00
1761, 2319.00
1762, 2318.00
1763, 2317.00
1764, 2318.00
1765, 2319.00
1766, 2319.00
1767, 2317.00
1768, 2318.00
1769, 2319.00
1770, 2316.00
1771, 2318.00
1772, 2315.00
1773, 2317.00
1774, 2315.00
1775, 2315.00
1776, 2317.00
1777, 2315.00
1778, 2312.00
1779, 2313.00
1780, 2312.00
1781, 2312.00
1782, 2310.00
1783, 2313.00
1784, 2310.00
1785, 2310.00
1786, 2310.00
1787, 2310.00
1788, 2308.00
1789, 2309.00
1790, 2307.00
1791, 2307.00
1792, 2307.00
1793, 2305.00
1794, 2306.00
1795, 2308.00
1796, 2304.00
1797, 2305.00
1798, 2302.00
1799, 2303.00
1800, 2301.00
1801, 2299.00
1802, 2300.00
1803, 2299.00
1804, 2300.00
1805, 2299.00
1806, 2299.00
1807, 2299.00
1808, 2299.00
1809, 2298.00
1810, 2296.00
1811, 2296.00
1812, 2295.00
1813, 2295.00
1814, 2293.00
1815, 2295.00
1816, 2293.00
1817, 2292.00
1818, 2292.00
1819, 2289.00
1820, 2290.00
1821, 2286.00
1822, 2287.00
1823, 2287.00
1824, 2285.00
1825, 2283.00
1826, 2282.00
1827, 2282.00
1828, 2279.00
1829, 2279.00
1830, 2278.00
1831, 2275.00
1832, 2272.00
1833, 2270.00
1834, 2271.00
1835, 2267.00
1836, 2267.00
1837, 2263.00
1838, 2263.00
1839, 2261.00
1840, 2257.00
1841, 2256.00
1842, 2252.00
1843, 2249.00
1844, 2247.00
1845, 2244.00
1846, 2242.00
1847, 2241.00
1848, 2239.00
1849, 2234.00
1850, 2232.00
1851, 2230.00
1852, 2228.00
1853, 2226.00
1854, 2224.00
1855, 2221.00
1856, 2219.00
1857, 2215.00
1858, 2213.00
1859, 2211.00
1860, 2209.00
1861, 2208.00
1862, 2203.00
1863, 2205.00
1864, 2202.00
1865, 2200.00
1866, 2199.00
1867, 2197.00
1868, 2194.00
1869, 2192.00
1870, 2192.00
1871, 2190.00
1872, 2189.00
1873, 2189.00
1874, 2186.00
1875, 2188.00
1876, 2184.00
1877, 2182.00
1878, 2183.00
1879, 2183.00
1880, 2182.00
1881, 2180.00
1882, 2180.00
1883, 2178.00
1884, 2176.00
1885, 2177.00
1886, 2176.00
1887, 2175.00
1888, 2176.00
1889, 2176.00
1890, 2175.00
1891, 2173.00
1892, 2174.00
1893, 2172.00
1894, 2171.00
1895, 2172.00
1896, 2171.00
1897, 2170.00
1898, 2170.00
1899, 2171.00
1900, 2169.00
1901, 2169.00
1902, 2168.00
1903, 2167.00
1904, 2168.00
1905, 2169.00
1906, 2168.00
1907, 2166.00
1908, 2167.00
1909, 2167.00
1910, 2167.00
1911, 2165.00
1912, 2166.00
1913, 2166.00
1914, 2165.00
1915, 2165.00
1916, 2166.00
1917, 2164.00
1918, 2166.00
1919, 2165.00
1920, 2164.00
1921, 2165.00
1922, 2166.00
1923, 2166.00
1924, 2165.00
1925, 2166.00
1926, 2165.00
1927, 2165.00
1928, 2165.00
1929, 2166.00
1930, 2165.00
1931, 2164.00
1932, 2164.00
1933, 2164.00
1934, 2166.00
1935, 2166.00
1936, 2167.00
1937, 2168.00
1938, 2163.00
1939, 2165.00
1940, 2166.00
1941, 2166.00
1942, 2167.00
1943, 2168.00
1944, 2167.00
1945, 2165.00
1946, 2169.00
1947, 2166.00
1948, 2168.00
1949, 2168.00
1950, 2169.00
1951, 2170.00
1952, 2168.00
1953, 2171.00
1954, 2169.00
1955, 2170.00
1956, 2169.00
1957, 2171.00
1958, 2173.00
1959, 2171.00
1960, 2171.00
1961, 2172.00
1962, 2173.00
1963, 2174.00
1964, 2173.00
1965, 2172.00
1966, 2175.00
1967, 2176.00
1968, 2175.00
1969, 2178.00
1970, 2177.00
1971, 2179.00
1972, 2180.00
1973, 2178.00
1974, 2179.00
1975, 2179.00
1976, 2178.00
1977, 2181.00
1978, 2180.00
1979, 2180.00
1980, 2182.00
1981, 2182.00
1982, 2181.00
1983, 2183.00
1984, 2183.00
1985, 2185.00
1986, 2183.00
1987, 2185.00
1988, 2185.00
1989, 2187.00
1990, 2186.00
1991, 2187.00
1992, 2188.00
1993, 2187.00
1994, 2187.00
1995, 2188.00
1996, 2192.00
1997, 2190.00
1998, 2193.00
1999, 2192.00
2000, 2193.00
2001, 2194.00
2002, 2194.00
2003, 2194.00
2004, 2193.00
2005, 2194.00
2006, 2195.00
2007, 2194.00
2008, 2196.00
2009, 2198.00
2010, 2196.00
2011, 2197.00
2012, 2198.00
2013, 2200.00
2014, 2200.00
2015, 2201.00
2016, 2201.00
2017, 2202.00
2018, 2202.00
2019, 2203.00
2020, 2204.00
2021, 2204.00
2022, 2203.00
2023, 2206.00
2024, 2206.00
2025, 2207.00
2026, 2208.00
2027, 2206.00
2028, 2209.00
2029, 2210.00
2030, 2210.00
2031, 2209.00
2032, 2212.00
2033, 2210.00
2034, 2212.00
2035, 2213.00
2036, 2214.00
2037, 2214.00
2038, 2214.00
2039, 2215.00
2040, 2217.00
2041, 2217.00
2042, 2216.00
2043, 2218.00
2044, 2220.00
2045, 2220.00
2046, 2220.00
2047, 2220.00
2048, 2222.00
2049, 2221.00
2050, 2223.00
2051, 2226.00
2052, 2226.00
2053, 2229.00
2054, 2227.00
2055, 2228.00
2056, 2228.00
2057, 2231.00
2058, 2228.00
2059, 2231.00
2060, 2233.00
2061, 2233.00
2062, 2235.00
2063, 2233.00
2064, 2235.00
2065, 2236.00
2066, 2236.00
2067, 2238.00
2068, 2241.00
2069, 2241.00
2070, 2243.00
2071, 2243.00
2072, 2243.00
2073, 2243.00
2074, 2243.00
2075, 2247.00
2076, 2248.00
2077, 2248.00
2078, 2248.00
2079, 2248.00
2080, 2248.00
2081, 2248.00
2082, 2249.00
2083, 2251.00
2084, 2252.00
2085, 2253.00
2086, 2254.00
2087, 2255.00
2088, 2255.00
2089, 2255.00
2090, 2258.00
2091, 2256.00
2092, 2260.00
2093, 2258.00
2094, 2260.00
2095, 2261.00
2096, 2258.00
2097, 2259.00
2098, 2262.00
2099, 2261.00
2100, 2262.00
2101, 2262.00
2102, 2263.00
2103, 2264.00
2104, 2265.00
2105, 2267.00
2106, 2266.00
2107, 2265.00
2108, 2267.00
2109, 2267.00
2110, 2267.00
2111, 2269.00
2112, 2269.00
2113, 2269.00
2114, 2270.00
2115, 2271.00
2116, 2268.00
2117, 2272.00
2118, 2270.00
2119, 2270.00
2120, 2273.00
2121, 2272.00
2122, 2273.00
2123, 2274.00
2124, 2273.00
2125, 2272.00
2126, 2275.00
2127, 2276.00
2128, 2276.00
2129, 2275.00
2130, 2275.00
2131, 2273.00
2132, 2277.00
2133, 2276.00
2134, 2279.00
2135, 2277.00
2136, 2277.00
2137, 2276.00
2138, 2278.00
2139, 2280.00
2140, 2279.00
2141, 2281.00
2142, 2280.00
2143, 2279.00
2144, 2281.00
2145, 2280.00
2146, 2283.00
2147, 2282.00
2148, 2281.00
2149, 2280.00
2150, 2281.00
