FW version: 24
Log Version: 3.0.3

General Info:
       Command/Macro Performed,            Timestamp,             Device ID, COM Port, UART/I2C, Test Name, Host Major, Host Minor, Host Revision, Host Git Commit
            Single_measurement,  2023_06_30_12_13_04,       Insight2_F4_xxx,    USB-C,      USB,          ,          0,          1,             1,      4031237645

Show Spectrometer Status:
l0_version, f4_version, battery_perc, battery_mVolt, accelerometer_temp, accelerometer_x, accelerometer_y, accelerometer_z, compass_temp, compass_x, compass_y, compass_z, lamp_0, lamp_1, gain_0, gain_1
        17,         24,           95,          2080,               5744,           65384,           65456,           18408,            0,     65405,     65459,     65519,   2457,   2457,      1,      1

Temperature Statistic Info:
NTC AVG [°C], NTC2 AVG [°C]
      37.669,        37.382

Statistic Info:
M1:  num,      min,      max,   median,      AVG,      STD,M2:  num,      min,      max,   median,      AVG,      STD
     301,  1090.00,  1248.00,  1126.00,  1142.60,  49.2602,     401,  1601.00,  1696.00,  1651.00,  1650.09,  32.8491,

Measurements:
Wavelength, Data Amplitude
1350, 1107.00
1351, 1108.00
1352, 1107.00
1353, 1106.00
1354, 1106.00
1355, 1106.00
1356, 1106.00
1357, 1106.00
1358, 1105.00
1359, 1104.00
1360, 1104.00
1361, 1104.00
1362, 1104.00
1363, 1104.00
1364, 1103.00
1365, 1103.00
1366, 1102.00
1367, 1102.00
1368, 1102.00
1369, 1101.00
1370, 1100.00
1371, 1099.00
1372, 1099.00
1373, 1099.00
1374, 1099.00
1375, 1098.00
1376, 1098.00
1377, 1096.00
1378, 1095.00
1379, 1096.00
1380, 1096.00
1381, 1095.00
1382, 1095.00
1383, 1095.00
1384, 1094.00
1385, 1093.00
1386, 1093.00
1387, 1093.00
1388, 1094.00
1389, 1093.00
1390, 1093.00
1391, 1093.00
1392, 1092.00
1393, 1093.00
1394, 1092.00
1395, 1092.00
1396, 1091.00
1397, 1092.00
1398, 1091.00
1399, 1092.00
1400, 1090.00
1401, 1091.00
1402, 1092.00
1403, 1090.00
1404, 1091.00
1405, 1092.00
1406, 1090.00
1407, 1091.00
1408, 1091.00
1409, 1091.00
1410, 1091.00
1411, 1090.00
1412, 1091.00
1413, 1091.00
1414, 1091.00
1415, 1092.00
1416, 1090.00
1417, 1090.00
1418, 1090.00
1419, 1091.00
1420, 1091.00
1421, 1091.00
1422, 1090.00
1423, 1091.00
1424, 1091.00
1425, 1091.00
1426, 1093.00
1427, 1092.00
1428, 1093.00
1429, 1093.00
1430, 1091.00
1431, 1092.00
1432, 1093.00
1433, 1094.00
1434, 1093.00
1435, 1094.00
1436, 1093.00
1437, 1094.00
1438, 1094.00
1439, 1095.00
1440, 1094.00
1441, 1095.00
1442, 1096.00
1443, 1095.00
1444, 1096.00
1445, 1096.00
1446, 1097.00
1447, 1097.00
1448, 1098.00
1449, 1098.00
1450, 1099.00
1451, 1098.00
1452, 1099.00
1453, 1099.00
1454, 1101.00
1455, 1102.00
1456, 1101.00
1457, 1101.00
1458, 1102.00
1459, 1102.00
1460, 1102.00
1461, 1103.00
1462, 1103.00
1463, 1104.00
1464, 1105.00
1465, 1105.00
1466, 1105.00
1467, 1106.00
1468, 1106.00
1469, 1107.00
1470, 1107.00
1471, 1108.00
1472, 1108.00
1473, 1108.00
1474, 1110.00
1475, 1110.00
1476, 1112.00
1477, 1112.00
1478, 1112.00
1479, 1113.00
1480, 1114.00
1481, 1114.00
1482, 1115.00
1483, 1116.00
1484, 1116.00
1485, 1117.00
1486, 1118.00
1487, 1118.00
1488, 1119.00
1489, 1119.00
1490, 1121.00
1491, 1121.00
1492, 1121.00
1493, 1122.00
1494, 1122.00
1495, 1123.00
1496, 1124.00
1497, 1125.00
1498, 1124.00
1499, 1126.00
1500, 1126.00
1501, 1128.00
1502, 1129.00
1503, 1129.00
1504, 1129.00
1505, 1130.00
1506, 1131.00
1507, 1132.00
1508, 1132.00
1509, 1133.00
1510, 1133.00
1511, 1135.00
1512, 1135.00
1513, 1136.00
1514, 1136.00
1515, 1137.00
1516, 1138.00
1517, 1139.00
1518, 1139.00
1519, 1140.00
1520, 1141.00
1521, 1140.00
1522, 1142.00
1523, 1142.00
1524, 1144.00
1525, 1145.00
1526, 1145.00
1527, 1146.00
1528, 1147.00
1529, 1146.00
1530, 1148.00
1531, 1148.00
1532, 1150.00
1533, 1151.00
1534, 1151.00
1535, 1152.00
1536, 1153.00
1537, 1153.00
1538, 1155.00
1539, 1155.00
1540, 1154.00
1541, 1157.00
1542, 1157.00
1543, 1157.00
1544, 1158.00
1545, 1159.00
1546, 1160.00
1547, 1161.00
1548, 1162.00
1549, 1163.00
1550, 1163.00
1551, 1164.00
1552, 1165.00
1553, 1164.00
1554, 1166.00
1555, 1166.00
1556, 1166.00
1557, 1169.00
1558, 1170.00
1559, 1170.00
1560, 1170.00
1561, 1172.00
1562, 1172.00
1563, 1173.00
1564, 1174.00
1565, 1174.00
1566, 1175.00
1567, 1177.00
1568, 1177.00
1569, 1177.00
1570, 1179.00
1571, 1179.00
1572, 1181.00
1573, 1181.00
1574, 1183.00
1575, 1183.00
1576, 1185.00
1577, 1185.00
1578, 1186.00
1579, 1186.00
1580, 1187.00
1581, 1188.00
1582, 1189.00
1583, 1190.00
1584, 1191.00
1585, 1191.00
1586, 1192.00
1587, 1191.00
1588, 1192.00
1589, 1194.00
1590, 1194.00
1591, 1195.00
1592, 1196.00
1593, 1197.00
1594, 1197.00
1595, 1198.00
1596, 1198.00
1597, 1200.00
1598, 1201.00
1599, 1201.00
1600, 1202.00
1601, 1202.00
1602, 1203.00
1603, 1204.00
1604, 1205.00
1605, 1206.00
1606, 1207.00
1607, 1209.00
1608, 1208.00
1609, 1210.00
1610, 1211.00
1611, 1211.00
1612, 1213.00
1613, 1214.00
1614, 1215.00
1615, 1216.00
1616, 1217.00
1617, 1218.00
1618, 1218.00
1619, 1220.00
1620, 1221.00
1621, 1222.00
1622, 1223.00
1623, 1225.00
1624, 1225.00
1625, 1226.00
1626, 1227.00
1627, 1228.00
1628, 1229.00
1629, 1230.00
1630, 1231.00
1631, 1233.00
1632, 1232.00
1633, 1234.00
1634, 1235.00
1635, 1237.00
1636, 1236.00
1637, 1237.00
1638, 1238.00
1639, 1238.00
1640, 1239.00
1641, 1241.00
1642, 1242.00
1643, 1241.00
1644, 1242.00
1645, 1243.00
1646, 1245.00
1647, 1245.00
1648, 1247.00
1649, 1247.00
1650, 1248.00

1750, 1694.00
1751, 1695.00
1752, 1693.00
1753, 1696.00
1754, 1692.00
1755, 1693.00
1756, 1695.00
1757, 1692.00
1758, 1693.00
1759, 1693.00
1760, 1694.00
1761, 1693.00
1762, 1693.00
1763, 1694.00
1764, 1691.00
1765, 1693.00
1766, 1692.00
1767, 1693.00
1768, 1693.00
1769, 1693.00
1770, 1692.00
1771, 1693.00
1772, 1693.00
1773, 1691.00
1774, 1692.00
1775, 1690.00
1776, 1689.00
1777, 1690.00
1778, 1691.00
1779, 1691.00
1780, 1689.00
1781, 1689.00
1782, 1689.00
1783, 1690.00
1784, 1690.00
1785, 1688.00
1786, 1687.00
1787, 1687.00
1788, 1687.00
1789, 1687.00
1790, 1688.00
1791, 1686.00
1792, 1686.00
1793, 1685.00
1794, 1685.00
1795, 1686.00
1796, 1685.00
1797, 1685.00
1798, 1686.00
1799, 1684.00
1800, 1684.00
1801, 1685.00
1802, 1684.00
1803, 1683.00
1804, 1684.00
1805, 1685.00
1806, 1683.00
1807, 1683.00
1808, 1682.00
1809, 1682.00
1810, 1682.00
1811, 1680.00
1812, 1681.00
1813, 1681.00
1814, 1683.00
1815, 1682.00
1816, 1680.00
1817, 1681.00
1818, 1681.00
1819, 1682.00
1820, 1679.00
1821, 1679.00
1822, 1679.00
1823, 1678.00
1824, 1678.00
1825, 1676.00
1826, 1678.00
1827, 1677.00
1828, 1674.00
1829, 1674.00
1830, 1674.00
1831, 1674.00
1832, 1672.00
1833, 1671.00
1834, 1671.00
1835, 1670.00
1836, 1669.00
1837, 1669.00
1838, 1668.00
1839, 1666.00
1840, 1665.00
1841, 1666.00
1842, 1664.00
1843, 1661.00
1844, 1659.00
1845, 1658.00
1846, 1658.00
1847, 1655.00
1848, 1653.00
1849, 1653.00
1850, 1650.00
1851, 1651.00
1852, 1649.00
1853, 1647.00
1854, 1645.00
1855, 1643.00
1856, 1641.00
1857, 1640.00
1858, 1637.00
1859, 1635.00
1860, 1636.00
1861, 1634.00
1862, 1633.00
1863, 1632.00
1864, 1631.00
1865, 1629.00
1866, 1627.00
1867, 1625.00
1868, 1625.00
1869, 1623.00
1870, 1621.00
1871, 1620.00
1872, 1619.00
1873, 1619.00
1874, 1617.00
1875, 1618.00
1876, 1617.00
1877, 1617.00
1878, 1618.00
1879, 1614.00
1880, 1614.00
1881, 1612.00
1882, 1612.00
1883, 1611.00
1884, 1610.00
1885, 1610.00
1886, 1610.00
1887, 1609.00
1888, 1610.00
1889, 1608.00
1890, 1608.00
1891, 1607.00
1892, 1608.00
1893, 1606.00
1894, 1606.00
1895, 1606.00
1896, 1606.00
1897, 1604.00
1898, 1606.00
1899, 1605.00
1900, 1604.00
1901, 1603.00
1902, 1605.00
1903, 1603.00
1904, 1606.00
1905, 1604.00
1906, 1605.00
1907, 1605.00
1908, 1604.00
1909, 1602.00
1910, 1602.00
1911, 1602.00
1912, 1602.00
1913, 1602.00
1914, 1603.00
1915, 1601.00
1916, 1602.00
1917, 1601.00
1918, 1603.00
1919, 1603.00
1920, 1602.00
1921, 1603.00
1922, 1602.00
1923, 1601.00
1924, 1602.00
1925, 1602.00
1926, 1601.00
1927, 1601.00
1928, 1603.00
1929, 1601.00
1930, 1601.00
1931, 1602.00
1932, 1602.00
1933, 1604.00
1934, 1604.00
1935, 1602.00
1936, 1602.00
1937, 1603.00
1938, 1604.00
1939, 1604.00
1940, 1604.00
1941, 1603.00
1942, 1605.00
1943, 1604.00
1944, 1605.00
1945, 1604.00
1946, 1606.00
1947, 1604.00
1948, 1606.00
1949, 1605.00
1950, 1605.00
1951, 1607.00
1952, 1608.00
1953, 1609.00
1954, 1608.00
1955, 1609.00
1956, 1609.00
1957, 1609.00
1958, 1609.00
1959, 1609.00
1960, 1608.00
1961, 1611.00
1962, 1613.00
1963, 1611.00
1964, 1611.00
1965, 1611.00
1966, 1613.00
1967, 1611.00
1968, 1613.00
1969, 1614.00
1970, 1614.00
1971, 1613.00
1972, 1614.00
1973, 1616.00
1974, 1616.00
1975, 1617.00
1976, 1616.00
1977, 1617.00
1978, 1619.00
1979, 1619.00
1980, 1617.00
1981, 1619.00
1982, 1621.00
1983, 1620.00
1984, 1621.00
1985, 1621.00
1986, 1621.00
1987, 1621.00
1988, 1623.00
1989, 1623.00
1990, 1624.00
1991, 1624.00
1992, 1626.00
1993, 1627.00
1994, 1626.00
1995, 1626.00
1996, 1625.00
1997, 1627.00
1998, 1626.00
1999, 1627.00
2000, 1628.00
2001, 1627.00
2002, 1628.00
2003, 1630.00
2004, 1631.00
2005, 1630.00
2006, 1630.00
2007, 1631.00
2008, 1633.00
2009, 1632.00
2010, 1632.00
2011, 1633.00
2012, 1635.00
2013, 1632.00
2014, 1635.00
2015, 1637.00
2016, 1635.00
2017, 1636.00
2018, 1636.00
2019, 1637.00
2020, 1638.00
2021, 1637.00
2022, 1638.00
2023, 1638.00
2024, 1638.00
2025, 1640.00
2026, 1640.00
2027, 1640.00
2028, 1639.00
2029, 1642.00
2030, 1641.00
2031, 1641.00
2032, 1643.00
2033, 1643.00
2034, 1644.00
2035, 1644.00
2036, 1645.00
2037, 1645.00
2038, 1645.00
2039, 1646.00
2040, 1647.00
2041, 1645.00
2042, 1648.00
2043, 1649.00
2044, 1649.00
2045, 1650.00
2046, 1651.00
2047, 1651.00
2048, 1651.00
2049, 1651.00
2050, 1651.00
2051, 1654.00
2052, 1654.00
2053, 1654.00
2054, 1657.00
2055, 1657.00
2056, 1656.00
2057, 1658.00
2058, 1659.00
2059, 1657.00
2060, 1660.00
2061, 1660.00
2062, 1661.00
2063, 1662.00
2064, 1662.00
2065, 1662.00
2066, 1662.00
2067, 1664.00
2068, 1664.00
2069, 1665.00
2070, 1666.00
2071, 1667.00
2072, 1666.00
2073, 1669.00
2074, 1668.00
2075, 1667.00
2076, 1670.00
2077, 1670.00
2078, 1671.00
2079, 1672.00
2080, 1672.00
2081, 1672.00
2082, 1673.00
2083, 1674.00
2084, 1676.00
2085, 1675.00
2086, 1675.00
2087, 1675.00
2088, 1676.00
2089, 1676.00
2090, 1676.00
2091, 1678.00
2092, 1678.00
2093, 1679.00
2094, 1679.00
2095, 1678.00
2096, 1680.00
2097, 1679.00
2098, 1679.00
2099, 1681.00
2100, 1680.00
2101, 1682.00
2102, 1682.00
2103, 1681.00
2104, 1682.00
2105, 1682.00
2106, 1684.00
2107, 1683.00
2108, 1684.00
2109, 1684.00
2110, 1684.00
2111, 1684.00
2112, 1684.00
2113, 1685.00
2114, 1685.00
2115, 1685.00
2116, 1685.00
2117, 1686.00
2118, 1687.00
2119, 1684.00
2120, 1686.00
2121, 1687.00
2122, 1687.00
2123, 1687.00
2124, 1686.00
2125, 1685.00
2126, 1687.00
2127, 1688.00
2128, 1689.00
2129, 1688.00
2130, 1689.00
2131, 1688.00
2132, 1689.00
2133, 1686.00
2134, 1689.00
2135, 1689.00
2136, 1688.00
2137, 1692.00
2138, 1689.00
2139, 1689.00
2140, 1690.00
2141, 1691.00
2142, 1689.00
2143, 1690.00
2144, 1691.00
2145, 1690.00
2146, 1692.00
2147, 1692.00
2148, 1692.00
2149, 1692.00
2150, 1691.00
