FW version: 24
Log Version: 3.0.3

General Info:
       Command/Macro Performed,            Timestamp,             Device ID, COM Port, UART/I2C, Test Name, Host Major, Host Minor, Host Revision, Host Git Commit
            Single_measurement,  2023_07_11_11_37_05,       Insight2_F4_xxx,    USB-C,      USB,          ,          0,          1,             1,      4031237645

Show Spectrometer Status:
l0_version, f4_version, battery_perc, battery_mVolt, accelerometer_temp, accelerometer_x, accelerometer_y, accelerometer_z, compass_temp, compass_x, compass_y, compass_z, lamp_0, lamp_1, gain_0, gain_1
        17,         24,           50,          1910,               7008,           65228,            1228,           18832,            0,     65535,     65484,     18933,   2047,   2047,      1,      1

Temperature Statistic Info:
NTC AVG [°C], NTC2 AVG [°C]
      41.862,        41.566

Statistic Info:
M1:  num,      min,      max,   median,      AVG,      STD,M2:  num,      min,      max,   median,      AVG,      STD
     301,  1076.00,  1253.00,  1117.00,  1136.44,  56.6572,     401,  1540.00,  1649.00,  1593.00,  1592.95,  36.8120,

Measurements:
Wavelength, Data Amplitude
1350, 1099.00
1351, 1099.00
1352, 1098.00
1353, 1098.00
1354, 1097.00
1355, 1098.00
1356, 1098.00
1357, 1096.00
1358, 1097.00
1359, 1095.00
1360, 1096.00
1361, 1094.00
1362, 1094.00
1363, 1093.00
1364, 1093.00
1365, 1092.00
1366, 1091.00
1367, 1090.00
1368, 1090.00
1369, 1089.00
1370, 1089.00
1371, 1088.00
1372, 1087.00
1373, 1086.00
1374, 1087.00
1375, 1085.00
1376, 1085.00
1377, 1084.00
1378, 1083.00
1379, 1084.00
1380, 1083.00
1381, 1082.00
1382, 1083.00
1383, 1081.00
1384, 1081.00
1385, 1081.00
1386, 1080.00
1387, 1080.00
1388, 1080.00
1389, 1080.00
1390, 1079.00
1391, 1080.00
1392, 1078.00
1393, 1079.00
1394, 1078.00
1395, 1078.00
1396, 1079.00
1397, 1079.00
1398, 1077.00
1399, 1077.00
1400, 1077.00
1401, 1077.00
1402, 1078.00
1403, 1077.00
1404, 1077.00
1405, 1077.00
1406, 1077.00
1407, 1077.00
1408, 1077.00
1409, 1077.00
1410, 1077.00
1411, 1077.00
1412, 1077.00
1413, 1077.00
1414, 1076.00
1415, 1077.00
1416, 1077.00
1417, 1077.00
1418, 1077.00
1419, 1077.00
1420, 1077.00
1421, 1077.00
1422, 1076.00
1423, 1078.00
1424, 1077.00
1425, 1077.00
1426, 1078.00
1427, 1078.00
1428, 1079.00
1429, 1079.00
1430, 1079.00
1431, 1079.00
1432, 1079.00
1433, 1079.00
1434, 1080.00
1435, 1080.00
1436, 1079.00
1437, 1080.00
1438, 1081.00
1439, 1081.00
1440, 1082.00
1441, 1081.00
1442, 1082.00
1443, 1083.00
1444, 1083.00
1445, 1083.00
1446, 1084.00
1447, 1083.00
1448, 1084.00
1449, 1085.00
1450, 1086.00
1451, 1085.00
1452, 1086.00
1453, 1086.00
1454, 1088.00
1455, 1087.00
1456, 1088.00
1457, 1088.00
1458, 1088.00
1459, 1089.00
1460, 1090.00
1461, 1089.00
1462, 1091.00
1463, 1092.00
1464, 1091.00
1465, 1092.00
1466, 1092.00
1467, 1093.00
1468, 1094.00
1469, 1095.00
1470, 1095.00
1471, 1096.00
1472, 1096.00
1473, 1097.00
1474, 1098.00
1475, 1098.00
1476, 1099.00
1477, 1100.00
1478, 1101.00
1479, 1102.00
1480, 1103.00
1481, 1103.00
1482, 1104.00
1483, 1104.00
1484, 1105.00
1485, 1105.00
1486, 1106.00
1487, 1107.00
1488, 1108.00
1489, 1108.00
1490, 1110.00
1491, 1111.00
1492, 1111.00
1493, 1112.00
1494, 1112.00
1495, 1113.00
1496, 1113.00
1497, 1114.00
1498, 1116.00
1499, 1116.00
1500, 1117.00
1501, 1118.00
1502, 1117.00
1503, 1119.00
1504, 1120.00
1505, 1120.00
1506, 1121.00
1507, 1122.00
1508, 1122.00
1509, 1124.00
1510, 1124.00
1511, 1125.00
1512, 1126.00
1513, 1128.00
1514, 1127.00
1515, 1129.00
1516, 1129.00
1517, 1130.00
1518, 1132.00
1519, 1131.00
1520, 1133.00
1521, 1134.00
1522, 1135.00
1523, 1135.00
1524, 1136.00
1525, 1136.00
1526, 1139.00
1527, 1138.00
1528, 1140.00
1529, 1141.00
1530, 1142.00
1531, 1143.00
1532, 1144.00
1533, 1143.00
1534, 1144.00
1535, 1146.00
1536, 1148.00
1537, 1148.00
1538, 1149.00
1539, 1150.00
1540, 1151.00
1541, 1152.00
1542, 1153.00
1543, 1154.00
1544, 1155.00
1545, 1155.00
1546, 1157.00
1547, 1157.00
1548, 1158.00
1549, 1159.00
1550, 1161.00
1551, 1161.00
1552, 1162.00
1553, 1164.00
1554, 1163.00
1555, 1164.00
1556, 1166.00
1557, 1166.00
1558, 1167.00
1559, 1168.00
1560, 1169.00
1561, 1170.00
1562, 1171.00
1563, 1172.00
1564, 1173.00
1565, 1175.00
1566, 1175.00
1567, 1177.00
1568, 1178.00
1569, 1178.00
1570, 1180.00
1571, 1180.00
1572, 1180.00
1573, 1183.00
1574, 1184.00
1575, 1185.00
1576, 1185.00
1577, 1186.00
1578, 1187.00
1579, 1188.00
1580, 1189.00
1581, 1190.00
1582, 1190.00
1583, 1192.00
1584, 1193.00
1585, 1193.00
1586, 1194.00
1587, 1195.00
1588, 1196.00
1589, 1196.00
1590, 1197.00
1591, 1199.00
1592, 1198.00
1593, 1200.00
1594, 1201.00
1595, 1201.00
1596, 1202.00
1597, 1204.00
1598, 1204.00
1599, 1205.00
1600, 1206.00
1601, 1207.00
1602, 1208.00
1603, 1209.00
1604, 1211.00
1605, 1211.00
1606, 1212.00
1607, 1213.00
1608, 1214.00
1609, 1215.00
1610, 1217.00
1611, 1218.00
1612, 1219.00
1613, 1220.00
1614, 1221.00
1615, 1221.00
1616, 1223.00
1617, 1225.00
1618, 1225.00
1619, 1226.00
1620, 1227.00
1621, 1228.00
1622, 1230.00
1623, 1230.00
1624, 1232.00
1625, 1233.00
1626, 1235.00
1627, 1236.00
1628, 1235.00
1629, 1237.00
1630, 1239.00
1631, 1238.00
1632, 1239.00
1633, 1241.00
1634, 1242.00
1635, 1242.00
1636, 1243.00
1637, 1244.00
1638, 1245.00
1639, 1245.00
1640, 1247.00
1641, 1247.00
1642, 1247.00
1643, 1248.00
1644, 1249.00
1645, 1249.00
1646, 1250.00
1647, 1251.00
1648, 1253.00
1649, 1253.00
1650, 1253.00

1750, 1646.00
1751, 1648.00
1752, 1648.00
1753, 1649.00
1754, 1647.00
1755, 1647.00
1756, 1646.00
1757, 1648.00
1758, 1647.00
1759, 1648.00
1760, 1648.00
1761, 1648.00
1762, 1647.00
1763, 1647.00
1764, 1647.00
1765, 1648.00
1766, 1648.00
1767, 1644.00
1768, 1647.00
1769, 1645.00
1770, 1645.00
1771, 1646.00
1772, 1646.00
1773, 1644.00
1774, 1645.00
1775, 1643.00
1776, 1643.00
1777, 1644.00
1778, 1643.00
1779, 1644.00
1780, 1645.00
1781, 1643.00
1782, 1641.00
1783, 1643.00
1784, 1643.00
1785, 1642.00
1786, 1640.00
1787, 1644.00
1788, 1640.00
1789, 1638.00
1790, 1639.00
1791, 1641.00
1792, 1639.00
1793, 1640.00
1794, 1639.00
1795, 1639.00
1796, 1637.00
1797, 1638.00
1798, 1637.00
1799, 1637.00
1800, 1638.00
1801, 1638.00
1802, 1637.00
1803, 1636.00
1804, 1636.00
1805, 1634.00
1806, 1634.00
1807, 1635.00
1808, 1634.00
1809, 1635.00
1810, 1635.00
1811, 1634.00
1812, 1636.00
1813, 1631.00
1814, 1633.00
1815, 1632.00
1816, 1630.00
1817, 1632.00
1818, 1629.00
1819, 1630.00
1820, 1631.00
1821, 1629.00
1822, 1629.00
1823, 1627.00
1824, 1628.00
1825, 1625.00
1826, 1626.00
1827, 1626.00
1828, 1624.00
1829, 1622.00
1830, 1620.00
1831, 1620.00
1832, 1620.00
1833, 1618.00
1834, 1617.00
1835, 1616.00
1836, 1614.00
1837, 1613.00
1838, 1611.00
1839, 1611.00
1840, 1608.00
1841, 1607.00
1842, 1605.00
1843, 1603.00
1844, 1601.00
1845, 1600.00
1846, 1599.00
1847, 1597.00
1848, 1596.00
1849, 1592.00
1850, 1593.00
1851, 1588.00
1852, 1586.00
1853, 1587.00
1854, 1583.00
1855, 1584.00
1856, 1582.00
1857, 1581.00
1858, 1577.00
1859, 1575.00
1860, 1575.00
1861, 1574.00
1862, 1572.00
1863, 1570.00
1864, 1569.00
1865, 1568.00
1866, 1569.00
1867, 1563.00
1868, 1563.00
1869, 1562.00
1870, 1561.00
1871, 1561.00
1872, 1561.00
1873, 1557.00
1874, 1558.00
1875, 1556.00
1876, 1557.00
1877, 1554.00
1878, 1554.00
1879, 1553.00
1880, 1553.00
1881, 1554.00
1882, 1551.00
1883, 1552.00
1884, 1552.00
1885, 1551.00
1886, 1550.00
1887, 1550.00
1888, 1549.00
1889, 1548.00
1890, 1549.00
1891, 1548.00
1892, 1546.00
1893, 1547.00
1894, 1547.00
1895, 1546.00
1896, 1546.00
1897, 1547.00
1898, 1547.00
1899, 1545.00
1900, 1543.00
1901, 1546.00
1902, 1544.00
1903, 1545.00
1904, 1543.00
1905, 1545.00
1906, 1543.00
1907, 1542.00
1908, 1542.00
1909, 1544.00
1910, 1542.00
1911, 1544.00
1912, 1543.00
1913, 1544.00
1914, 1545.00
1915, 1541.00
1916, 1542.00
1917, 1543.00
1918, 1543.00
1919, 1541.00
1920, 1541.00
1921, 1542.00
1922, 1542.00
1923, 1543.00
1924, 1542.00
1925, 1541.00
1926, 1541.00
1927, 1541.00
1928, 1540.00
1929, 1542.00
1930, 1541.00
1931, 1542.00
1932, 1543.00
1933, 1542.00
1934, 1541.00
1935, 1542.00
1936, 1541.00
1937, 1543.00
1938, 1544.00
1939, 1544.00
1940, 1542.00
1941, 1542.00
1942, 1543.00
1943, 1542.00
1944, 1543.00
1945, 1544.00
1946, 1545.00
1947, 1545.00
1948, 1544.00
1949, 1545.00
1950, 1545.00
1951, 1545.00
1952, 1546.00
1953, 1547.00
1954, 1548.00
1955, 1546.00
1956, 1546.00
1957, 1547.00
1958, 1548.00
1959, 1549.00
1960, 1549.00
1961, 1550.00
1962, 1549.00
1963, 1550.00
1964, 1549.00
1965, 1551.00
1966, 1553.00
1967, 1552.00
1968, 1552.00
1969, 1553.00
1970, 1553.00
1971, 1554.00
1972, 1553.00
1973, 1554.00
1974, 1555.00
1975, 1556.00
1976, 1555.00
1977, 1555.00
1978, 1557.00
1979, 1557.00
1980, 1557.00
1981, 1559.00
1982, 1557.00
1983, 1559.00
1984, 1557.00
1985, 1558.00
1986, 1560.00
1987, 1560.00
1988, 1559.00
1989, 1563.00
1990, 1562.00
1991, 1560.00
1992, 1563.00
1993, 1562.00
1994, 1564.00
1995, 1562.00
1996, 1565.00
1997, 1565.00
1998, 1567.00
1999, 1567.00
2000, 1568.00
2001, 1568.00
2002, 1566.00
2003, 1570.00
2004, 1568.00
2005, 1568.00
2006, 1568.00
2007, 1571.00
2008, 1569.00
2009, 1570.00
2010, 1571.00
2011, 1571.00
2012, 1571.00
2013, 1573.00
2014, 1575.00
2015, 1575.00
2016, 1573.00
2017, 1576.00
2018, 1575.00
2019, 1576.00
2020, 1577.00
2021, 1578.00
2022, 1577.00
2023, 1577.00
2024, 1578.00
2025, 1577.00
2026, 1580.00
2027, 1578.00
2028, 1581.00
2029, 1580.00
2030, 1581.00
2031, 1582.00
2032, 1582.00
2033, 1582.00
2034, 1582.00
2035, 1584.00
2036, 1584.00
2037, 1584.00
2038, 1584.00
2039, 1584.00
2040, 1587.00
2041, 1588.00
2042, 1587.00
2043, 1589.00
2044, 1591.00
2045, 1589.00
2046, 1589.00
2047, 1591.00
2048, 1592.00
2049, 1592.00
2050, 1594.00
2051, 1593.00
2052, 1594.00
2053, 1596.00
2054, 1597.00
2055, 1597.00
2056, 1596.00
2057, 1598.00
2058, 1599.00
2059, 1599.00
2060, 1600.00
2061, 1602.00
2062, 1601.00
2063, 1601.00
2064, 1601.00
2065, 1604.00
2066, 1603.00
2067, 1605.00
2068, 1605.00
2069, 1607.00
2070, 1607.00
2071, 1606.00
2072, 1607.00
2073, 1607.00
2074, 1608.00
2075, 1608.00
2076, 1610.00
2077, 1610.00
2078, 1612.00
2079, 1614.00
2080, 1615.00
2081, 1613.00
2082, 1614.00
2083, 1613.00
2084, 1614.00
2085, 1615.00
2086, 1616.00
2087, 1616.00
2088, 1616.00
2089, 1620.00
2090, 1619.00
2091, 1619.00
2092, 1621.00
2093, 1621.00
2094, 1619.00
2095, 1618.00
2096, 1621.00
2097, 1620.00
2098, 1621.00
2099, 1623.00
2100, 1623.00
2101, 1623.00
2102, 1623.00
2103, 1624.00
2104, 1624.00
2105, 1623.00
2106, 1625.00
2107, 1625.00
2108, 1625.00
2109, 1627.00
2110, 1627.00
2111, 1625.00
2112, 1629.00
2113, 1626.00
2114, 1626.00
2115, 1628.00
2116, 1627.00
2117, 1629.00
2118, 1629.00
2119, 1629.00
2120, 1628.00
2121, 1629.00
2122, 1630.00
2123, 1629.00
2124, 1630.00
2125, 1631.00
2126, 1631.00
2127, 1631.00
2128, 1633.00
2129, 1630.00
2130, 1631.00
2131, 1632.00
2132, 1632.00
2133, 1632.00
2134, 1632.00
2135, 1633.00
2136, 1633.00
2137, 1633.00
2138, 1635.00
2139, 1635.00
2140, 1635.00
2141, 1634.00
2142, 1636.00
2143, 1636.00
2144, 1636.00
2145, 1637.00
2146, 1637.00
2147, 1638.00
2148, 1637.00
2149, 1637.00
2150, 1636.00
