FW version: 24
Log Version: 3.0.3

General Info:
       Command/Macro Performed,            Timestamp,             Device ID, COM Port, UART/I2C, Test Name, Host Major, Host Minor, Host Revision, Host Git Commit
            Single_measurement,  2023_07_11_11_03_46,       Insight2_F4_xxx,    USB-C,      USB,          ,          0,          1,             1,      4031237645

Show Spectrometer Status:
l0_version, f4_version, battery_perc, battery_mVolt, accelerometer_temp, accelerometer_x, accelerometer_y, accelerometer_z, compass_temp, compass_x, compass_y, compass_z, lamp_0, lamp_1, gain_0, gain_1
        17,         24,           49,          1905,               6576,           65116,            1052,           18708,            0,     65407,     65373,     18781,   3276,   3276,      1,      1

Temperature Statistic Info:
NTC AVG [°C], NTC2 AVG [°C]
      40.499,        40.144

Statistic Info:
M1:  num,      min,      max,   median,      AVG,      STD,M2:  num,      min,      max,   median,      AVG,      STD
     301,  2284.00,  2630.00,  2354.00,  2397.68, 107.4010,     401,  2915.00,  3122.00,  2999.00,  3005.51,  67.0624,

Measurements:
Wavelength, Data Amplitude
1350, 2349.00
1351, 2347.00
1352, 2347.00
1353, 2345.00
1354, 2344.00
1355, 2344.00
1356, 2341.00
1357, 2340.00
1358, 2339.00
1359, 2337.00
1360, 2335.00
1361, 2333.00
1362, 2332.00
1363, 2331.00
1364, 2328.00
1365, 2328.00
1366, 2326.00
1367, 2324.00
1368, 2322.00
1369, 2320.00
1370, 2318.00
1371, 2315.00
1372, 2316.00
1373, 2313.00
1374, 2312.00
1375, 2309.00
1376, 2310.00
1377, 2308.00
1378, 2305.00
1379, 2305.00
1380, 2304.00
1381, 2303.00
1382, 2301.00
1383, 2299.00
1384, 2299.00
1385, 2299.00
1386, 2298.00
1387, 2297.00
1388, 2296.00
1389, 2295.00
1390, 2294.00
1391, 2294.00
1392, 2293.00
1393, 2292.00
1394, 2291.00
1395, 2292.00
1396, 2289.00
1397, 2290.00
1398, 2289.00
1399, 2289.00
1400, 2288.00
1401, 2288.00
1402, 2288.00
1403, 2288.00
1404, 2288.00
1405, 2287.00
1406, 2288.00
1407, 2286.00
1408, 2286.00
1409, 2287.00
1410, 2287.00
1411, 2285.00
1412, 2285.00
1413, 2285.00
1414, 2285.00
1415, 2285.00
1416, 2285.00
1417, 2286.00
1418, 2284.00
1419, 2284.00
1420, 2286.00
1421, 2284.00
1422, 2285.00
1423, 2285.00
1424, 2286.00
1425, 2285.00
1426, 2286.00
1427, 2285.00
1428, 2286.00
1429, 2286.00
1430, 2289.00
1431, 2287.00
1432, 2287.00
1433, 2288.00
1434, 2289.00
1435, 2288.00
1436, 2289.00
1437, 2289.00
1438, 2289.00
1439, 2291.00
1440, 2290.00
1441, 2291.00
1442, 2291.00
1443, 2292.00
1444, 2293.00
1445, 2294.00
1446, 2294.00
1447, 2295.00
1448, 2297.00
1449, 2295.00
1450, 2298.00
1451, 2296.00
1452, 2298.00
1453, 2300.00
1454, 2300.00
1455, 2301.00
1456, 2301.00
1457, 2302.00
1458, 2304.00
1459, 2304.00
1460, 2306.00
1461, 2305.00
1462, 2306.00
1463, 2307.00
1464, 2308.00
1465, 2309.00
1466, 2310.00
1467, 2311.00
1468, 2313.00
1469, 2314.00
1470, 2314.00
1471, 2316.00
1472, 2318.00
1473, 2319.00
1474, 2320.00
1475, 2320.00
1476, 2320.00
1477, 2322.00
1478, 2324.00
1479, 2325.00
1480, 2328.00
1481, 2329.00
1482, 2330.00
1483, 2331.00
1484, 2333.00
1485, 2334.00
1486, 2335.00
1487, 2337.00
1488, 2338.00
1489, 2339.00
1490, 2341.00
1491, 2342.00
1492, 2344.00
1493, 2345.00
1494, 2346.00
1495, 2348.00
1496, 2348.00
1497, 2349.00
1498, 2352.00
1499, 2354.00
1500, 2354.00
1501, 2355.00
1502, 2358.00
1503, 2359.00
1504, 2361.00
1505, 2362.00
1506, 2362.00
1507, 2366.00
1508, 2367.00
1509, 2368.00
1510, 2370.00
1511, 2370.00
1512, 2373.00
1513, 2373.00
1514, 2375.00
1515, 2377.00
1516, 2378.00
1517, 2380.00
1518, 2383.00
1519, 2384.00
1520, 2385.00
1521, 2386.00
1522, 2389.00
1523, 2389.00
1524, 2391.00
1525, 2394.00
1526, 2395.00
1527, 2398.00
1528, 2398.00
1529, 2400.00
1530, 2401.00
1531, 2404.00
1532, 2405.00
1533, 2407.00
1534, 2408.00
1535, 2410.00
1536, 2412.00
1537, 2414.00
1538, 2416.00
1539, 2419.00
1540, 2419.00
1541, 2422.00
1542, 2423.00
1543, 2425.00
1544, 2426.00
1545, 2429.00
1546, 2429.00
1547, 2431.00
1548, 2433.00
1549, 2436.00
1550, 2437.00
1551, 2440.00
1552, 2440.00
1553, 2443.00
1554, 2445.00
1555, 2447.00
1556, 2449.00
1557, 2451.00
1558, 2453.00
1559, 2454.00
1560, 2456.00
1561, 2459.00
1562, 2461.00
1563, 2463.00
1564, 2464.00
1565, 2467.00
1566, 2469.00
1567, 2471.00
1568, 2472.00
1569, 2475.00
1570, 2477.00
1571, 2478.00
1572, 2480.00
1573, 2482.00
1574, 2484.00
1575, 2487.00
1576, 2487.00
1577, 2489.00
1578, 2492.00
1579, 2493.00
1580, 2495.00
1581, 2496.00
1582, 2499.00
1583, 2501.00
1584, 2503.00
1585, 2503.00
1586, 2507.00
1587, 2507.00
1588, 2509.00
1589, 2510.00
1590, 2512.00
1591, 2514.00
1592, 2515.00
1593, 2517.00
1594, 2519.00
1595, 2521.00
1596, 2524.00
1597, 2525.00
1598, 2527.00
1599, 2528.00
1600, 2530.00
1601, 2533.00
1602, 2533.00
1603, 2535.00
1604, 2538.00
1605, 2540.00
1606, 2542.00
1607, 2543.00
1608, 2545.00
1609, 2547.00
1610, 2549.00
1611, 2552.00
1612, 2554.00
1613, 2555.00
1614, 2558.00
1615, 2561.00
1616, 2562.00
1617, 2565.00
1618, 2567.00
1619, 2569.00
1620, 2570.00
1621, 2575.00
1622, 2576.00
1623, 2578.00
1624, 2580.00
1625, 2583.00
1626, 2585.00
1627, 2587.00
1628, 2589.00
1629, 2590.00
1630, 2593.00
1631, 2594.00
1632, 2596.00
1633, 2598.00
1634, 2601.00
1635, 2601.00
1636, 2604.00
1637, 2605.00
1638, 2607.00
1639, 2608.00
1640, 2611.00
1641, 2612.00
1642, 2615.00
1643, 2617.00
1644, 2619.00
1645, 2619.00
1646, 2622.00
1647, 2623.00
1648, 2625.00
1649, 2627.00
1650, 2630.00

1750, 3122.00
1751, 3121.00
1752, 3121.00
1753, 3121.00
1754, 3122.00
1755, 3120.00
1756, 3121.00
1757, 3122.00
1758, 3122.00
1759, 3118.00
1760, 3120.00
1761, 3121.00
1762, 3120.00
1763, 3119.00
1764, 3119.00
1765, 3119.00
1766, 3119.00
1767, 3118.00
1768, 3116.00
1769, 3119.00
1770, 3117.00
1771, 3117.00
1772, 3115.00
1773, 3115.00
1774, 3115.00
1775, 3115.00
1776, 3113.00
1777, 3112.00
1778, 3112.00
1779, 3111.00
1780, 3111.00
1781, 3109.00
1782, 3110.00
1783, 3111.00
1784, 3108.00
1785, 3107.00
1786, 3106.00
1787, 3107.00
1788, 3105.00
1789, 3104.00
1790, 3102.00
1791, 3102.00
1792, 3101.00
1793, 3100.00
1794, 3101.00
1795, 3101.00
1796, 3099.00
1797, 3098.00
1798, 3097.00
1799, 3098.00
1800, 3096.00
1801, 3097.00
1802, 3098.00
1803, 3095.00
1804, 3095.00
1805, 3094.00
1806, 3094.00
1807, 3093.00
1808, 3091.00
1809, 3090.00
1810, 3090.00
1811, 3089.00
1812, 3088.00
1813, 3088.00
1814, 3085.00
1815, 3085.00
1816, 3084.00
1817, 3082.00
1818, 3083.00
1819, 3081.00
1820, 3082.00
1821, 3081.00
1822, 3076.00
1823, 3075.00
1824, 3073.00
1825, 3071.00
1826, 3070.00
1827, 3068.00
1828, 3067.00
1829, 3062.00
1830, 3060.00
1831, 3060.00
1832, 3058.00
1833, 3056.00
1834, 3054.00
1835, 3051.00
1836, 3050.00
1837, 3045.00
1838, 3043.00
1839, 3040.00
1840, 3037.00
1841, 3034.00
1842, 3034.00
1843, 3026.00
1844, 3026.00
1845, 3022.00
1846, 3019.00
1847, 3016.00
1848, 3014.00
1849, 3010.00
1850, 3006.00
1851, 3001.00
1852, 3000.00
1853, 2997.00
1854, 2991.00
1855, 2991.00
1856, 2987.00
1857, 2985.00
1858, 2981.00
1859, 2978.00
1860, 2977.00
1861, 2972.00
1862, 2972.00
1863, 2966.00
1864, 2966.00
1865, 2963.00
1866, 2963.00
1867, 2958.00
1868, 2956.00
1869, 2955.00
1870, 2951.00
1871, 2953.00
1872, 2949.00
1873, 2946.00
1874, 2947.00
1875, 2945.00
1876, 2942.00
1877, 2941.00
1878, 2942.00
1879, 2941.00
1880, 2939.00
1881, 2939.00
1882, 2937.00
1883, 2937.00
1884, 2936.00
1885, 2932.00
1886, 2931.00
1887, 2933.00
1888, 2932.00
1889, 2933.00
1890, 2930.00
1891, 2927.00
1892, 2929.00
1893, 2928.00
1894, 2929.00
1895, 2927.00
1896, 2926.00
1897, 2925.00
1898, 2924.00
1899, 2925.00
1900, 2924.00
1901, 2923.00
1902, 2924.00
1903, 2922.00
1904, 2923.00
1905, 2922.00
1906, 2921.00
1907, 2920.00
1908, 2920.00
1909, 2922.00
1910, 2921.00
1911, 2920.00
1912, 2922.00
1913, 2919.00
1914, 2918.00
1915, 2920.00
1916, 2919.00
1917, 2919.00
1918, 2917.00
1919, 2917.00
1920, 2918.00
1921, 2917.00
1922, 2919.00
1923, 2917.00
1924, 2918.00
1925, 2918.00
1926, 2919.00
1927, 2917.00
1928, 2919.00
1929, 2915.00
1930, 2918.00
1931, 2917.00
1932, 2918.00
1933, 2917.00
1934, 2918.00
1935, 2918.00
1936, 2918.00
1937, 2920.00
1938, 2919.00
1939, 2917.00
1940, 2918.00
1941, 2920.00
1942, 2921.00
1943, 2919.00
1944, 2921.00
1945, 2920.00
1946, 2923.00
1947, 2920.00
1948, 2921.00
1949, 2923.00
1950, 2923.00
1951, 2923.00
1952, 2923.00
1953, 2925.00
1954, 2923.00
1955, 2927.00
1956, 2926.00
1957, 2925.00
1958, 2927.00
1959, 2926.00
1960, 2927.00
1961, 2928.00
1962, 2929.00
1963, 2929.00
1964, 2928.00
1965, 2929.00
1966, 2929.00
1967, 2930.00
1968, 2934.00
1969, 2933.00
1970, 2930.00
1971, 2935.00
1972, 2933.00
1973, 2938.00
1974, 2937.00
1975, 2935.00
1976, 2939.00
1977, 2938.00
1978, 2939.00
1979, 2941.00
1980, 2939.00
1981, 2942.00
1982, 2941.00
1983, 2943.00
1984, 2943.00
1985, 2944.00
1986, 2944.00
1987, 2945.00
1988, 2949.00
1989, 2948.00
1990, 2948.00
1991, 2948.00
1992, 2949.00
1993, 2950.00
1994, 2952.00
1995, 2951.00
1996, 2953.00
1997, 2952.00
1998, 2952.00
1999, 2954.00
2000, 2954.00
2001, 2955.00
2002, 2957.00
2003, 2958.00
2004, 2959.00
2005, 2961.00
2006, 2959.00
2007, 2959.00
2008, 2959.00
2009, 2963.00
2010, 2962.00
2011, 2963.00
2012, 2963.00
2013, 2964.00
2014, 2965.00
2015, 2966.00
2016, 2966.00
2017, 2967.00
2018, 2969.00
2019, 2969.00
2020, 2967.00
2021, 2969.00
2022, 2971.00
2023, 2973.00
2024, 2973.00
2025, 2973.00
2026, 2975.00
2027, 2974.00
2028, 2977.00
2029, 2977.00
2030, 2978.00
2031, 2978.00
2032, 2978.00
2033, 2979.00
2034, 2981.00
2035, 2981.00
2036, 2982.00
2037, 2982.00
2038, 2985.00
2039, 2983.00
2040, 2985.00
2041, 2987.00
2042, 2990.00
2043, 2987.00
2044, 2989.00
2045, 2991.00
2046, 2991.00
2047, 2993.00
2048, 2995.00
2049, 2993.00
2050, 2997.00
2051, 2997.00
2052, 2999.00
2053, 2999.00
2054, 2999.00
2055, 3001.00
2056, 3002.00
2057, 3003.00
2058, 3007.00
2059, 3007.00
2060, 3007.00
2061, 3007.00
2062, 3011.00
2063, 3011.00
2064, 3011.00
2065, 3015.00
2066, 3014.00
2067, 3015.00
2068, 3017.00
2069, 3019.00
2070, 3019.00
2071, 3019.00
2072, 3019.00
2073, 3023.00
2074, 3023.00
2075, 3023.00
2076, 3026.00
2077, 3027.00
2078, 3028.00
2079, 3030.00
2080, 3031.00
2081, 3033.00
2082, 3030.00
2083, 3032.00
2084, 3032.00
2085, 3033.00
2086, 3035.00
2087, 3035.00
2088, 3037.00
2089, 3037.00
2090, 3039.00
2091, 3039.00
2092, 3039.00
2093, 3041.00
2094, 3042.00
2095, 3041.00
2096, 3042.00
2097, 3044.00
2098, 3045.00
2099, 3046.00
2100, 3047.00
2101, 3045.00
2102, 3047.00
2103, 3049.00
2104, 3049.00
2105, 3051.00
2106, 3049.00
2107, 3051.00
2108, 3053.00
2109, 3053.00
2110, 3053.00
2111, 3054.00
2112, 3053.00
2113, 3053.00
2114, 3055.00
2115, 3053.00
2116, 3055.00
2117, 3055.00
2118, 3056.00
2119, 3058.00
2120, 3056.00
2121, 3057.00
2122, 3058.00
2123, 3058.00
2124, 3059.00
2125, 3059.00
2126, 3061.00
2127, 3061.00
2128, 3061.00
2129, 3062.00
2130, 3062.00
2131, 3063.00
2132, 3063.00
2133, 3066.00
2134, 3064.00
2135, 3064.00
2136, 3065.00
2137, 3066.00
2138, 3065.00
2139, 3066.00
2140, 3068.00
2141, 3067.00
2142, 3069.00
2143, 3068.00
2144, 3068.00
2145, 3069.00
2146, 3071.00
2147, 3071.00
2148, 3071.00
2149, 3071.00
2150, 3068.00
