FW version: 24
Log Version: 3.0.3

General Info:
       Command/Macro Performed,            Timestamp,             Device ID, COM Port, UART/I2C, Test Name, Host Major, Host Minor, Host Revision, Host Git Commit
            Single_measurement,  2023_07_11_11_03_54,       Insight2_F4_xxx,    USB-C,      USB,          ,          0,          1,             1,      4031237645

Show Spectrometer Status:
l0_version, f4_version, battery_perc, battery_mVolt, accelerometer_temp, accelerometer_x, accelerometer_y, accelerometer_z, compass_temp, compass_x, compass_y, compass_z, lamp_0, lamp_1, gain_0, gain_1
        17,         24,           49,          1904,               6592,           65136,            1052,           18744,            0,     65406,     65372,     18814,   3276,   3276,      1,      1

Temperature Statistic Info:
NTC AVG [°C], NTC2 AVG [°C]
      40.587,        40.233

Statistic Info:
M1:  num,      min,      max,   median,      AVG,      STD,M2:  num,      min,      max,   median,      AVG,      STD
     301,  2283.00,  2628.00,  2353.00,  2396.70, 107.3589,     401,  2914.00,  3122.00,  2999.00,  3004.74,  67.0562,

Measurements:
Wavelength, Data Amplitude
1350, 2347.00
1351, 2346.00
1352, 2346.00
1353, 2344.00
1354, 2342.00
1355, 2341.00
1356, 2341.00
1357, 2339.00
1358, 2337.00
1359, 2336.00
1360, 2334.00
1361, 2333.00
1362, 2332.00
1363, 2329.00
1364, 2327.00
1365, 2327.00
1366, 2324.00
1367, 2323.00
1368, 2320.00
1369, 2320.00
1370, 2317.00
1371, 2316.00
1372, 2313.00
1373, 2313.00
1374, 2312.00
1375, 2309.00
1376, 2307.00
1377, 2306.00
1378, 2305.00
1379, 2304.00
1380, 2303.00
1381, 2302.00
1382, 2300.00
1383, 2298.00
1384, 2297.00
1385, 2297.00
1386, 2297.00
1387, 2295.00
1388, 2294.00
1389, 2294.00
1390, 2293.00
1391, 2293.00
1392, 2292.00
1393, 2292.00
1394, 2290.00
1395, 2289.00
1396, 2289.00
1397, 2289.00
1398, 2288.00
1399, 2287.00
1400, 2288.00
1401, 2287.00
1402, 2287.00
1403, 2287.00
1404, 2287.00
1405, 2286.00
1406, 2286.00
1407, 2285.00
1408, 2286.00
1409, 2285.00
1410, 2285.00
1411, 2285.00
1412, 2284.00
1413, 2284.00
1414, 2284.00
1415, 2285.00
1416, 2284.00
1417, 2284.00
1418, 2284.00
1419, 2284.00
1420, 2285.00
1421, 2284.00
1422, 2283.00
1423, 2284.00
1424, 2285.00
1425, 2285.00
1426, 2284.00
1427, 2285.00
1428, 2285.00
1429, 2287.00
1430, 2285.00
1431, 2286.00
1432, 2287.00
1433, 2286.00
1434, 2287.00
1435, 2288.00
1436, 2288.00
1437, 2288.00
1438, 2289.00
1439, 2289.00
1440, 2289.00
1441, 2289.00
1442, 2291.00
1443, 2291.00
1444, 2292.00
1445, 2293.00
1446, 2293.00
1447, 2293.00
1448, 2295.00
1449, 2294.00
1450, 2295.00
1451, 2296.00
1452, 2298.00
1453, 2298.00
1454, 2301.00
1455, 2300.00
1456, 2301.00
1457, 2302.00
1458, 2302.00
1459, 2304.00
1460, 2304.00
1461, 2305.00
1462, 2306.00
1463, 2308.00
1464, 2308.00
1465, 2308.00
1466, 2310.00
1467, 2311.00
1468, 2312.00
1469, 2312.00
1470, 2314.00
1471, 2315.00
1472, 2315.00
1473, 2317.00
1474, 2319.00
1475, 2319.00
1476, 2322.00
1477, 2323.00
1478, 2322.00
1479, 2326.00
1480, 2327.00
1481, 2327.00
1482, 2329.00
1483, 2331.00
1484, 2331.00
1485, 2332.00
1486, 2335.00
1487, 2337.00
1488, 2337.00
1489, 2339.00
1490, 2340.00
1491, 2341.00
1492, 2344.00
1493, 2344.00
1494, 2345.00
1495, 2346.00
1496, 2349.00
1497, 2349.00
1498, 2350.00
1499, 2352.00
1500, 2353.00
1501, 2355.00
1502, 2357.00
1503, 2358.00
1504, 2359.00
1505, 2361.00
1506, 2362.00
1507, 2363.00
1508, 2364.00
1509, 2367.00
1510, 2369.00
1511, 2369.00
1512, 2372.00
1513, 2373.00
1514, 2375.00
1515, 2377.00
1516, 2377.00
1517, 2379.00
1518, 2381.00
1519, 2382.00
1520, 2383.00
1521, 2385.00
1522, 2387.00
1523, 2389.00
1524, 2391.00
1525, 2393.00
1526, 2394.00
1527, 2395.00
1528, 2397.00
1529, 2400.00
1530, 2400.00
1531, 2402.00
1532, 2404.00
1533, 2406.00
1534, 2407.00
1535, 2410.00
1536, 2411.00
1537, 2414.00
1538, 2415.00
1539, 2418.00
1540, 2420.00
1541, 2421.00
1542, 2422.00
1543, 2425.00
1544, 2425.00
1545, 2428.00
1546, 2429.00
1547, 2430.00
1548, 2433.00
1549, 2434.00
1550, 2437.00
1551, 2439.00
1552, 2439.00
1553, 2441.00
1554, 2444.00
1555, 2446.00
1556, 2448.00
1557, 2450.00
1558, 2451.00
1559, 2454.00
1560, 2455.00
1561, 2458.00
1562, 2460.00
1563, 2461.00
1564, 2465.00
1565, 2465.00
1566, 2467.00
1567, 2470.00
1568, 2471.00
1569, 2473.00
1570, 2477.00
1571, 2478.00
1572, 2479.00
1573, 2481.00
1574, 2483.00
1575, 2485.00
1576, 2487.00
1577, 2488.00
1578, 2492.00
1579, 2493.00
1580, 2494.00
1581, 2496.00
1582, 2498.00
1583, 2499.00
1584, 2501.00
1585, 2503.00
1586, 2504.00
1587, 2506.00
1588, 2508.00
1589, 2509.00
1590, 2512.00
1591, 2514.00
1592, 2515.00
1593, 2517.00
1594, 2519.00
1595, 2521.00
1596, 2521.00
1597, 2523.00
1598, 2525.00
1599, 2528.00
1600, 2529.00
1601, 2532.00
1602, 2533.00
1603, 2535.00
1604, 2536.00
1605, 2539.00
1606, 2541.00
1607, 2544.00
1608, 2545.00
1609, 2546.00
1610, 2548.00
1611, 2552.00
1612, 2553.00
1613, 2555.00
1614, 2557.00
1615, 2561.00
1616, 2562.00
1617, 2564.00
1618, 2565.00
1619, 2568.00
1620, 2570.00
1621, 2572.00
1622, 2575.00
1623, 2576.00
1624, 2579.00
1625, 2581.00
1626, 2583.00
1627, 2586.00
1628, 2587.00
1629, 2589.00
1630, 2590.00
1631, 2593.00
1632, 2595.00
1633, 2596.00
1634, 2600.00
1635, 2601.00
1636, 2603.00
1637, 2603.00
1638, 2606.00
1639, 2608.00
1640, 2610.00
1641, 2612.00
1642, 2613.00
1643, 2615.00
1644, 2615.00
1645, 2618.00
1646, 2620.00
1647, 2623.00
1648, 2625.00
1649, 2625.00
1650, 2628.00

1750, 3119.00
1751, 3121.00
1752, 3119.00
1753, 3122.00
1754, 3120.00
1755, 3120.00
1756, 3122.00
1757, 3121.00
1758, 3119.00
1759, 3121.00
1760, 3120.00
1761, 3118.00
1762, 3117.00
1763, 3118.00
1764, 3117.00
1765, 3117.00
1766, 3118.00
1767, 3116.00
1768, 3119.00
1769, 3116.00
1770, 3115.00
1771, 3115.00
1772, 3116.00
1773, 3114.00
1774, 3113.00
1775, 3113.00
1776, 3114.00
1777, 3110.00
1778, 3112.00
1779, 3111.00
1780, 3111.00
1781, 3110.00
1782, 3109.00
1783, 3107.00
1784, 3107.00
1785, 3107.00
1786, 3105.00
1787, 3104.00
1788, 3104.00
1789, 3103.00
1790, 3103.00
1791, 3102.00
1792, 3100.00
1793, 3102.00
1794, 3099.00
1795, 3101.00
1796, 3100.00
1797, 3098.00
1798, 3098.00
1799, 3094.00
1800, 3097.00
1801, 3095.00
1802, 3095.00
1803, 3095.00
1804, 3094.00
1805, 3093.00
1806, 3093.00
1807, 3091.00
1808, 3091.00
1809, 3089.00
1810, 3090.00
1811, 3088.00
1812, 3087.00
1813, 3086.00
1814, 3084.00
1815, 3084.00
1816, 3083.00
1817, 3082.00
1818, 3081.00
1819, 3080.00
1820, 3080.00
1821, 3077.00
1822, 3076.00
1823, 3076.00
1824, 3072.00
1825, 3071.00
1826, 3069.00
1827, 3068.00
1828, 3064.00
1829, 3062.00
1830, 3061.00
1831, 3059.00
1832, 3055.00
1833, 3055.00
1834, 3052.00
1835, 3049.00
1836, 3046.00
1837, 3045.00
1838, 3043.00
1839, 3041.00
1840, 3036.00
1841, 3033.00
1842, 3031.00
1843, 3027.00
1844, 3023.00
1845, 3020.00
1846, 3018.00
1847, 3015.00
1848, 3014.00
1849, 3008.00
1850, 3005.00
1851, 3004.00
1852, 3001.00
1853, 2995.00
1854, 2993.00
1855, 2987.00
1856, 2986.00
1857, 2982.00
1858, 2981.00
1859, 2978.00
1860, 2975.00
1861, 2972.00
1862, 2969.00
1863, 2966.00
1864, 2963.00
1865, 2962.00
1866, 2961.00
1867, 2958.00
1868, 2956.00
1869, 2953.00
1870, 2952.00
1871, 2951.00
1872, 2949.00
1873, 2948.00
1874, 2945.00
1875, 2945.00
1876, 2942.00
1877, 2941.00
1878, 2940.00
1879, 2936.00
1880, 2936.00
1881, 2936.00
1882, 2936.00
1883, 2936.00
1884, 2934.00
1885, 2934.00
1886, 2931.00
1887, 2931.00
1888, 2933.00
1889, 2929.00
1890, 2929.00
1891, 2927.00
1892, 2927.00
1893, 2928.00
1894, 2928.00
1895, 2928.00
1896, 2925.00
1897, 2926.00
1898, 2923.00
1899, 2925.00
1900, 2922.00
1901, 2924.00
1902, 2921.00
1903, 2923.00
1904, 2921.00
1905, 2923.00
1906, 2920.00
1907, 2919.00
1908, 2919.00
1909, 2921.00
1910, 2921.00
1911, 2919.00
1912, 2919.00
1913, 2920.00
1914, 2919.00
1915, 2916.00
1916, 2916.00
1917, 2918.00
1918, 2917.00
1919, 2916.00
1920, 2919.00
1921, 2919.00
1922, 2917.00
1923, 2917.00
1924, 2917.00
1925, 2918.00
1926, 2918.00
1927, 2914.00
1928, 2918.00
1929, 2919.00
1930, 2920.00
1931, 2917.00
1932, 2918.00
1933, 2919.00
1934, 2915.00
1935, 2918.00
1936, 2917.00
1937, 2918.00
1938, 2919.00
1939, 2920.00
1940, 2918.00
1941, 2918.00
1942, 2918.00
1943, 2922.00
1944, 2919.00
1945, 2920.00
1946, 2920.00
1947, 2921.00
1948, 2919.00
1949, 2920.00
1950, 2923.00
1951, 2921.00
1952, 2921.00
1953, 2922.00
1954, 2924.00
1955, 2923.00
1956, 2925.00
1957, 2925.00
1958, 2926.00
1959, 2928.00
1960, 2927.00
1961, 2927.00
1962, 2927.00
1963, 2928.00
1964, 2927.00
1965, 2928.00
1966, 2931.00
1967, 2933.00
1968, 2933.00
1969, 2931.00
1970, 2933.00
1971, 2932.00
1972, 2933.00
1973, 2935.00
1974, 2934.00
1975, 2935.00
1976, 2938.00
1977, 2937.00
1978, 2938.00
1979, 2939.00
1980, 2940.00
1981, 2940.00
1982, 2942.00
1983, 2943.00
1984, 2942.00
1985, 2943.00
1986, 2944.00
1987, 2945.00
1988, 2945.00
1989, 2946.00
1990, 2947.00
1991, 2948.00
1992, 2947.00
1993, 2949.00
1994, 2949.00
1995, 2951.00
1996, 2951.00
1997, 2949.00
1998, 2953.00
1999, 2951.00
2000, 2955.00
2001, 2956.00
2002, 2955.00
2003, 2956.00
2004, 2957.00
2005, 2958.00
2006, 2956.00
2007, 2957.00
2008, 2959.00
2009, 2960.00
2010, 2961.00
2011, 2963.00
2012, 2964.00
2013, 2962.00
2014, 2964.00
2015, 2964.00
2016, 2968.00
2017, 2966.00
2018, 2965.00
2019, 2966.00
2020, 2969.00
2021, 2968.00
2022, 2968.00
2023, 2972.00
2024, 2972.00
2025, 2972.00
2026, 2974.00
2027, 2972.00
2028, 2974.00
2029, 2975.00
2030, 2976.00
2031, 2977.00
2032, 2979.00
2033, 2979.00
2034, 2980.00
2035, 2981.00
2036, 2984.00
2037, 2983.00
2038, 2981.00
2039, 2985.00
2040, 2987.00
2041, 2987.00
2042, 2987.00
2043, 2988.00
2044, 2989.00
2045, 2990.00
2046, 2991.00
2047, 2993.00
2048, 2993.00
2049, 2997.00
2050, 2997.00
2051, 2996.00
2052, 2996.00
2053, 2999.00
2054, 2999.00
2055, 3002.00
2056, 3003.00
2057, 3004.00
2058, 3006.00
2059, 3007.00
2060, 3007.00
2061, 3007.00
2062, 3009.00
2063, 3012.00
2064, 3013.00
2065, 3011.00
2066, 3012.00
2067, 3016.00
2068, 3017.00
2069, 3019.00
2070, 3019.00
2071, 3019.00
2072, 3022.00
2073, 3021.00
2074, 3022.00
2075, 3024.00
2076, 3025.00
2077, 3026.00
2078, 3027.00
2079, 3027.00
2080, 3027.00
2081, 3030.00
2082, 3031.00
2083, 3031.00
2084, 3035.00
2085, 3033.00
2086, 3035.00
2087, 3035.00
2088, 3037.00
2089, 3036.00
2090, 3036.00
2091, 3038.00
2092, 3039.00
2093, 3041.00
2094, 3043.00
2095, 3041.00
2096, 3043.00
2097, 3045.00
2098, 3044.00
2099, 3044.00
2100, 3047.00
2101, 3045.00
2102, 3047.00
2103, 3047.00
2104, 3048.00
2105, 3049.00
2106, 3047.00
2107, 3051.00
2108, 3050.00
2109, 3051.00
2110, 3051.00
2111, 3051.00
2112, 3053.00
2113, 3053.00
2114, 3054.00
2115, 3054.00
2116, 3054.00
2117, 3055.00
2118, 3055.00
2119, 3059.00
2120, 3057.00
2121, 3056.00
2122, 3058.00
2123, 3057.00
2124, 3057.00
2125, 3060.00
2126, 3059.00
2127, 3061.00
2128, 3062.00
2129, 3061.00
2130, 3062.00
2131, 3061.00
2132, 3063.00
2133, 3065.00
2134, 3064.00
2135, 3064.00
2136, 3066.00
2137, 3067.00
2138, 3066.00
2139, 3067.00
2140, 3068.00
2141, 3069.00
2142, 3066.00
2143, 3068.00
2144, 3067.00
2145, 3067.00
2146, 3068.00
2147, 3068.00
2148, 3070.00
2149, 3069.00
2150, 3069.00
