FW version: 24
Log Version: 3.0.3

General Info:
       Command/Macro Performed,            Timestamp,             Device ID, COM Port, UART/I2C, Test Name, Host Major, Host Minor, Host Revision, Host Git Commit
            Single_measurement,  2023_07_11_11_02_36,       Insight2_F4_xxx,    USB-C,      USB,          ,          0,          1,             1,      4031237645

Show Spectrometer Status:
l0_version, f4_version, battery_perc, battery_mVolt, accelerometer_temp, accelerometer_x, accelerometer_y, accelerometer_z, compass_temp, compass_x, compass_y, compass_z, lamp_0, lamp_1, gain_0, gain_1
        17,         24,           49,          1907,               6544,           65120,            1024,           18808,            0,     65377,     65362,     18813,   3276,   3276,      0,      0

Temperature Statistic Info:
NTC AVG [°C], NTC2 AVG [°C]
      39.879,        39.587

Statistic Info:
M1:  num,      min,      max,   median,      AVG,      STD,M2:  num,      min,      max,   median,      AVG,      STD
     301,   788.00,   907.00,   812.00,   827.08,  36.9550,     401,  1007.00,  1079.00,  1037.00,  1038.79,  23.3878,

Measurements:
Wavelength, Data Amplitude
1350, 810.00
1351, 810.00
1352, 810.00
1353, 809.00
1354, 809.00
1355, 808.00
1356, 808.00
1357, 807.00
1358, 808.00
1359, 807.00
1360, 806.00
1361, 805.00
1362, 805.00
1363, 804.00
1364, 803.00
1365, 803.00
1366, 803.00
1367, 802.00
1368, 801.00
1369, 801.00
1370, 801.00
1371, 800.00
1372, 799.00
1373, 798.00
1374, 798.00
1375, 797.00
1376, 797.00
1377, 796.00
1378, 796.00
1379, 795.00
1380, 795.00
1381, 794.00
1382, 794.00
1383, 794.00
1384, 794.00
1385, 793.00
1386, 792.00
1387, 792.00
1388, 793.00
1389, 791.00
1390, 792.00
1391, 791.00
1392, 792.00
1393, 791.00
1394, 791.00
1395, 790.00
1396, 790.00
1397, 790.00
1398, 790.00
1399, 790.00
1400, 789.00
1401, 790.00
1402, 789.00
1403, 790.00
1404, 789.00
1405, 789.00
1406, 789.00
1407, 789.00
1408, 789.00
1409, 788.00
1410, 789.00
1411, 788.00
1412, 789.00
1413, 788.00
1414, 789.00
1415, 788.00
1416, 788.00
1417, 788.00
1418, 789.00
1419, 788.00
1420, 788.00
1421, 789.00
1422, 789.00
1423, 788.00
1424, 788.00
1425, 788.00
1426, 788.00
1427, 788.00
1428, 788.00
1429, 789.00
1430, 789.00
1431, 789.00
1432, 789.00
1433, 789.00
1434, 789.00
1435, 789.00
1436, 790.00
1437, 790.00
1438, 790.00
1439, 791.00
1440, 790.00
1441, 790.00
1442, 790.00
1443, 791.00
1444, 791.00
1445, 791.00
1446, 791.00
1447, 792.00
1448, 792.00
1449, 792.00
1450, 792.00
1451, 792.00
1452, 793.00
1453, 793.00
1454, 793.00
1455, 793.00
1456, 794.00
1457, 794.00
1458, 794.00
1459, 795.00
1460, 795.00
1461, 795.00
1462, 796.00
1463, 797.00
1464, 797.00
1465, 796.00
1466, 797.00
1467, 797.00
1468, 798.00
1469, 798.00
1470, 799.00
1471, 799.00
1472, 799.00
1473, 800.00
1474, 800.00
1475, 801.00
1476, 801.00
1477, 801.00
1478, 802.00
1479, 802.00
1480, 803.00
1481, 803.00
1482, 804.00
1483, 804.00
1484, 804.00
1485, 805.00
1486, 805.00
1487, 806.00
1488, 806.00
1489, 807.00
1490, 807.00
1491, 808.00
1492, 808.00
1493, 808.00
1494, 809.00
1495, 810.00
1496, 810.00
1497, 810.00
1498, 811.00
1499, 812.00
1500, 812.00
1501, 813.00
1502, 813.00
1503, 814.00
1504, 814.00
1505, 814.00
1506, 815.00
1507, 816.00
1508, 816.00
1509, 817.00
1510, 817.00
1511, 817.00
1512, 818.00
1513, 819.00
1514, 819.00
1515, 820.00
1516, 820.00
1517, 821.00
1518, 822.00
1519, 822.00
1520, 823.00
1521, 823.00
1522, 824.00
1523, 825.00
1524, 825.00
1525, 825.00
1526, 826.00
1527, 826.00
1528, 827.00
1529, 827.00
1530, 828.00
1531, 829.00
1532, 829.00
1533, 830.00
1534, 831.00
1535, 831.00
1536, 832.00
1537, 832.00
1538, 833.00
1539, 834.00
1540, 835.00
1541, 835.00
1542, 836.00
1543, 837.00
1544, 837.00
1545, 838.00
1546, 838.00
1547, 839.00
1548, 839.00
1549, 840.00
1550, 841.00
1551, 841.00
1552, 842.00
1553, 843.00
1554, 843.00
1555, 845.00
1556, 845.00
1557, 846.00
1558, 846.00
1559, 847.00
1560, 848.00
1561, 848.00
1562, 849.00
1563, 849.00
1564, 850.00
1565, 851.00
1566, 851.00
1567, 852.00
1568, 853.00
1569, 854.00
1570, 854.00
1571, 855.00
1572, 856.00
1573, 856.00
1574, 857.00
1575, 858.00
1576, 859.00
1577, 859.00
1578, 859.00
1579, 860.00
1580, 861.00
1581, 862.00
1582, 862.00
1583, 863.00
1584, 863.00
1585, 863.00
1586, 864.00
1587, 865.00
1588, 866.00
1589, 866.00
1590, 867.00
1591, 867.00
1592, 868.00
1593, 868.00
1594, 869.00
1595, 870.00
1596, 870.00
1597, 871.00
1598, 872.00
1599, 872.00
1600, 873.00
1601, 873.00
1602, 873.00
1603, 875.00
1604, 875.00
1605, 876.00
1606, 877.00
1607, 877.00
1608, 878.00
1609, 879.00
1610, 879.00
1611, 880.00
1612, 881.00
1613, 881.00
1614, 882.00
1615, 883.00
1616, 884.00
1617, 885.00
1618, 885.00
1619, 886.00
1620, 887.00
1621, 888.00
1622, 888.00
1623, 889.00
1624, 890.00
1625, 891.00
1626, 891.00
1627, 892.00
1628, 892.00
1629, 894.00
1630, 894.00
1631, 894.00
1632, 895.00
1633, 896.00
1634, 897.00
1635, 897.00
1636, 898.00
1637, 898.00
1638, 899.00
1639, 900.00
1640, 901.00
1641, 901.00
1642, 902.00
1643, 902.00
1644, 903.00
1645, 903.00
1646, 904.00
1647, 905.00
1648, 904.00
1649, 906.00
1650, 907.00

1750, 1079.00
1751, 1079.00
1752, 1079.00
1753, 1079.00
1754, 1079.00
1755, 1079.00
1756, 1079.00
1757, 1078.00
1758, 1078.00
1759, 1078.00
1760, 1079.00
1761, 1079.00
1762, 1079.00
1763, 1079.00
1764, 1079.00
1765, 1078.00
1766, 1078.00
1767, 1078.00
1768, 1078.00
1769, 1078.00
1770, 1078.00
1771, 1077.00
1772, 1077.00
1773, 1077.00
1774, 1077.00
1775, 1076.00
1776, 1077.00
1777, 1076.00
1778, 1076.00
1779, 1076.00
1780, 1075.00
1781, 1076.00
1782, 1074.00
1783, 1075.00
1784, 1074.00
1785, 1074.00
1786, 1074.00
1787, 1074.00
1788, 1073.00
1789, 1073.00
1790, 1073.00
1791, 1073.00
1792, 1073.00
1793, 1073.00
1794, 1072.00
1795, 1071.00
1796, 1071.00
1797, 1071.00
1798, 1071.00
1799, 1070.00
1800, 1071.00
1801, 1070.00
1802, 1070.00
1803, 1070.00
1804, 1069.00
1805, 1069.00
1806, 1069.00
1807, 1069.00
1808, 1068.00
1809, 1068.00
1810, 1069.00
1811, 1068.00
1812, 1068.00
1813, 1068.00
1814, 1067.00
1815, 1067.00
1816, 1066.00
1817, 1066.00
1818, 1065.00
1819, 1065.00
1820, 1064.00
1821, 1064.00
1822, 1064.00
1823, 1064.00
1824, 1063.00
1825, 1063.00
1826, 1062.00
1827, 1060.00
1828, 1060.00
1829, 1060.00
1830, 1059.00
1831, 1059.00
1832, 1057.00
1833, 1057.00
1834, 1056.00
1835, 1055.00
1836, 1054.00
1837, 1053.00
1838, 1052.00
1839, 1052.00
1840, 1050.00
1841, 1049.00
1842, 1048.00
1843, 1047.00
1844, 1046.00
1845, 1045.00
1846, 1044.00
1847, 1043.00
1848, 1041.00
1849, 1040.00
1850, 1039.00
1851, 1038.00
1852, 1038.00
1853, 1037.00
1854, 1034.00
1855, 1034.00
1856, 1033.00
1857, 1032.00
1858, 1031.00
1859, 1030.00
1860, 1030.00
1861, 1028.00
1862, 1027.00
1863, 1026.00
1864, 1026.00
1865, 1025.00
1866, 1024.00
1867, 1024.00
1868, 1022.00
1869, 1022.00
1870, 1021.00
1871, 1020.00
1872, 1019.00
1873, 1019.00
1874, 1018.00
1875, 1017.00
1876, 1018.00
1877, 1016.00
1878, 1016.00
1879, 1016.00
1880, 1016.00
1881, 1015.00
1882, 1014.00
1883, 1014.00
1884, 1015.00
1885, 1014.00
1886, 1014.00
1887, 1014.00
1888, 1013.00
1889, 1012.00
1890, 1012.00
1891, 1011.00
1892, 1012.00
1893, 1012.00
1894, 1012.00
1895, 1011.00
1896, 1012.00
1897, 1011.00
1898, 1011.00
1899, 1011.00
1900, 1010.00
1901, 1010.00
1902, 1010.00
1903, 1010.00
1904, 1010.00
1905, 1010.00
1906, 1009.00
1907, 1009.00
1908, 1010.00
1909, 1009.00
1910, 1009.00
1911, 1009.00
1912, 1008.00
1913, 1009.00
1914, 1009.00
1915, 1007.00
1916, 1008.00
1917, 1008.00
1918, 1008.00
1919, 1009.00
1920, 1008.00
1921, 1008.00
1922, 1009.00
1923, 1008.00
1924, 1008.00
1925, 1008.00
1926, 1008.00
1927, 1009.00
1928, 1008.00
1929, 1007.00
1930, 1008.00
1931, 1008.00
1932, 1007.00
1933, 1009.00
1934, 1009.00
1935, 1008.00
1936, 1009.00
1937, 1009.00
1938, 1009.00
1939, 1008.00
1940, 1009.00
1941, 1010.00
1942, 1009.00
1943, 1009.00
1944, 1009.00
1945, 1009.00
1946, 1010.00
1947, 1009.00
1948, 1010.00
1949, 1010.00
1950, 1010.00
1951, 1010.00
1952, 1009.00
1953, 1011.00
1954, 1010.00
1955, 1011.00
1956, 1010.00
1957, 1010.00
1958, 1011.00
1959, 1011.00
1960, 1011.00
1961, 1011.00
1962, 1012.00
1963, 1012.00
1964, 1012.00
1965, 1012.00
1966, 1013.00
1967, 1013.00
1968, 1013.00
1969, 1013.00
1970, 1013.00
1971, 1013.00
1972, 1014.00
1973, 1014.00
1974, 1014.00
1975, 1015.00
1976, 1015.00
1977, 1015.00
1978, 1015.00
1979, 1015.00
1980, 1016.00
1981, 1016.00
1982, 1016.00
1983, 1017.00
1984, 1017.00
1985, 1017.00
1986, 1018.00
1987, 1018.00
1988, 1018.00
1989, 1019.00
1990, 1018.00
1991, 1019.00
1992, 1019.00
1993, 1019.00
1994, 1019.00
1995, 1019.00
1996, 1020.00
1997, 1020.00
1998, 1021.00
1999, 1021.00
2000, 1021.00
2001, 1021.00
2002, 1021.00
2003, 1021.00
2004, 1021.00
2005, 1022.00
2006, 1022.00
2007, 1023.00
2008, 1024.00
2009, 1024.00
2010, 1023.00
2011, 1024.00
2012, 1025.00
2013, 1024.00
2014, 1025.00
2015, 1025.00
2016, 1025.00
2017, 1026.00
2018, 1026.00
2019, 1026.00
2020, 1026.00
2021, 1027.00
2022, 1027.00
2023, 1027.00
2024, 1028.00
2025, 1027.00
2026, 1028.00
2027, 1028.00
2028, 1028.00
2029, 1029.00
2030, 1029.00
2031, 1029.00
2032, 1029.00
2033, 1029.00
2034, 1031.00
2035, 1031.00
2036, 1030.00
2037, 1031.00
2038, 1031.00
2039, 1032.00
2040, 1032.00
2041, 1032.00
2042, 1033.00
2043, 1033.00
2044, 1033.00
2045, 1033.00
2046, 1034.00
2047, 1035.00
2048, 1035.00
2049, 1035.00
2050, 1036.00
2051, 1035.00
2052, 1037.00
2053, 1037.00
2054, 1037.00
2055, 1037.00
2056, 1037.00
2057, 1038.00
2058, 1039.00
2059, 1040.00
2060, 1040.00
2061, 1040.00
2062, 1041.00
2063, 1041.00
2064, 1041.00
2065, 1041.00
2066, 1042.00
2067, 1042.00
2068, 1042.00
2069, 1043.00
2070, 1043.00
2071, 1044.00
2072, 1045.00
2073, 1044.00
2074, 1045.00
2075, 1045.00
2076, 1045.00
2077, 1046.00
2078, 1046.00
2079, 1046.00
2080, 1046.00
2081, 1048.00
2082, 1047.00
2083, 1049.00
2084, 1048.00
2085, 1049.00
2086, 1049.00
2087, 1050.00
2088, 1050.00
2089, 1050.00
2090, 1050.00
2091, 1050.00
2092, 1051.00
2093, 1052.00
2094, 1051.00
2095, 1052.00
2096, 1052.00
2097, 1052.00
2098, 1052.00
2099, 1053.00
2100, 1053.00
2101, 1053.00
2102, 1053.00
2103, 1054.00
2104, 1053.00
2105, 1054.00
2106, 1054.00
2107, 1054.00
2108, 1055.00
2109, 1054.00
2110, 1055.00
2111, 1055.00
2112, 1055.00
2113, 1056.00
2114, 1056.00
2115, 1056.00
2116, 1057.00
2117, 1056.00
2118, 1056.00
2119, 1056.00
2120, 1057.00
2121, 1057.00
2122, 1057.00
2123, 1057.00
2124, 1058.00
2125, 1058.00
2126, 1058.00
2127, 1058.00
2128, 1059.00
2129, 1058.00
2130, 1058.00
2131, 1059.00
2132, 1059.00
2133, 1059.00
2134, 1059.00
2135, 1060.00
2136, 1059.00
2137, 1060.00
2138, 1060.00
2139, 1060.00
2140, 1060.00
2141, 1061.00
2142, 1061.00
2143, 1061.00
2144, 1060.00
2145, 1060.00
2146, 1061.00
2147, 1062.00
2148, 1061.00
2149, 1061.00
2150, 1061.00
