FW version: 24
Log Version: 3.0.3

General Info:
       Command/Macro Performed,            Timestamp,             Device ID, COM Port, UART/I2C, Test Name, Host Major, Host Minor, Host Revision, Host Git Commit
            Single_measurement,  2023_06_29_10_35_57,       Insight2_F4_xxx,    USB-C,      USB,          ,          0,          1,             1,      4031237645

Show Spectrometer Status:
l0_version, f4_version, battery_perc, battery_mVolt, accelerometer_temp, accelerometer_x, accelerometer_y, accelerometer_z, compass_temp, compass_x, compass_y, compass_z, lamp_0, lamp_1, gain_0, gain_1
        17,         24,           92,          2064,               5648,           65464,           65492,           18412,            0,     65530,     65524,     65532,   2866,   2866,      1,      1

Temperature Statistic Info:
NTC AVG [°C], NTC2 AVG [°C]
      36.265,        35.948

Statistic Info:
M1:  num,      min,      max,   median,      AVG,      STD,M2:  num,      min,      max,   median,      AVG,      STD
     301,  1605.00,  1869.00,  1658.00,  1691.56,  82.1364,     401,  2151.00,  2312.00,  2216.00,  2221.27,  52.7292,

Measurements:
Wavelength, Data Amplitude
1350, 1653.00
1351, 1653.00
1352, 1651.00
1353, 1651.00
1354, 1650.00
1355, 1649.00
1356, 1650.00
1357, 1648.00
1358, 1647.00
1359, 1645.00
1360, 1644.00
1361, 1643.00
1362, 1642.00
1363, 1641.00
1364, 1640.00
1365, 1638.00
1366, 1636.00
1367, 1637.00
1368, 1635.00
1369, 1635.00
1370, 1632.00
1371, 1631.00
1372, 1631.00
1373, 1627.00
1374, 1628.00
1375, 1627.00
1376, 1624.00
1377, 1623.00
1378, 1622.00
1379, 1622.00
1380, 1621.00
1381, 1620.00
1382, 1619.00
1383, 1618.00
1384, 1618.00
1385, 1617.00
1386, 1616.00
1387, 1615.00
1388, 1614.00
1389, 1614.00
1390, 1613.00
1391, 1612.00
1392, 1612.00
1393, 1612.00
1394, 1611.00
1395, 1610.00
1396, 1610.00
1397, 1611.00
1398, 1609.00
1399, 1609.00
1400, 1608.00
1401, 1609.00
1402, 1608.00
1403, 1608.00
1404, 1608.00
1405, 1608.00
1406, 1607.00
1407, 1607.00
1408, 1606.00
1409, 1606.00
1410, 1607.00
1411, 1606.00
1412, 1606.00
1413, 1606.00
1414, 1605.00
1415, 1605.00
1416, 1606.00
1417, 1606.00
1418, 1605.00
1419, 1605.00
1420, 1606.00
1421, 1605.00
1422, 1606.00
1423, 1606.00
1424, 1605.00
1425, 1605.00
1426, 1606.00
1427, 1606.00
1428, 1606.00
1429, 1607.00
1430, 1607.00
1431, 1606.00
1432, 1607.00
1433, 1607.00
1434, 1607.00
1435, 1607.00
1436, 1608.00
1437, 1608.00
1438, 1609.00
1439, 1609.00
1440, 1611.00
1441, 1610.00
1442, 1610.00
1443, 1611.00
1444, 1611.00
1445, 1612.00
1446, 1612.00
1447, 1613.00
1448, 1613.00
1449, 1613.00
1450, 1615.00
1451, 1614.00
1452, 1615.00
1453, 1616.00
1454, 1616.00
1455, 1617.00
1456, 1618.00
1457, 1617.00
1458, 1619.00
1459, 1620.00
1460, 1620.00
1461, 1621.00
1462, 1621.00
1463, 1622.00
1464, 1623.00
1465, 1624.00
1466, 1624.00
1467, 1625.00
1468, 1627.00
1469, 1627.00
1470, 1628.00
1471, 1628.00
1472, 1629.00
1473, 1631.00
1474, 1631.00
1475, 1632.00
1476, 1633.00
1477, 1635.00
1478, 1635.00
1479, 1636.00
1480, 1637.00
1481, 1638.00
1482, 1639.00
1483, 1640.00
1484, 1641.00
1485, 1643.00
1486, 1643.00
1487, 1645.00
1488, 1645.00
1489, 1647.00
1490, 1648.00
1491, 1649.00
1492, 1649.00
1493, 1651.00
1494, 1651.00
1495, 1653.00
1496, 1654.00
1497, 1656.00
1498, 1656.00
1499, 1658.00
1500, 1658.00
1501, 1660.00
1502, 1661.00
1503, 1661.00
1504, 1663.00
1505, 1664.00
1506, 1665.00
1507, 1666.00
1508, 1667.00
1509, 1668.00
1510, 1669.00
1511, 1671.00
1512, 1672.00
1513, 1673.00
1514, 1674.00
1515, 1676.00
1516, 1677.00
1517, 1678.00
1518, 1680.00
1519, 1680.00
1520, 1682.00
1521, 1683.00
1522, 1685.00
1523, 1685.00
1524, 1687.00
1525, 1689.00
1526, 1690.00
1527, 1690.00
1528, 1692.00
1529, 1693.00
1530, 1695.00
1531, 1696.00
1532, 1697.00
1533, 1698.00
1534, 1701.00
1535, 1701.00
1536, 1702.00
1537, 1705.00
1538, 1706.00
1539, 1706.00
1540, 1708.00
1541, 1710.00
1542, 1711.00
1543, 1712.00
1544, 1713.00
1545, 1714.00
1546, 1716.00
1547, 1717.00
1548, 1719.00
1549, 1720.00
1550, 1721.00
1551, 1723.00
1552, 1724.00
1553, 1725.00
1554, 1727.00
1555, 1729.00
1556, 1731.00
1557, 1731.00
1558, 1734.00
1559, 1734.00
1560, 1735.00
1561, 1737.00
1562, 1739.00
1563, 1741.00
1564, 1742.00
1565, 1743.00
1566, 1745.00
1567, 1747.00
1568, 1748.00
1569, 1750.00
1570, 1751.00
1571, 1752.00
1572, 1754.00
1573, 1755.00
1574, 1757.00
1575, 1759.00
1576, 1759.00
1577, 1761.00
1578, 1763.00
1579, 1763.00
1580, 1766.00
1581, 1767.00
1582, 1768.00
1583, 1769.00
1584, 1770.00
1585, 1772.00
1586, 1774.00
1587, 1775.00
1588, 1777.00
1589, 1778.00
1590, 1779.00
1591, 1780.00
1592, 1782.00
1593, 1782.00
1594, 1783.00
1595, 1785.00
1596, 1787.00
1597, 1788.00
1598, 1790.00
1599, 1791.00
1600, 1791.00
1601, 1794.00
1602, 1796.00
1603, 1796.00
1604, 1798.00
1605, 1799.00
1606, 1802.00
1607, 1803.00
1608, 1804.00
1609, 1806.00
1610, 1808.00
1611, 1811.00
1612, 1811.00
1613, 1812.00
1614, 1814.00
1615, 1817.00
1616, 1818.00
1617, 1820.00
1618, 1821.00
1619, 1822.00
1620, 1825.00
1621, 1827.00
1622, 1828.00
1623, 1830.00
1624, 1831.00
1625, 1833.00
1626, 1835.00
1627, 1835.00
1628, 1838.00
1629, 1839.00
1630, 1841.00
1631, 1843.00
1632, 1844.00
1633, 1846.00
1634, 1847.00
1635, 1848.00
1636, 1851.00
1637, 1852.00
1638, 1853.00
1639, 1854.00
1640, 1855.00
1641, 1857.00
1642, 1859.00
1643, 1860.00
1644, 1862.00
1645, 1863.00
1646, 1864.00
1647, 1865.00
1648, 1866.00
1649, 1868.00
1650, 1869.00

1750, 2311.00
1751, 2311.00
1752, 2311.00
1753, 2312.00
1754, 2311.00
1755, 2309.00
1756, 2311.00
1757, 2310.00
1758, 2312.00
1759, 2312.00
1760, 2310.00
1761, 2310.00
1762, 2310.00
1763, 2311.00
1764, 2311.00
1765, 2311.00
1766, 2311.00
1767, 2311.00
1768, 2309.00
1769, 2310.00
1770, 2310.00
1771, 2307.00
1772, 2309.00
1773, 2308.00
1774, 2307.00
1775, 2309.00
1776, 2308.00
1777, 2307.00
1778, 2305.00
1779, 2305.00
1780, 2304.00
1781, 2305.00
1782, 2305.00
1783, 2304.00
1784, 2303.00
1785, 2301.00
1786, 2301.00
1787, 2302.00
1788, 2300.00
1789, 2299.00
1790, 2300.00
1791, 2298.00
1792, 2299.00
1793, 2298.00
1794, 2298.00
1795, 2297.00
1796, 2295.00
1797, 2297.00
1798, 2295.00
1799, 2294.00
1800, 2293.00
1801, 2293.00
1802, 2294.00
1803, 2292.00
1804, 2292.00
1805, 2291.00
1806, 2291.00
1807, 2291.00
1808, 2291.00
1809, 2291.00
1810, 2291.00
1811, 2289.00
1812, 2287.00
1813, 2288.00
1814, 2287.00
1815, 2285.00
1816, 2285.00
1817, 2285.00
1818, 2283.00
1819, 2283.00
1820, 2280.00
1821, 2282.00
1822, 2281.00
1823, 2279.00
1824, 2279.00
1825, 2277.00
1826, 2275.00
1827, 2276.00
1828, 2273.00
1829, 2272.00
1830, 2269.00
1831, 2267.00
1832, 2268.00
1833, 2264.00
1834, 2263.00
1835, 2262.00
1836, 2259.00
1837, 2257.00
1838, 2256.00
1839, 2255.00
1840, 2251.00
1841, 2249.00
1842, 2246.00
1843, 2245.00
1844, 2240.00
1845, 2238.00
1846, 2239.00
1847, 2235.00
1848, 2233.00
1849, 2227.00
1850, 2226.00
1851, 2223.00
1852, 2220.00
1853, 2220.00
1854, 2216.00
1855, 2213.00
1856, 2212.00
1857, 2209.00
1858, 2207.00
1859, 2205.00
1860, 2203.00
1861, 2200.00
1862, 2199.00
1863, 2197.00
1864, 2195.00
1865, 2192.00
1866, 2190.00
1867, 2187.00
1868, 2187.00
1869, 2184.00
1870, 2183.00
1871, 2181.00
1872, 2179.00
1873, 2179.00
1874, 2178.00
1875, 2176.00
1876, 2174.00
1877, 2174.00
1878, 2171.00
1879, 2172.00
1880, 2171.00
1881, 2171.00
1882, 2168.00
1883, 2169.00
1884, 2167.00
1885, 2167.00
1886, 2166.00
1887, 2166.00
1888, 2164.00
1889, 2162.00
1890, 2163.00
1891, 2162.00
1892, 2161.00
1893, 2161.00
1894, 2160.00
1895, 2160.00
1896, 2161.00
1897, 2159.00
1898, 2159.00
1899, 2159.00
1900, 2158.00
1901, 2159.00
1902, 2158.00
1903, 2158.00
1904, 2156.00
1905, 2156.00
1906, 2156.00
1907, 2157.00
1908, 2154.00
1909, 2154.00
1910, 2155.00
1911, 2155.00
1912, 2156.00
1913, 2154.00
1914, 2154.00
1915, 2153.00
1916, 2153.00
1917, 2153.00
1918, 2154.00
1919, 2154.00
1920, 2153.00
1921, 2152.00
1922, 2154.00
1923, 2153.00
1924, 2151.00
1925, 2152.00
1926, 2153.00
1927, 2153.00
1928, 2152.00
1929, 2153.00
1930, 2153.00
1931, 2152.00
1932, 2152.00
1933, 2152.00
1934, 2153.00
1935, 2155.00
1936, 2156.00
1937, 2155.00
1938, 2153.00
1939, 2152.00
1940, 2153.00
1941, 2154.00
1942, 2154.00
1943, 2153.00
1944, 2155.00
1945, 2155.00
1946, 2154.00
1947, 2155.00
1948, 2155.00
1949, 2156.00
1950, 2156.00
1951, 2157.00
1952, 2155.00
1953, 2157.00
1954, 2159.00
1955, 2158.00
1956, 2158.00
1957, 2158.00
1958, 2157.00
1959, 2160.00
1960, 2159.00
1961, 2158.00
1962, 2162.00
1963, 2161.00
1964, 2161.00
1965, 2161.00
1966, 2162.00
1967, 2161.00
1968, 2162.00
1969, 2163.00
1970, 2165.00
1971, 2166.00
1972, 2166.00
1973, 2164.00
1974, 2165.00
1975, 2167.00
1976, 2167.00
1977, 2168.00
1978, 2168.00
1979, 2169.00
1980, 2169.00
1981, 2167.00
1982, 2172.00
1983, 2171.00
1984, 2171.00
1985, 2171.00
1986, 2171.00
1987, 2173.00
1988, 2172.00
1989, 2174.00
1990, 2176.00
1991, 2176.00
1992, 2176.00
1993, 2177.00
1994, 2176.00
1995, 2178.00
1996, 2177.00
1997, 2179.00
1998, 2178.00
1999, 2179.00
2000, 2179.00
2001, 2182.00
2002, 2182.00
2003, 2180.00
2004, 2183.00
2005, 2183.00
2006, 2183.00
2007, 2184.00
2008, 2184.00
2009, 2186.00
2010, 2185.00
2011, 2186.00
2012, 2186.00
2013, 2186.00
2014, 2188.00
2015, 2188.00
2016, 2189.00
2017, 2191.00
2018, 2189.00
2019, 2190.00
2020, 2191.00
2021, 2192.00
2022, 2193.00
2023, 2192.00
2024, 2195.00
2025, 2194.00
2026, 2195.00
2027, 2194.00
2028, 2197.00
2029, 2197.00
2030, 2198.00
2031, 2198.00
2032, 2198.00
2033, 2198.00
2034, 2200.00
2035, 2200.00
2036, 2200.00
2037, 2202.00
2038, 2203.00
2039, 2203.00
2040, 2204.00
2041, 2205.00
2042, 2205.00
2043, 2207.00
2044, 2206.00
2045, 2209.00
2046, 2211.00
2047, 2209.00
2048, 2210.00
2049, 2212.00
2050, 2213.00
2051, 2213.00
2052, 2214.00
2053, 2216.00
2054, 2214.00
2055, 2216.00
2056, 2216.00
2057, 2217.00
2058, 2221.00
2059, 2219.00
2060, 2221.00
2061, 2222.00
2062, 2224.00
2063, 2222.00
2064, 2225.00
2065, 2226.00
2066, 2226.00
2067, 2227.00
2068, 2228.00
2069, 2229.00
2070, 2228.00
2071, 2230.00
2072, 2231.00
2073, 2233.00
2074, 2234.00
2075, 2235.00
2076, 2234.00
2077, 2235.00
2078, 2236.00
2079, 2236.00
2080, 2239.00
2081, 2239.00
2082, 2239.00
2083, 2241.00
2084, 2241.00
2085, 2243.00
2086, 2242.00
2087, 2244.00
2088, 2244.00
2089, 2245.00
2090, 2247.00
2091, 2245.00
2092, 2248.00
2093, 2247.00
2094, 2248.00
2095, 2249.00
2096, 2250.00
2097, 2251.00
2098, 2250.00
2099, 2251.00
2100, 2252.00
2101, 2251.00
2102, 2251.00
2103, 2253.00
2104, 2253.00
2105, 2254.00
2106, 2254.00
2107, 2255.00
2108, 2255.00
2109, 2255.00
2110, 2257.00
2111, 2256.00
2112, 2257.00
2113, 2257.00
2114, 2257.00
2115, 2258.00
2116, 2259.00
2117, 2259.00
2118, 2260.00
2119, 2260.00
2120, 2259.00
2121, 2261.00
2122, 2260.00
2123, 2263.00
2124, 2263.00
2125, 2263.00
2126, 2261.00
2127, 2263.00
2128, 2264.00
2129, 2263.00
2130, 2264.00
2131, 2264.00
2132, 2263.00
2133, 2265.00
2134, 2265.00
2135, 2265.00
2136, 2265.00
2137, 2266.00
2138, 2266.00
2139, 2267.00
2140, 2267.00
2141, 2267.00
2142, 2266.00
2143, 2268.00
2144, 2267.00
2145, 2268.00
2146, 2270.00
2147, 2268.00
2148, 2268.00
2149, 2269.00
2150, 2270.00
