FW version: 24
Log Version: 3.0.3

General Info:
       Command/Macro Performed,            Timestamp,             Device ID, COM Port, UART/I2C, Test Name, Host Major, Host Minor, Host Revision, Host Git Commit
            Single_measurement,  2023_06_29_10_35_30,       Insight2_F4_xxx,    USB-C,      USB,          ,          0,          1,             1,      4031237645

Show Spectrometer Status:
l0_version, f4_version, battery_perc, battery_mVolt, accelerometer_temp, accelerometer_x, accelerometer_y, accelerometer_z, compass_temp, compass_x, compass_y, compass_z, lamp_0, lamp_1, gain_0, gain_1
        17,         24,           92,          2057,               5584,           65484,           65464,           18412,            0,     65533,     65529,     65534,   2457,   2457,      1,      1

Temperature Statistic Info:
NTC AVG [°C], NTC2 AVG [°C]
      35.865,        35.584

Statistic Info:
M1:  num,      min,      max,   median,      AVG,      STD,M2:  num,      min,      max,   median,      AVG,      STD
     301,  1192.00,  1396.00,  1234.00,  1259.52,  63.4964,     401,  1664.00,  1790.00,  1717.00,  1720.37,  41.1622,

Measurements:
Wavelength, Data Amplitude
1350, 1228.00
1351, 1227.00
1352, 1227.00
1353, 1225.00
1354, 1225.00
1355, 1225.00
1356, 1225.00
1357, 1224.00
1358, 1223.00
1359, 1221.00
1360, 1221.00
1361, 1221.00
1362, 1219.00
1363, 1219.00
1364, 1219.00
1365, 1218.00
1366, 1216.00
1367, 1215.00
1368, 1213.00
1369, 1212.00
1370, 1213.00
1371, 1210.00
1372, 1211.00
1373, 1210.00
1374, 1209.00
1375, 1209.00
1376, 1207.00
1377, 1206.00
1378, 1204.00
1379, 1206.00
1380, 1205.00
1381, 1203.00
1382, 1203.00
1383, 1202.00
1384, 1201.00
1385, 1201.00
1386, 1201.00
1387, 1199.00
1388, 1200.00
1389, 1199.00
1390, 1198.00
1391, 1198.00
1392, 1199.00
1393, 1197.00
1394, 1196.00
1395, 1198.00
1396, 1194.00
1397, 1197.00
1398, 1196.00
1399, 1197.00
1400, 1195.00
1401, 1196.00
1402, 1195.00
1403, 1194.00
1404, 1195.00
1405, 1194.00
1406, 1194.00
1407, 1194.00
1408, 1194.00
1409, 1195.00
1410, 1193.00
1411, 1193.00
1412, 1194.00
1413, 1195.00
1414, 1195.00
1415, 1193.00
1416, 1193.00
1417, 1193.00
1418, 1193.00
1419, 1193.00
1420, 1193.00
1421, 1192.00
1422, 1193.00
1423, 1193.00
1424, 1193.00
1425, 1194.00
1426, 1193.00
1427, 1192.00
1428, 1194.00
1429, 1194.00
1430, 1195.00
1431, 1195.00
1432, 1194.00
1433, 1195.00
1434, 1195.00
1435, 1195.00
1436, 1196.00
1437, 1196.00
1438, 1195.00
1439, 1196.00
1440, 1196.00
1441, 1197.00
1442, 1197.00
1443, 1198.00
1444, 1198.00
1445, 1197.00
1446, 1198.00
1447, 1199.00
1448, 1197.00
1449, 1199.00
1450, 1200.00
1451, 1201.00
1452, 1201.00
1453, 1201.00
1454, 1202.00
1455, 1202.00
1456, 1202.00
1457, 1203.00
1458, 1203.00
1459, 1205.00
1460, 1205.00
1461, 1205.00
1462, 1206.00
1463, 1206.00
1464, 1207.00
1465, 1207.00
1466, 1208.00
1467, 1208.00
1468, 1209.00
1469, 1209.00
1470, 1210.00
1471, 1212.00
1472, 1212.00
1473, 1212.00
1474, 1213.00
1475, 1214.00
1476, 1215.00
1477, 1216.00
1478, 1217.00
1479, 1216.00
1480, 1218.00
1481, 1219.00
1482, 1219.00
1483, 1220.00
1484, 1221.00
1485, 1222.00
1486, 1223.00
1487, 1224.00
1488, 1224.00
1489, 1226.00
1490, 1226.00
1491, 1227.00
1492, 1228.00
1493, 1229.00
1494, 1228.00
1495, 1229.00
1496, 1231.00
1497, 1232.00
1498, 1231.00
1499, 1233.00
1500, 1234.00
1501, 1236.00
1502, 1236.00
1503, 1238.00
1504, 1238.00
1505, 1239.00
1506, 1239.00
1507, 1240.00
1508, 1240.00
1509, 1242.00
1510, 1244.00
1511, 1244.00
1512, 1245.00
1513, 1245.00
1514, 1247.00
1515, 1248.00
1516, 1248.00
1517, 1250.00
1518, 1251.00
1519, 1253.00
1520, 1252.00
1521, 1255.00
1522, 1255.00
1523, 1256.00
1524, 1257.00
1525, 1258.00
1526, 1260.00
1527, 1260.00
1528, 1261.00
1529, 1262.00
1530, 1262.00
1531, 1264.00
1532, 1264.00
1533, 1267.00
1534, 1267.00
1535, 1268.00
1536, 1270.00
1537, 1270.00
1538, 1272.00
1539, 1272.00
1540, 1273.00
1541, 1274.00
1542, 1275.00
1543, 1276.00
1544, 1278.00
1545, 1278.00
1546, 1279.00
1547, 1280.00
1548, 1282.00
1549, 1282.00
1550, 1282.00
1551, 1284.00
1552, 1286.00
1553, 1285.00
1554, 1288.00
1555, 1289.00
1556, 1289.00
1557, 1291.00
1558, 1291.00
1559, 1293.00
1560, 1294.00
1561, 1295.00
1562, 1296.00
1563, 1297.00
1564, 1300.00
1565, 1299.00
1566, 1300.00
1567, 1302.00
1568, 1303.00
1569, 1306.00
1570, 1306.00
1571, 1307.00
1572, 1308.00
1573, 1308.00
1574, 1310.00
1575, 1311.00
1576, 1312.00
1577, 1313.00
1578, 1314.00
1579, 1316.00
1580, 1316.00
1581, 1318.00
1582, 1319.00
1583, 1319.00
1584, 1321.00
1585, 1322.00
1586, 1321.00
1587, 1323.00
1588, 1324.00
1589, 1326.00
1590, 1327.00
1591, 1327.00
1592, 1329.00
1593, 1330.00
1594, 1331.00
1595, 1331.00
1596, 1333.00
1597, 1334.00
1598, 1334.00
1599, 1337.00
1600, 1337.00
1601, 1338.00
1602, 1339.00
1603, 1342.00
1604, 1342.00
1605, 1344.00
1606, 1344.00
1607, 1346.00
1608, 1346.00
1609, 1348.00
1610, 1349.00
1611, 1351.00
1612, 1351.00
1613, 1353.00
1614, 1354.00
1615, 1355.00
1616, 1357.00
1617, 1358.00
1618, 1359.00
1619, 1360.00
1620, 1362.00
1621, 1364.00
1622, 1365.00
1623, 1367.00
1624, 1368.00
1625, 1369.00
1626, 1370.00
1627, 1371.00
1628, 1372.00
1629, 1374.00
1630, 1376.00
1631, 1376.00
1632, 1378.00
1633, 1378.00
1634, 1380.00
1635, 1382.00
1636, 1382.00
1637, 1382.00
1638, 1384.00
1639, 1385.00
1640, 1387.00
1641, 1388.00
1642, 1388.00
1643, 1390.00
1644, 1391.00
1645, 1392.00
1646, 1392.00
1647, 1393.00
1648, 1395.00
1649, 1395.00
1650, 1396.00

1750, 1789.00
1751, 1788.00
1752, 1789.00
1753, 1789.00
1754, 1788.00
1755, 1788.00
1756, 1789.00
1757, 1790.00
1758, 1789.00
1759, 1790.00
1760, 1789.00
1761, 1788.00
1762, 1788.00
1763, 1788.00
1764, 1788.00
1765, 1787.00
1766, 1788.00
1767, 1787.00
1768, 1789.00
1769, 1787.00
1770, 1787.00
1771, 1788.00
1772, 1788.00
1773, 1787.00
1774, 1786.00
1775, 1788.00
1776, 1783.00
1777, 1787.00
1778, 1784.00
1779, 1784.00
1780, 1784.00
1781, 1783.00
1782, 1783.00
1783, 1782.00
1784, 1783.00
1785, 1782.00
1786, 1782.00
1787, 1784.00
1788, 1781.00
1789, 1781.00
1790, 1782.00
1791, 1780.00
1792, 1781.00
1793, 1778.00
1794, 1779.00
1795, 1779.00
1796, 1778.00
1797, 1778.00
1798, 1777.00
1799, 1778.00
1800, 1776.00
1801, 1777.00
1802, 1776.00
1803, 1775.00
1804, 1776.00
1805, 1775.00
1806, 1774.00
1807, 1773.00
1808, 1774.00
1809, 1772.00
1810, 1771.00
1811, 1773.00
1812, 1771.00
1813, 1772.00
1814, 1770.00
1815, 1771.00
1816, 1771.00
1817, 1769.00
1818, 1766.00
1819, 1768.00
1820, 1768.00
1821, 1767.00
1822, 1765.00
1823, 1765.00
1824, 1764.00
1825, 1763.00
1826, 1762.00
1827, 1762.00
1828, 1759.00
1829, 1760.00
1830, 1758.00
1831, 1757.00
1832, 1756.00
1833, 1753.00
1834, 1755.00
1835, 1751.00
1836, 1749.00
1837, 1749.00
1838, 1747.00
1839, 1746.00
1840, 1744.00
1841, 1741.00
1842, 1741.00
1843, 1738.00
1844, 1737.00
1845, 1734.00
1846, 1733.00
1847, 1731.00
1848, 1727.00
1849, 1728.00
1850, 1725.00
1851, 1723.00
1852, 1722.00
1853, 1719.00
1854, 1717.00
1855, 1715.00
1856, 1712.00
1857, 1712.00
1858, 1710.00
1859, 1708.00
1860, 1705.00
1861, 1703.00
1862, 1701.00
1863, 1702.00
1864, 1699.00
1865, 1697.00
1866, 1695.00
1867, 1693.00
1868, 1693.00
1869, 1692.00
1870, 1690.00
1871, 1689.00
1872, 1687.00
1873, 1687.00
1874, 1685.00
1875, 1685.00
1876, 1683.00
1877, 1683.00
1878, 1681.00
1879, 1682.00
1880, 1680.00
1881, 1680.00
1882, 1679.00
1883, 1677.00
1884, 1679.00
1885, 1677.00
1886, 1678.00
1887, 1675.00
1888, 1677.00
1889, 1674.00
1890, 1676.00
1891, 1676.00
1892, 1674.00
1893, 1674.00
1894, 1672.00
1895, 1671.00
1896, 1672.00
1897, 1671.00
1898, 1672.00
1899, 1671.00
1900, 1670.00
1901, 1669.00
1902, 1670.00
1903, 1670.00
1904, 1669.00
1905, 1670.00
1906, 1669.00
1907, 1670.00
1908, 1668.00
1909, 1669.00
1910, 1668.00
1911, 1668.00
1912, 1666.00
1913, 1668.00
1914, 1667.00
1915, 1668.00
1916, 1668.00
1917, 1667.00
1918, 1668.00
1919, 1667.00
1920, 1664.00
1921, 1665.00
1922, 1666.00
1923, 1667.00
1924, 1666.00
1925, 1667.00
1926, 1666.00
1927, 1667.00
1928, 1666.00
1929, 1664.00
1930, 1667.00
1931, 1666.00
1932, 1667.00
1933, 1665.00
1934, 1667.00
1935, 1666.00
1936, 1665.00
1937, 1667.00
1938, 1666.00
1939, 1668.00
1940, 1666.00
1941, 1667.00
1942, 1667.00
1943, 1668.00
1944, 1668.00
1945, 1668.00
1946, 1670.00
1947, 1669.00
1948, 1669.00
1949, 1668.00
1950, 1668.00
1951, 1668.00
1952, 1671.00
1953, 1670.00
1954, 1670.00
1955, 1669.00
1956, 1671.00
1957, 1670.00
1958, 1670.00
1959, 1672.00
1960, 1674.00
1961, 1672.00
1962, 1673.00
1963, 1672.00
1964, 1675.00
1965, 1672.00
1966, 1675.00
1967, 1674.00
1968, 1675.00
1969, 1674.00
1970, 1675.00
1971, 1675.00
1972, 1676.00
1973, 1677.00
1974, 1676.00
1975, 1678.00
1976, 1678.00
1977, 1677.00
1978, 1680.00
1979, 1679.00
1980, 1679.00
1981, 1680.00
1982, 1679.00
1983, 1681.00
1984, 1682.00
1985, 1682.00
1986, 1683.00
1987, 1684.00
1988, 1683.00
1989, 1683.00
1990, 1684.00
1991, 1685.00
1992, 1684.00
1993, 1685.00
1994, 1686.00
1995, 1685.00
1996, 1688.00
1997, 1688.00
1998, 1686.00
1999, 1688.00
2000, 1688.00
2001, 1687.00
2002, 1688.00
2003, 1690.00
2004, 1690.00
2005, 1691.00
2006, 1692.00
2007, 1690.00
2008, 1692.00
2009, 1690.00
2010, 1691.00
2011, 1695.00
2012, 1693.00
2013, 1693.00
2014, 1694.00
2015, 1696.00
2016, 1695.00
2017, 1694.00
2018, 1696.00
2019, 1696.00
2020, 1697.00
2021, 1697.00
2022, 1698.00
2023, 1700.00
2024, 1699.00
2025, 1700.00
2026, 1699.00
2027, 1702.00
2028, 1700.00
2029, 1699.00
2030, 1703.00
2031, 1703.00
2032, 1703.00
2033, 1705.00
2034, 1704.00
2035, 1704.00
2036, 1705.00
2037, 1707.00
2038, 1704.00
2039, 1708.00
2040, 1708.00
2041, 1705.00
2042, 1709.00
2043, 1709.00
2044, 1708.00
2045, 1711.00
2046, 1710.00
2047, 1710.00
2048, 1711.00
2049, 1714.00
2050, 1713.00
2051, 1715.00
2052, 1715.00
2053, 1714.00
2054, 1717.00
2055, 1718.00
2056, 1719.00
2057, 1718.00
2058, 1721.00
2059, 1721.00
2060, 1720.00
2061, 1721.00
2062, 1724.00
2063, 1721.00
2064, 1723.00
2065, 1723.00
2066, 1725.00
2067, 1727.00
2068, 1726.00
2069, 1727.00
2070, 1727.00
2071, 1729.00
2072, 1729.00
2073, 1730.00
2074, 1730.00
2075, 1732.00
2076, 1732.00
2077, 1734.00
2078, 1733.00
2079, 1734.00
2080, 1735.00
2081, 1734.00
2082, 1735.00
2083, 1737.00
2084, 1737.00
2085, 1736.00
2086, 1739.00
2087, 1740.00
2088, 1741.00
2089, 1740.00
2090, 1741.00
2091, 1741.00
2092, 1739.00
2093, 1742.00
2094, 1743.00
2095, 1743.00
2096, 1743.00
2097, 1745.00
2098, 1746.00
2099, 1743.00
2100, 1745.00
2101, 1746.00
2102, 1746.00
2103, 1746.00
2104, 1748.00
2105, 1747.00
2106, 1748.00
2107, 1747.00
2108, 1750.00
2109, 1748.00
2110, 1749.00
2111, 1749.00
2112, 1750.00
2113, 1750.00
2114, 1752.00
2115, 1752.00
2116, 1752.00
2117, 1752.00
2118, 1751.00
2119, 1752.00
2120, 1753.00
2121, 1752.00
2122, 1752.00
2123, 1753.00
2124, 1753.00
2125, 1755.00
2126, 1754.00
2127, 1754.00
2128, 1756.00
2129, 1754.00
2130, 1756.00
2131, 1755.00
2132, 1755.00
2133, 1757.00
2134, 1756.00
2135, 1756.00
2136, 1757.00
2137, 1756.00
2138, 1757.00
2139, 1758.00
2140, 1758.00
2141, 1757.00
2142, 1758.00
2143, 1757.00
2144, 1759.00
2145, 1759.00
2146, 1759.00
2147, 1759.00
2148, 1759.00
2149, 1759.00
2150, 1759.00
