FW version: 24
Log Version: 3.0.3

General Info:
       Command/Macro Performed,            Timestamp,             Device ID, COM Port, UART/I2C, Test Name, Host Major, Host Minor, Host Revision, Host Git Commit
            Single_measurement,  2023_06_29_10_34_59,       Insight2_F4_xxx,    USB-C,      USB,          ,          0,          1,             1,      4031237645

Show Spectrometer Status:
l0_version, f4_version, battery_perc, battery_mVolt, accelerometer_temp, accelerometer_x, accelerometer_y, accelerometer_z, compass_temp, compass_x, compass_y, compass_z, lamp_0, lamp_1, gain_0, gain_1
        17,         24,           92,          2057,               5536,           65500,           65396,           18360,            0,     65533,     65404,     65466,   3276,   3276,      0,      0

Temperature Statistic Info:
NTC AVG [°C], NTC2 AVG [°C]
      35.668,        35.357

Statistic Info:
M1:  num,      min,      max,   median,      AVG,      STD,M2:  num,      min,      max,   median,      AVG,      STD
     301,   714.00,   828.00,   737.00,   751.66,  35.3032,     401,   924.00,   994.00,   952.00,   954.31,  22.6790,

Measurements:
Wavelength, Data Amplitude
1350, 736.00
1351, 737.00
1352, 736.00
1353, 736.00
1354, 735.00
1355, 735.00
1356, 735.00
1357, 734.00
1358, 734.00
1359, 733.00
1360, 733.00
1361, 732.00
1362, 732.00
1363, 731.00
1364, 730.00
1365, 730.00
1366, 730.00
1367, 729.00
1368, 728.00
1369, 727.00
1370, 727.00
1371, 727.00
1372, 726.00
1373, 725.00
1374, 725.00
1375, 724.00
1376, 724.00
1377, 724.00
1378, 723.00
1379, 722.00
1380, 721.00
1381, 721.00
1382, 721.00
1383, 721.00
1384, 720.00
1385, 720.00
1386, 719.00
1387, 719.00
1388, 719.00
1389, 719.00
1390, 718.00
1391, 718.00
1392, 718.00
1393, 717.00
1394, 717.00
1395, 717.00
1396, 717.00
1397, 717.00
1398, 716.00
1399, 716.00
1400, 716.00
1401, 716.00
1402, 716.00
1403, 716.00
1404, 716.00
1405, 716.00
1406, 716.00
1407, 716.00
1408, 715.00
1409, 715.00
1410, 715.00
1411, 715.00
1412, 715.00
1413, 715.00
1414, 715.00
1415, 715.00
1416, 714.00
1417, 715.00
1418, 715.00
1419, 715.00
1420, 714.00
1421, 715.00
1422, 715.00
1423, 714.00
1424, 715.00
1425, 715.00
1426, 715.00
1427, 715.00
1428, 715.00
1429, 715.00
1430, 715.00
1431, 715.00
1432, 715.00
1433, 715.00
1434, 715.00
1435, 716.00
1436, 716.00
1437, 716.00
1438, 716.00
1439, 716.00
1440, 716.00
1441, 716.00
1442, 717.00
1443, 717.00
1444, 717.00
1445, 717.00
1446, 717.00
1447, 718.00
1448, 717.00
1449, 718.00
1450, 718.00
1451, 718.00
1452, 719.00
1453, 719.00
1454, 719.00
1455, 719.00
1456, 719.00
1457, 720.00
1458, 719.00
1459, 720.00
1460, 721.00
1461, 721.00
1462, 721.00
1463, 721.00
1464, 722.00
1465, 721.00
1466, 722.00
1467, 722.00
1468, 723.00
1469, 724.00
1470, 724.00
1471, 724.00
1472, 724.00
1473, 725.00
1474, 725.00
1475, 726.00
1476, 726.00
1477, 726.00
1478, 726.00
1479, 727.00
1480, 727.00
1481, 728.00
1482, 729.00
1483, 729.00
1484, 730.00
1485, 730.00
1486, 730.00
1487, 731.00
1488, 731.00
1489, 731.00
1490, 732.00
1491, 733.00
1492, 734.00
1493, 734.00
1494, 734.00
1495, 734.00
1496, 735.00
1497, 735.00
1498, 736.00
1499, 737.00
1500, 737.00
1501, 737.00
1502, 737.00
1503, 739.00
1504, 739.00
1505, 740.00
1506, 740.00
1507, 740.00
1508, 741.00
1509, 741.00
1510, 741.00
1511, 743.00
1512, 743.00
1513, 744.00
1514, 744.00
1515, 744.00
1516, 745.00
1517, 746.00
1518, 746.00
1519, 746.00
1520, 747.00
1521, 748.00
1522, 748.00
1523, 749.00
1524, 749.00
1525, 750.00
1526, 750.00
1527, 751.00
1528, 751.00
1529, 752.00
1530, 752.00
1531, 753.00
1532, 754.00
1533, 755.00
1534, 755.00
1535, 756.00
1536, 756.00
1537, 757.00
1538, 757.00
1539, 758.00
1540, 759.00
1541, 759.00
1542, 760.00
1543, 761.00
1544, 761.00
1545, 761.00
1546, 762.00
1547, 763.00
1548, 763.00
1549, 764.00
1550, 764.00
1551, 765.00
1552, 766.00
1553, 765.00
1554, 767.00
1555, 767.00
1556, 768.00
1557, 769.00
1558, 769.00
1559, 770.00
1560, 771.00
1561, 772.00
1562, 772.00
1563, 773.00
1564, 773.00
1565, 774.00
1566, 775.00
1567, 776.00
1568, 776.00
1569, 777.00
1570, 778.00
1571, 778.00
1572, 779.00
1573, 779.00
1574, 779.00
1575, 781.00
1576, 781.00
1577, 781.00
1578, 782.00
1579, 783.00
1580, 783.00
1581, 784.00
1582, 785.00
1583, 785.00
1584, 785.00
1585, 787.00
1586, 787.00
1587, 787.00
1588, 788.00
1589, 789.00
1590, 789.00
1591, 790.00
1592, 791.00
1593, 791.00
1594, 792.00
1595, 792.00
1596, 793.00
1597, 793.00
1598, 794.00
1599, 795.00
1600, 795.00
1601, 796.00
1602, 796.00
1603, 797.00
1604, 798.00
1605, 798.00
1606, 799.00
1607, 800.00
1608, 800.00
1609, 801.00
1610, 802.00
1611, 802.00
1612, 803.00
1613, 804.00
1614, 805.00
1615, 805.00
1616, 806.00
1617, 807.00
1618, 807.00
1619, 808.00
1620, 809.00
1621, 810.00
1622, 810.00
1623, 811.00
1624, 812.00
1625, 813.00
1626, 813.00
1627, 814.00
1628, 815.00
1629, 815.00
1630, 816.00
1631, 816.00
1632, 817.00
1633, 818.00
1634, 819.00
1635, 820.00
1636, 820.00
1637, 820.00
1638, 821.00
1639, 821.00
1640, 822.00
1641, 823.00
1642, 823.00
1643, 824.00
1644, 825.00
1645, 825.00
1646, 825.00
1647, 826.00
1648, 826.00
1649, 827.00
1650, 828.00

1750, 993.00
1751, 994.00
1752, 994.00
1753, 993.00
1754, 993.00
1755, 993.00
1756, 993.00
1757, 994.00
1758, 994.00
1759, 994.00
1760, 993.00
1761, 993.00
1762, 993.00
1763, 993.00
1764, 994.00
1765, 993.00
1766, 993.00
1767, 993.00
1768, 993.00
1769, 993.00
1770, 992.00
1771, 993.00
1772, 992.00
1773, 992.00
1774, 991.00
1775, 991.00
1776, 991.00
1777, 991.00
1778, 991.00
1779, 991.00
1780, 991.00
1781, 991.00
1782, 991.00
1783, 990.00
1784, 990.00
1785, 989.00
1786, 990.00
1787, 989.00
1788, 989.00
1789, 989.00
1790, 989.00
1791, 988.00
1792, 988.00
1793, 987.00
1794, 988.00
1795, 987.00
1796, 987.00
1797, 987.00
1798, 987.00
1799, 986.00
1800, 986.00
1801, 986.00
1802, 986.00
1803, 985.00
1804, 985.00
1805, 986.00
1806, 985.00
1807, 985.00
1808, 985.00
1809, 984.00
1810, 984.00
1811, 984.00
1812, 983.00
1813, 983.00
1814, 983.00
1815, 983.00
1816, 982.00
1817, 982.00
1818, 982.00
1819, 981.00
1820, 981.00
1821, 981.00
1822, 980.00
1823, 980.00
1824, 979.00
1825, 978.00
1826, 978.00
1827, 978.00
1828, 977.00
1829, 977.00
1830, 975.00
1831, 975.00
1832, 974.00
1833, 974.00
1834, 973.00
1835, 973.00
1836, 971.00
1837, 971.00
1838, 970.00
1839, 969.00
1840, 967.00
1841, 967.00
1842, 965.00
1843, 964.00
1844, 964.00
1845, 962.00
1846, 962.00
1847, 961.00
1848, 959.00
1849, 958.00
1850, 957.00
1851, 957.00
1852, 955.00
1853, 954.00
1854, 953.00
1855, 952.00
1856, 951.00
1857, 950.00
1858, 948.00
1859, 948.00
1860, 947.00
1861, 946.00
1862, 945.00
1863, 943.00
1864, 943.00
1865, 943.00
1866, 942.00
1867, 940.00
1868, 940.00
1869, 940.00
1870, 938.00
1871, 938.00
1872, 937.00
1873, 936.00
1874, 936.00
1875, 935.00
1876, 935.00
1877, 934.00
1878, 934.00
1879, 933.00
1880, 933.00
1881, 933.00
1882, 932.00
1883, 931.00
1884, 932.00
1885, 931.00
1886, 931.00
1887, 931.00
1888, 931.00
1889, 929.00
1890, 929.00
1891, 929.00
1892, 929.00
1893, 929.00
1894, 929.00
1895, 928.00
1896, 928.00
1897, 927.00
1898, 928.00
1899, 927.00
1900, 927.00
1901, 927.00
1902, 927.00
1903, 927.00
1904, 927.00
1905, 926.00
1906, 926.00
1907, 926.00
1908, 925.00
1909, 927.00
1910, 926.00
1911, 926.00
1912, 926.00
1913, 926.00
1914, 925.00
1915, 925.00
1916, 925.00
1917, 925.00
1918, 925.00
1919, 925.00
1920, 925.00
1921, 925.00
1922, 925.00
1923, 925.00
1924, 925.00
1925, 925.00
1926, 925.00
1927, 925.00
1928, 925.00
1929, 924.00
1930, 925.00
1931, 925.00
1932, 925.00
1933, 925.00
1934, 925.00
1935, 925.00
1936, 925.00
1937, 925.00
1938, 925.00
1939, 925.00
1940, 925.00
1941, 925.00
1942, 925.00
1943, 926.00
1944, 926.00
1945, 926.00
1946, 925.00
1947, 926.00
1948, 926.00
1949, 925.00
1950, 927.00
1951, 926.00
1952, 927.00
1953, 927.00
1954, 926.00
1955, 927.00
1956, 927.00
1957, 928.00
1958, 928.00
1959, 927.00
1960, 928.00
1961, 928.00
1962, 928.00
1963, 928.00
1964, 929.00
1965, 929.00
1966, 929.00
1967, 929.00
1968, 930.00
1969, 930.00
1970, 930.00
1971, 930.00
1972, 930.00
1973, 930.00
1974, 930.00
1975, 931.00
1976, 931.00
1977, 932.00
1978, 931.00
1979, 931.00
1980, 932.00
1981, 933.00
1982, 933.00
1983, 933.00
1984, 934.00
1985, 933.00
1986, 933.00
1987, 934.00
1988, 934.00
1989, 934.00
1990, 934.00
1991, 934.00
1992, 935.00
1993, 935.00
1994, 935.00
1995, 935.00
1996, 936.00
1997, 936.00
1998, 936.00
1999, 937.00
2000, 936.00
2001, 936.00
2002, 937.00
2003, 937.00
2004, 938.00
2005, 938.00
2006, 938.00
2007, 938.00
2008, 938.00
2009, 938.00
2010, 939.00
2011, 940.00
2012, 939.00
2013, 940.00
2014, 940.00
2015, 940.00
2016, 940.00
2017, 941.00
2018, 941.00
2019, 941.00
2020, 941.00
2021, 941.00
2022, 942.00
2023, 942.00
2024, 942.00
2025, 943.00
2026, 943.00
2027, 944.00
2028, 943.00
2029, 943.00
2030, 944.00
2031, 943.00
2032, 944.00
2033, 944.00
2034, 945.00
2035, 945.00
2036, 945.00
2037, 946.00
2038, 946.00
2039, 947.00
2040, 946.00
2041, 947.00
2042, 948.00
2043, 948.00
2044, 948.00
2045, 949.00
2046, 949.00
2047, 949.00
2048, 949.00
2049, 949.00
2050, 950.00
2051, 951.00
2052, 951.00
2053, 951.00
2054, 952.00
2055, 951.00
2056, 952.00
2057, 952.00
2058, 953.00
2059, 953.00
2060, 954.00
2061, 954.00
2062, 955.00
2063, 955.00
2064, 955.00
2065, 955.00
2066, 956.00
2067, 956.00
2068, 957.00
2069, 957.00
2070, 958.00
2071, 958.00
2072, 958.00
2073, 959.00
2074, 959.00
2075, 960.00
2076, 960.00
2077, 960.00
2078, 960.00
2079, 961.00
2080, 961.00
2081, 961.00
2082, 962.00
2083, 962.00
2084, 963.00
2085, 962.00
2086, 963.00
2087, 963.00
2088, 963.00
2089, 963.00
2090, 965.00
2091, 964.00
2092, 964.00
2093, 965.00
2094, 965.00
2095, 965.00
2096, 965.00
2097, 966.00
2098, 966.00
2099, 967.00
2100, 966.00
2101, 967.00
2102, 968.00
2103, 967.00
2104, 967.00
2105, 968.00
2106, 967.00
2107, 968.00
2108, 968.00
2109, 969.00
2110, 969.00
2111, 968.00
2112, 969.00
2113, 969.00
2114, 969.00
2115, 969.00
2116, 970.00
2117, 970.00
2118, 970.00
2119, 970.00
2120, 970.00
2121, 970.00
2122, 970.00
2123, 971.00
2124, 971.00
2125, 972.00
2126, 971.00
2127, 971.00
2128, 971.00
2129, 971.00
2130, 971.00
2131, 972.00
2132, 971.00
2133, 972.00
2134, 972.00
2135, 973.00
2136, 972.00
2137, 972.00
2138, 973.00
2139, 972.00
2140, 973.00
2141, 973.00
2142, 973.00
2143, 972.00
2144, 973.00
2145, 973.00
2146, 974.00
2147, 973.00
2148, 974.00
2149, 974.00
2150, 974.00
