FW version: 24
Log Version: 3.0.3

General Info:
       Command/Macro Performed,            Timestamp,             Device ID, COM Port, UART/I2C, Test Name, Host Major, Host Minor, Host Revision, Host Git Commit
            Single_measurement,  2023_06_29_11_07_25,       Insight2_F4_xxx,    USB-C,      USB,          ,          0,          1,             1,      4031237645

Show Spectrometer Status:
l0_version, f4_version, battery_perc, battery_mVolt, accelerometer_temp, accelerometer_x, accelerometer_y, accelerometer_z, compass_temp, compass_x, compass_y, compass_z, lamp_0, lamp_1, gain_0, gain_1
        17,         24,           94,          2070,               5488,           65408,           65336,           18520,            0,     65529,     65403,     65501,   2457,   2457,      1,      1

Temperature Statistic Info:
NTC AVG [°C], NTC2 AVG [°C]
      37.640,        37.266

Statistic Info:
M1:  num,      min,      max,   median,      AVG,      STD,M2:  num,      min,      max,   median,      AVG,      STD
     301,   970.00,  1110.00,   999.00,  1015.98,  43.2853,     401,  1356.00,  1451.00,  1397.00,  1398.93,  31.0833,

Measurements:
Wavelength, Data Amplitude
1350, 994.00
1351, 993.00
1352, 994.00
1353, 993.00
1354, 992.00
1355, 991.00
1356, 993.00
1357, 991.00
1358, 991.00
1359, 990.00
1360, 989.00
1361, 989.00
1362, 988.00
1363, 987.00
1364, 987.00
1365, 986.00
1366, 985.00
1367, 985.00
1368, 984.00
1369, 983.00
1370, 984.00
1371, 983.00
1372, 983.00
1373, 981.00
1374, 982.00
1375, 980.00
1376, 980.00
1377, 979.00
1378, 978.00
1379, 978.00
1380, 977.00
1381, 977.00
1382, 977.00
1383, 975.00
1384, 977.00
1385, 975.00
1386, 976.00
1387, 974.00
1388, 974.00
1389, 974.00
1390, 974.00
1391, 973.00
1392, 973.00
1393, 974.00
1394, 972.00
1395, 973.00
1396, 973.00
1397, 973.00
1398, 972.00
1399, 972.00
1400, 972.00
1401, 972.00
1402, 972.00
1403, 970.00
1404, 972.00
1405, 971.00
1406, 971.00
1407, 970.00
1408, 971.00
1409, 971.00
1410, 971.00
1411, 971.00
1412, 972.00
1413, 970.00
1414, 971.00
1415, 971.00
1416, 970.00
1417, 971.00
1418, 970.00
1419, 971.00
1420, 971.00
1421, 970.00
1422, 970.00
1423, 971.00
1424, 971.00
1425, 971.00
1426, 971.00
1427, 971.00
1428, 971.00
1429, 971.00
1430, 971.00
1431, 971.00
1432, 972.00
1433, 972.00
1434, 972.00
1435, 972.00
1436, 973.00
1437, 972.00
1438, 973.00
1439, 973.00
1440, 974.00
1441, 973.00
1442, 973.00
1443, 974.00
1444, 974.00
1445, 974.00
1446, 975.00
1447, 975.00
1448, 976.00
1449, 975.00
1450, 975.00
1451, 975.00
1452, 975.00
1453, 976.00
1454, 977.00
1455, 977.00
1456, 978.00
1457, 977.00
1458, 978.00
1459, 978.00
1460, 979.00
1461, 979.00
1462, 979.00
1463, 980.00
1464, 979.00
1465, 980.00
1466, 981.00
1467, 981.00
1468, 981.00
1469, 981.00
1470, 982.00
1471, 983.00
1472, 984.00
1473, 984.00
1474, 984.00
1475, 985.00
1476, 986.00
1477, 987.00
1478, 987.00
1479, 987.00
1480, 988.00
1481, 988.00
1482, 989.00
1483, 989.00
1484, 991.00
1485, 990.00
1486, 991.00
1487, 992.00
1488, 993.00
1489, 993.00
1490, 994.00
1491, 994.00
1492, 995.00
1493, 994.00
1494, 995.00
1495, 996.00
1496, 996.00
1497, 998.00
1498, 999.00
1499, 999.00
1500, 999.00
1501, 1000.00
1502, 1000.00
1503, 1000.00
1504, 1003.00
1505, 1002.00
1506, 1003.00
1507, 1002.00
1508, 1004.00
1509, 1005.00
1510, 1006.00
1511, 1006.00
1512, 1007.00
1513, 1008.00
1514, 1008.00
1515, 1009.00
1516, 1010.00
1517, 1010.00
1518, 1010.00
1519, 1012.00
1520, 1013.00
1521, 1013.00
1522, 1013.00
1523, 1014.00
1524, 1016.00
1525, 1016.00
1526, 1016.00
1527, 1017.00
1528, 1017.00
1529, 1019.00
1530, 1019.00
1531, 1020.00
1532, 1021.00
1533, 1021.00
1534, 1021.00
1535, 1023.00
1536, 1022.00
1537, 1024.00
1538, 1025.00
1539, 1025.00
1540, 1026.00
1541, 1026.00
1542, 1028.00
1543, 1028.00
1544, 1029.00
1545, 1030.00
1546, 1030.00
1547, 1031.00
1548, 1031.00
1549, 1033.00
1550, 1033.00
1551, 1033.00
1552, 1035.00
1553, 1035.00
1554, 1034.00
1555, 1036.00
1556, 1036.00
1557, 1037.00
1558, 1038.00
1559, 1039.00
1560, 1040.00
1561, 1041.00
1562, 1042.00
1563, 1042.00
1564, 1043.00
1565, 1044.00
1566, 1045.00
1567, 1044.00
1568, 1045.00
1569, 1047.00
1570, 1047.00
1571, 1047.00
1572, 1048.00
1573, 1049.00
1574, 1050.00
1575, 1051.00
1576, 1053.00
1577, 1052.00
1578, 1053.00
1579, 1054.00
1580, 1055.00
1581, 1056.00
1582, 1056.00
1583, 1056.00
1584, 1058.00
1585, 1058.00
1586, 1059.00
1587, 1060.00
1588, 1061.00
1589, 1060.00
1590, 1061.00
1591, 1063.00
1592, 1063.00
1593, 1064.00
1594, 1065.00
1595, 1065.00
1596, 1066.00
1597, 1066.00
1598, 1068.00
1599, 1068.00
1600, 1069.00
1601, 1068.00
1602, 1070.00
1603, 1071.00
1604, 1071.00
1605, 1072.00
1606, 1073.00
1607, 1073.00
1608, 1075.00
1609, 1076.00
1610, 1077.00
1611, 1077.00
1612, 1078.00
1613, 1080.00
1614, 1080.00
1615, 1081.00
1616, 1082.00
1617, 1084.00
1618, 1084.00
1619, 1085.00
1620, 1086.00
1621, 1086.00
1622, 1088.00
1623, 1088.00
1624, 1089.00
1625, 1090.00
1626, 1091.00
1627, 1093.00
1628, 1094.00
1629, 1094.00
1630, 1094.00
1631, 1095.00
1632, 1096.00
1633, 1097.00
1634, 1098.00
1635, 1099.00
1636, 1099.00
1637, 1100.00
1638, 1101.00
1639, 1101.00
1640, 1102.00
1641, 1103.00
1642, 1103.00
1643, 1105.00
1644, 1105.00
1645, 1106.00
1646, 1106.00
1647, 1107.00
1648, 1108.00
1649, 1109.00
1650, 1110.00

1750, 1449.00
1751, 1448.00
1752, 1449.00
1753, 1450.00
1754, 1449.00
1755, 1450.00
1756, 1449.00
1757, 1451.00
1758, 1449.00
1759, 1449.00
1760, 1450.00
1761, 1449.00
1762, 1449.00
1763, 1449.00
1764, 1451.00
1765, 1451.00
1766, 1450.00
1767, 1451.00
1768, 1449.00
1769, 1449.00
1770, 1450.00
1771, 1449.00
1772, 1449.00
1773, 1448.00
1774, 1448.00
1775, 1447.00
1776, 1449.00
1777, 1446.00
1778, 1446.00
1779, 1446.00
1780, 1447.00
1781, 1445.00
1782, 1446.00
1783, 1443.00
1784, 1445.00
1785, 1445.00
1786, 1445.00
1787, 1442.00
1788, 1443.00
1789, 1443.00
1790, 1441.00
1791, 1442.00
1792, 1444.00
1793, 1443.00
1794, 1442.00
1795, 1441.00
1796, 1442.00
1797, 1440.00
1798, 1441.00
1799, 1441.00
1800, 1440.00
1801, 1441.00
1802, 1442.00
1803, 1440.00
1804, 1439.00
1805, 1439.00
1806, 1437.00
1807, 1438.00
1808, 1439.00
1809, 1438.00
1810, 1437.00
1811, 1437.00
1812, 1436.00
1813, 1438.00
1814, 1435.00
1815, 1436.00
1816, 1435.00
1817, 1435.00
1818, 1433.00
1819, 1434.00
1820, 1434.00
1821, 1432.00
1822, 1432.00
1823, 1431.00
1824, 1429.00
1825, 1429.00
1826, 1427.00
1827, 1428.00
1828, 1427.00
1829, 1426.00
1830, 1424.00
1831, 1424.00
1832, 1425.00
1833, 1424.00
1834, 1421.00
1835, 1421.00
1836, 1419.00
1837, 1418.00
1838, 1416.00
1839, 1417.00
1840, 1414.00
1841, 1413.00
1842, 1412.00
1843, 1408.00
1844, 1409.00
1845, 1408.00
1846, 1408.00
1847, 1406.00
1848, 1403.00
1849, 1402.00
1850, 1401.00
1851, 1400.00
1852, 1398.00
1853, 1397.00
1854, 1394.00
1855, 1394.00
1856, 1390.00
1857, 1391.00
1858, 1389.00
1859, 1389.00
1860, 1385.00
1861, 1383.00
1862, 1382.00
1863, 1382.00
1864, 1380.00
1865, 1379.00
1866, 1380.00
1867, 1377.00
1868, 1377.00
1869, 1376.00
1870, 1375.00
1871, 1374.00
1872, 1373.00
1873, 1374.00
1874, 1371.00
1875, 1371.00
1876, 1370.00
1877, 1369.00
1878, 1369.00
1879, 1367.00
1880, 1369.00
1881, 1367.00
1882, 1367.00
1883, 1367.00
1884, 1366.00
1885, 1367.00
1886, 1364.00
1887, 1363.00
1888, 1363.00
1889, 1363.00
1890, 1363.00
1891, 1364.00
1892, 1363.00
1893, 1363.00
1894, 1363.00
1895, 1361.00
1896, 1361.00
1897, 1361.00
1898, 1361.00
1899, 1360.00
1900, 1361.00
1901, 1360.00
1902, 1359.00
1903, 1360.00
1904, 1358.00
1905, 1360.00
1906, 1361.00
1907, 1360.00
1908, 1361.00
1909, 1357.00
1910, 1357.00
1911, 1359.00
1912, 1360.00
1913, 1358.00
1914, 1357.00
1915, 1358.00
1916, 1360.00
1917, 1359.00
1918, 1359.00
1919, 1360.00
1920, 1359.00
1921, 1359.00
1922, 1358.00
1923, 1358.00
1924, 1357.00
1925, 1356.00
1926, 1357.00
1927, 1357.00
1928, 1358.00
1929, 1359.00
1930, 1359.00
1931, 1359.00
1932, 1360.00
1933, 1357.00
1934, 1359.00
1935, 1360.00
1936, 1358.00
1937, 1358.00
1938, 1359.00
1939, 1358.00
1940, 1360.00
1941, 1359.00
1942, 1360.00
1943, 1358.00
1944, 1359.00
1945, 1358.00
1946, 1359.00
1947, 1359.00
1948, 1361.00
1949, 1359.00
1950, 1359.00
1951, 1360.00
1952, 1360.00
1953, 1361.00
1954, 1362.00
1955, 1360.00
1956, 1360.00
1957, 1362.00
1958, 1360.00
1959, 1361.00
1960, 1362.00
1961, 1362.00
1962, 1364.00
1963, 1364.00
1964, 1365.00
1965, 1364.00
1966, 1364.00
1967, 1362.00
1968, 1366.00
1969, 1365.00
1970, 1366.00
1971, 1364.00
1972, 1366.00
1973, 1366.00
1974, 1365.00
1975, 1367.00
1976, 1365.00
1977, 1368.00
1978, 1367.00
1979, 1367.00
1980, 1368.00
1981, 1371.00
1982, 1369.00
1983, 1368.00
1984, 1369.00
1985, 1371.00
1986, 1370.00
1987, 1371.00
1988, 1372.00
1989, 1372.00
1990, 1373.00
1991, 1371.00
1992, 1373.00
1993, 1372.00
1994, 1374.00
1995, 1373.00
1996, 1374.00
1997, 1373.00
1998, 1377.00
1999, 1374.00
2000, 1377.00
2001, 1375.00
2002, 1376.00
2003, 1375.00
2004, 1376.00
2005, 1377.00
2006, 1378.00
2007, 1376.00
2008, 1378.00
2009, 1377.00
2010, 1378.00
2011, 1378.00
2012, 1379.00
2013, 1381.00
2014, 1379.00
2015, 1379.00
2016, 1380.00
2017, 1380.00
2018, 1381.00
2019, 1382.00
2020, 1382.00
2021, 1381.00
2022, 1383.00
2023, 1383.00
2024, 1383.00
2025, 1383.00
2026, 1385.00
2027, 1385.00
2028, 1384.00
2029, 1384.00
2030, 1385.00
2031, 1386.00
2032, 1386.00
2033, 1388.00
2034, 1386.00
2035, 1387.00
2036, 1389.00
2037, 1388.00
2038, 1389.00
2039, 1390.00
2040, 1390.00
2041, 1389.00
2042, 1390.00
2043, 1391.00
2044, 1393.00
2045, 1393.00
2046, 1393.00
2047, 1394.00
2048, 1394.00
2049, 1395.00
2050, 1395.00
2051, 1394.00
2052, 1397.00
2053, 1396.00
2054, 1399.00
2055, 1395.00
2056, 1399.00
2057, 1399.00
2058, 1399.00
2059, 1399.00
2060, 1401.00
2061, 1401.00
2062, 1401.00
2063, 1400.00
2064, 1401.00
2065, 1401.00
2066, 1404.00
2067, 1403.00
2068, 1403.00
2069, 1405.00
2070, 1405.00
2071, 1407.00
2072, 1406.00
2073, 1407.00
2074, 1408.00
2075, 1408.00
2076, 1410.00
2077, 1408.00
2078, 1412.00
2079, 1411.00
2080, 1410.00
2081, 1412.00
2082, 1412.00
2083, 1412.00
2084, 1412.00
2085, 1413.00
2086, 1416.00
2087, 1413.00
2088, 1416.00
2089, 1415.00
2090, 1416.00
2091, 1416.00
2092, 1417.00
2093, 1418.00
2094, 1417.00
2095, 1418.00
2096, 1418.00
2097, 1417.00
2098, 1418.00
2099, 1419.00
2100, 1418.00
2101, 1419.00
2102, 1421.00
2103, 1420.00
2104, 1421.00
2105, 1423.00
2106, 1422.00
2107, 1421.00
2108, 1420.00
2109, 1422.00
2110, 1422.00
2111, 1421.00
2112, 1423.00
2113, 1423.00
2114, 1424.00
2115, 1424.00
2116, 1424.00
2117, 1425.00
2118, 1424.00
2119, 1424.00
2120, 1424.00
2121, 1427.00
2122, 1426.00
2123, 1424.00
2124, 1427.00
2125, 1426.00
2126, 1427.00
2127, 1427.00
2128, 1427.00
2129, 1427.00
2130, 1428.00
2131, 1428.00
2132, 1428.00
2133, 1429.00
2134, 1428.00
2135, 1428.00
2136, 1428.00
2137, 1428.00
2138, 1429.00
2139, 1427.00
2140, 1431.00
2141, 1430.00
2142, 1430.00
2143, 1430.00
2144, 1430.00
2145, 1431.00
2146, 1430.00
2147, 1430.00
2148, 1431.00
2149, 1431.00
2150, 1432.00
