FW version: 24
Log Version: 3.0.3

General Info:
       Command/Macro Performed,            Timestamp,             Device ID, COM Port, UART/I2C, Test Name, Host Major, Host Minor, Host Revision, Host Git Commit
            Single_measurement,  2023_06_29_11_06_54,       Insight2_F4_xxx,    USB-C,      USB,          ,          0,          1,             1,      4031237645

Show Spectrometer Status:
l0_version, f4_version, battery_perc, battery_mVolt, accelerometer_temp, accelerometer_x, accelerometer_y, accelerometer_z, compass_temp, compass_x, compass_y, compass_z, lamp_0, lamp_1, gain_0, gain_1
        17,         24,           94,          2076,               5488,           65412,           65296,           18400,            0,     65525,     65401,     65519,   3276,   3276,      0,      0

Temperature Statistic Info:
NTC AVG [°C], NTC2 AVG [°C]
      37.612,        37.266

Statistic Info:
M1:  num,      min,      max,   median,      AVG,      STD,M2:  num,      min,      max,   median,      AVG,      STD
     301,   582.00,   660.00,   598.00,   607.48,  23.9142,     401,   753.00,   806.00,   774.00,   776.05,  17.1280,

Measurements:
Wavelength, Data Amplitude
1350, 598.00
1351, 597.00
1352, 597.00
1353, 597.00
1354, 596.00
1355, 596.00
1356, 596.00
1357, 596.00
1358, 595.00
1359, 595.00
1360, 595.00
1361, 593.00
1362, 594.00
1363, 594.00
1364, 593.00
1365, 592.00
1366, 592.00
1367, 592.00
1368, 591.00
1369, 591.00
1370, 591.00
1371, 590.00
1372, 590.00
1373, 589.00
1374, 589.00
1375, 588.00
1376, 589.00
1377, 588.00
1378, 588.00
1379, 588.00
1380, 588.00
1381, 587.00
1382, 587.00
1383, 586.00
1384, 586.00
1385, 586.00
1386, 585.00
1387, 585.00
1388, 585.00
1389, 585.00
1390, 585.00
1391, 585.00
1392, 584.00
1393, 584.00
1394, 584.00
1395, 584.00
1396, 584.00
1397, 584.00
1398, 584.00
1399, 583.00
1400, 583.00
1401, 584.00
1402, 583.00
1403, 583.00
1404, 584.00
1405, 583.00
1406, 583.00
1407, 583.00
1408, 582.00
1409, 582.00
1410, 583.00
1411, 583.00
1412, 583.00
1413, 582.00
1414, 583.00
1415, 582.00
1416, 583.00
1417, 583.00
1418, 582.00
1419, 582.00
1420, 582.00
1421, 582.00
1422, 583.00
1423, 582.00
1424, 582.00
1425, 582.00
1426, 582.00
1427, 582.00
1428, 582.00
1429, 583.00
1430, 582.00
1431, 583.00
1432, 583.00
1433, 583.00
1434, 583.00
1435, 583.00
1436, 583.00
1437, 583.00
1438, 584.00
1439, 583.00
1440, 583.00
1441, 584.00
1442, 584.00
1443, 584.00
1444, 584.00
1445, 584.00
1446, 584.00
1447, 584.00
1448, 584.00
1449, 585.00
1450, 585.00
1451, 585.00
1452, 585.00
1453, 585.00
1454, 585.00
1455, 585.00
1456, 586.00
1457, 586.00
1458, 586.00
1459, 586.00
1460, 586.00
1461, 586.00
1462, 587.00
1463, 586.00
1464, 587.00
1465, 588.00
1466, 588.00
1467, 588.00
1468, 588.00
1469, 588.00
1470, 588.00
1471, 589.00
1472, 589.00
1473, 590.00
1474, 590.00
1475, 590.00
1476, 590.00
1477, 590.00
1478, 591.00
1479, 591.00
1480, 592.00
1481, 592.00
1482, 592.00
1483, 592.00
1484, 593.00
1485, 593.00
1486, 593.00
1487, 593.00
1488, 594.00
1489, 594.00
1490, 594.00
1491, 594.00
1492, 595.00
1493, 596.00
1494, 595.00
1495, 596.00
1496, 596.00
1497, 597.00
1498, 598.00
1499, 597.00
1500, 597.00
1501, 598.00
1502, 598.00
1503, 599.00
1504, 598.00
1505, 600.00
1506, 600.00
1507, 600.00
1508, 600.00
1509, 600.00
1510, 601.00
1511, 602.00
1512, 602.00
1513, 602.00
1514, 602.00
1515, 602.00
1516, 603.00
1517, 603.00
1518, 604.00
1519, 604.00
1520, 604.00
1521, 605.00
1522, 605.00
1523, 606.00
1524, 606.00
1525, 606.00
1526, 607.00
1527, 607.00
1528, 608.00
1529, 608.00
1530, 609.00
1531, 609.00
1532, 609.00
1533, 610.00
1534, 610.00
1535, 610.00
1536, 611.00
1537, 611.00
1538, 612.00
1539, 612.00
1540, 612.00
1541, 613.00
1542, 613.00
1543, 613.00
1544, 614.00
1545, 615.00
1546, 615.00
1547, 615.00
1548, 615.00
1549, 616.00
1550, 617.00
1551, 617.00
1552, 617.00
1553, 618.00
1554, 618.00
1555, 619.00
1556, 618.00
1557, 619.00
1558, 620.00
1559, 620.00
1560, 620.00
1561, 621.00
1562, 621.00
1563, 622.00
1564, 623.00
1565, 623.00
1566, 623.00
1567, 623.00
1568, 624.00
1569, 625.00
1570, 625.00
1571, 625.00
1572, 626.00
1573, 626.00
1574, 626.00
1575, 627.00
1576, 627.00
1577, 628.00
1578, 628.00
1579, 629.00
1580, 629.00
1581, 630.00
1582, 630.00
1583, 630.00
1584, 631.00
1585, 631.00
1586, 631.00
1587, 632.00
1588, 632.00
1589, 633.00
1590, 633.00
1591, 633.00
1592, 634.00
1593, 634.00
1594, 635.00
1595, 635.00
1596, 635.00
1597, 636.00
1598, 636.00
1599, 636.00
1600, 637.00
1601, 637.00
1602, 638.00
1603, 638.00
1604, 638.00
1605, 639.00
1606, 640.00
1607, 640.00
1608, 640.00
1609, 641.00
1610, 641.00
1611, 641.00
1612, 642.00
1613, 642.00
1614, 643.00
1615, 643.00
1616, 644.00
1617, 644.00
1618, 645.00
1619, 646.00
1620, 646.00
1621, 646.00
1622, 647.00
1623, 648.00
1624, 648.00
1625, 649.00
1626, 649.00
1627, 649.00
1628, 650.00
1629, 651.00
1630, 651.00
1631, 651.00
1632, 652.00
1633, 652.00
1634, 653.00
1635, 653.00
1636, 653.00
1637, 654.00
1638, 654.00
1639, 655.00
1640, 655.00
1641, 656.00
1642, 656.00
1643, 657.00
1644, 657.00
1645, 658.00
1646, 657.00
1647, 658.00
1648, 658.00
1649, 659.00
1650, 660.00

1750, 805.00
1751, 805.00
1752, 806.00
1753, 806.00
1754, 806.00
1755, 806.00
1756, 805.00
1757, 806.00
1758, 805.00
1759, 805.00
1760, 805.00
1761, 805.00
1762, 805.00
1763, 805.00
1764, 805.00
1765, 805.00
1766, 806.00
1767, 805.00
1768, 804.00
1769, 805.00
1770, 805.00
1771, 804.00
1772, 805.00
1773, 804.00
1774, 805.00
1775, 804.00
1776, 804.00
1777, 803.00
1778, 803.00
1779, 803.00
1780, 804.00
1781, 803.00
1782, 802.00
1783, 802.00
1784, 803.00
1785, 803.00
1786, 802.00
1787, 802.00
1788, 802.00
1789, 802.00
1790, 801.00
1791, 801.00
1792, 801.00
1793, 800.00
1794, 800.00
1795, 800.00
1796, 800.00
1797, 800.00
1798, 800.00
1799, 800.00
1800, 800.00
1801, 800.00
1802, 799.00
1803, 799.00
1804, 799.00
1805, 799.00
1806, 799.00
1807, 798.00
1808, 798.00
1809, 798.00
1810, 798.00
1811, 797.00
1812, 798.00
1813, 797.00
1814, 797.00
1815, 797.00
1816, 797.00
1817, 796.00
1818, 796.00
1819, 796.00
1820, 794.00
1821, 795.00
1822, 795.00
1823, 794.00
1824, 793.00
1825, 794.00
1826, 793.00
1827, 793.00
1828, 792.00
1829, 792.00
1830, 791.00
1831, 791.00
1832, 790.00
1833, 789.00
1834, 789.00
1835, 789.00
1836, 788.00
1837, 787.00
1838, 787.00
1839, 786.00
1840, 785.00
1841, 784.00
1842, 783.00
1843, 783.00
1844, 782.00
1845, 781.00
1846, 780.00
1847, 780.00
1848, 779.00
1849, 778.00
1850, 778.00
1851, 777.00
1852, 776.00
1853, 775.00
1854, 774.00
1855, 773.00
1856, 772.00
1857, 771.00
1858, 771.00
1859, 770.00
1860, 769.00
1861, 768.00
1862, 767.00
1863, 767.00
1864, 766.00
1865, 766.00
1866, 765.00
1867, 765.00
1868, 764.00
1869, 764.00
1870, 763.00
1871, 763.00
1872, 762.00
1873, 762.00
1874, 761.00
1875, 761.00
1876, 761.00
1877, 761.00
1878, 760.00
1879, 760.00
1880, 760.00
1881, 759.00
1882, 759.00
1883, 758.00
1884, 759.00
1885, 758.00
1886, 758.00
1887, 757.00
1888, 757.00
1889, 757.00
1890, 757.00
1891, 757.00
1892, 756.00
1893, 756.00
1894, 757.00
1895, 756.00
1896, 756.00
1897, 756.00
1898, 756.00
1899, 756.00
1900, 756.00
1901, 756.00
1902, 755.00
1903, 755.00
1904, 755.00
1905, 755.00
1906, 754.00
1907, 755.00
1908, 754.00
1909, 755.00
1910, 754.00
1911, 754.00
1912, 755.00
1913, 755.00
1914, 754.00
1915, 754.00
1916, 754.00
1917, 754.00
1918, 755.00
1919, 754.00
1920, 754.00
1921, 754.00
1922, 754.00
1923, 754.00
1924, 754.00
1925, 754.00
1926, 754.00
1927, 754.00
1928, 754.00
1929, 754.00
1930, 754.00
1931, 753.00
1932, 754.00
1933, 754.00
1934, 754.00
1935, 753.00
1936, 755.00
1937, 755.00
1938, 754.00
1939, 754.00
1940, 754.00
1941, 754.00
1942, 754.00
1943, 754.00
1944, 754.00
1945, 754.00
1946, 755.00
1947, 754.00
1948, 755.00
1949, 755.00
1950, 755.00
1951, 755.00
1952, 756.00
1953, 755.00
1954, 755.00
1955, 755.00
1956, 756.00
1957, 756.00
1958, 756.00
1959, 756.00
1960, 756.00
1961, 756.00
1962, 756.00
1963, 756.00
1964, 756.00
1965, 757.00
1966, 756.00
1967, 757.00
1968, 757.00
1969, 757.00
1970, 758.00
1971, 758.00
1972, 758.00
1973, 758.00
1974, 758.00
1975, 759.00
1976, 758.00
1977, 758.00
1978, 759.00
1979, 759.00
1980, 758.00
1981, 759.00
1982, 760.00
1983, 760.00
1984, 760.00
1985, 760.00
1986, 761.00
1987, 760.00
1988, 761.00
1989, 761.00
1990, 761.00
1991, 762.00
1992, 762.00
1993, 761.00
1994, 761.00
1995, 762.00
1996, 762.00
1997, 763.00
1998, 763.00
1999, 763.00
2000, 763.00
2001, 763.00
2002, 763.00
2003, 763.00
2004, 763.00
2005, 762.00
2006, 764.00
2007, 764.00
2008, 764.00
2009, 765.00
2010, 764.00
2011, 765.00
2012, 764.00
2013, 766.00
2014, 765.00
2015, 765.00
2016, 766.00
2017, 765.00
2018, 765.00
2019, 767.00
2020, 766.00
2021, 766.00
2022, 767.00
2023, 767.00
2024, 766.00
2025, 767.00
2026, 767.00
2027, 768.00
2028, 769.00
2029, 768.00
2030, 769.00
2031, 768.00
2032, 769.00
2033, 769.00
2034, 769.00
2035, 769.00
2036, 770.00
2037, 769.00
2038, 770.00
2039, 771.00
2040, 771.00
2041, 771.00
2042, 771.00
2043, 772.00
2044, 772.00
2045, 772.00
2046, 772.00
2047, 772.00
2048, 772.00
2049, 773.00
2050, 773.00
2051, 773.00
2052, 774.00
2053, 774.00
2054, 774.00
2055, 774.00
2056, 774.00
2057, 775.00
2058, 776.00
2059, 775.00
2060, 776.00
2061, 777.00
2062, 777.00
2063, 777.00
2064, 778.00
2065, 778.00
2066, 778.00
2067, 778.00
2068, 778.00
2069, 779.00
2070, 779.00
2071, 779.00
2072, 780.00
2073, 780.00
2074, 781.00
2075, 781.00
2076, 781.00
2077, 781.00
2078, 781.00
2079, 782.00
2080, 782.00
2081, 782.00
2082, 782.00
2083, 782.00
2084, 782.00
2085, 784.00
2086, 783.00
2087, 783.00
2088, 784.00
2089, 784.00
2090, 784.00
2091, 784.00
2092, 784.00
2093, 785.00
2094, 785.00
2095, 786.00
2096, 786.00
2097, 785.00
2098, 785.00
2099, 786.00
2100, 786.00
2101, 787.00
2102, 787.00
2103, 787.00
2104, 787.00
2105, 786.00
2106, 787.00
2107, 787.00
2108, 787.00
2109, 787.00
2110, 788.00
2111, 787.00
2112, 788.00
2113, 789.00
2114, 788.00
2115, 788.00
2116, 789.00
2117, 788.00
2118, 789.00
2119, 789.00
2120, 789.00
2121, 789.00
2122, 788.00
2123, 789.00
2124, 790.00
2125, 790.00
2126, 790.00
2127, 790.00
2128, 790.00
2129, 790.00
2130, 791.00
2131, 791.00
2132, 791.00
2133, 790.00
2134, 790.00
2135, 790.00
2136, 791.00
2137, 791.00
2138, 791.00
2139, 791.00
2140, 792.00
2141, 792.00
2142, 792.00
2143, 792.00
2144, 791.00
2145, 791.00
2146, 792.00
2147, 792.00
2148, 792.00
2149, 792.00
2150, 792.00
