FW version: 24
Log Version: 3.0.3

General Info:
       Command/Macro Performed,            Timestamp,             Device ID, COM Port, UART/I2C, Test Name, Host Major, Host Minor, Host Revision, Host Git Commit
            Single_measurement,  2023_06_29_11_07_33,       Insight2_F4_xxx,    USB-C,      USB,          ,          0,          1,             1,      4031237645

Show Spectrometer Status:
l0_version, f4_version, battery_perc, battery_mVolt, accelerometer_temp, accelerometer_x, accelerometer_y, accelerometer_z, compass_temp, compass_x, compass_y, compass_z, lamp_0, lamp_1, gain_0, gain_1
        17,         24,           94,          2071,               5488,           65444,           65288,           18436,            0,     65526,     65403,     65484,   2457,   2457,      1,      1

Temperature Statistic Info:
NTC AVG [°C], NTC2 AVG [°C]
      37.669,        37.295

Statistic Info:
M1:  num,      min,      max,   median,      AVG,      STD,M2:  num,      min,      max,   median,      AVG,      STD
     301,   969.00,  1109.00,   999.00,  1015.39,  43.1769,     401,  1355.00,  1451.00,  1395.00,  1398.21,  31.1005,

Measurements:
Wavelength, Data Amplitude
1350, 994.00
1351, 993.00
1352, 992.00
1353, 992.00
1354, 991.00
1355, 991.00
1356, 991.00
1357, 991.00
1358, 990.00
1359, 990.00
1360, 989.00
1361, 988.00
1362, 987.00
1363, 986.00
1364, 985.00
1365, 986.00
1366, 985.00
1367, 985.00
1368, 983.00
1369, 982.00
1370, 983.00
1371, 982.00
1372, 980.00
1373, 980.00
1374, 981.00
1375, 980.00
1376, 979.00
1377, 979.00
1378, 978.00
1379, 977.00
1380, 977.00
1381, 976.00
1382, 976.00
1383, 975.00
1384, 975.00
1385, 975.00
1386, 974.00
1387, 974.00
1388, 975.00
1389, 973.00
1390, 974.00
1391, 973.00
1392, 973.00
1393, 973.00
1394, 972.00
1395, 972.00
1396, 972.00
1397, 972.00
1398, 972.00
1399, 972.00
1400, 972.00
1401, 971.00
1402, 972.00
1403, 971.00
1404, 971.00
1405, 971.00
1406, 971.00
1407, 971.00
1408, 970.00
1409, 970.00
1410, 970.00
1411, 970.00
1412, 971.00
1413, 970.00
1414, 970.00
1415, 970.00
1416, 969.00
1417, 970.00
1418, 970.00
1419, 970.00
1420, 970.00
1421, 970.00
1422, 970.00
1423, 970.00
1424, 970.00
1425, 971.00
1426, 971.00
1427, 971.00
1428, 970.00
1429, 970.00
1430, 970.00
1431, 971.00
1432, 972.00
1433, 971.00
1434, 971.00
1435, 972.00
1436, 972.00
1437, 972.00
1438, 972.00
1439, 973.00
1440, 972.00
1441, 973.00
1442, 973.00
1443, 973.00
1444, 975.00
1445, 973.00
1446, 974.00
1447, 974.00
1448, 975.00
1449, 975.00
1450, 974.00
1451, 975.00
1452, 976.00
1453, 977.00
1454, 977.00
1455, 976.00
1456, 978.00
1457, 976.00
1458, 977.00
1459, 978.00
1460, 979.00
1461, 979.00
1462, 979.00
1463, 980.00
1464, 979.00
1465, 981.00
1466, 980.00
1467, 980.00
1468, 981.00
1469, 982.00
1470, 981.00
1471, 983.00
1472, 983.00
1473, 983.00
1474, 983.00
1475, 985.00
1476, 985.00
1477, 985.00
1478, 986.00
1479, 987.00
1480, 988.00
1481, 988.00
1482, 988.00
1483, 990.00
1484, 990.00
1485, 990.00
1486, 992.00
1487, 991.00
1488, 991.00
1489, 993.00
1490, 992.00
1491, 993.00
1492, 993.00
1493, 995.00
1494, 995.00
1495, 996.00
1496, 996.00
1497, 997.00
1498, 997.00
1499, 999.00
1500, 999.00
1501, 1000.00
1502, 1000.00
1503, 1001.00
1504, 1001.00
1505, 1002.00
1506, 1002.00
1507, 1004.00
1508, 1004.00
1509, 1005.00
1510, 1005.00
1511, 1005.00
1512, 1006.00
1513, 1007.00
1514, 1007.00
1515, 1008.00
1516, 1009.00
1517, 1009.00
1518, 1009.00
1519, 1011.00
1520, 1011.00
1521, 1012.00
1522, 1012.00
1523, 1014.00
1524, 1014.00
1525, 1016.00
1526, 1015.00
1527, 1017.00
1528, 1017.00
1529, 1018.00
1530, 1018.00
1531, 1019.00
1532, 1019.00
1533, 1021.00
1534, 1022.00
1535, 1023.00
1536, 1023.00
1537, 1024.00
1538, 1025.00
1539, 1025.00
1540, 1026.00
1541, 1027.00
1542, 1026.00
1543, 1027.00
1544, 1029.00
1545, 1029.00
1546, 1030.00
1547, 1030.00
1548, 1031.00
1549, 1032.00
1550, 1032.00
1551, 1033.00
1552, 1034.00
1553, 1034.00
1554, 1035.00
1555, 1035.00
1556, 1037.00
1557, 1037.00
1558, 1038.00
1559, 1038.00
1560, 1039.00
1561, 1040.00
1562, 1041.00
1563, 1041.00
1564, 1042.00
1565, 1043.00
1566, 1043.00
1567, 1044.00
1568, 1045.00
1569, 1046.00
1570, 1047.00
1571, 1047.00
1572, 1048.00
1573, 1049.00
1574, 1050.00
1575, 1051.00
1576, 1052.00
1577, 1052.00
1578, 1053.00
1579, 1054.00
1580, 1054.00
1581, 1055.00
1582, 1056.00
1583, 1056.00
1584, 1056.00
1585, 1057.00
1586, 1057.00
1587, 1059.00
1588, 1059.00
1589, 1061.00
1590, 1060.00
1591, 1062.00
1592, 1063.00
1593, 1063.00
1594, 1063.00
1595, 1064.00
1596, 1064.00
1597, 1065.00
1598, 1067.00
1599, 1067.00
1600, 1069.00
1601, 1069.00
1602, 1070.00
1603, 1070.00
1604, 1071.00
1605, 1071.00
1606, 1072.00
1607, 1074.00
1608, 1074.00
1609, 1075.00
1610, 1076.00
1611, 1077.00
1612, 1078.00
1613, 1078.00
1614, 1079.00
1615, 1079.00
1616, 1081.00
1617, 1083.00
1618, 1083.00
1619, 1084.00
1620, 1085.00
1621, 1086.00
1622, 1086.00
1623, 1088.00
1624, 1088.00
1625, 1090.00
1626, 1090.00
1627, 1091.00
1628, 1093.00
1629, 1093.00
1630, 1095.00
1631, 1095.00
1632, 1095.00
1633, 1096.00
1634, 1097.00
1635, 1098.00
1636, 1098.00
1637, 1099.00
1638, 1099.00
1639, 1100.00
1640, 1101.00
1641, 1102.00
1642, 1103.00
1643, 1104.00
1644, 1104.00
1645, 1104.00
1646, 1105.00
1647, 1107.00
1648, 1107.00
1649, 1109.00
1650, 1109.00

1750, 1449.00
1751, 1447.00
1752, 1449.00
1753, 1449.00
1754, 1448.00
1755, 1449.00
1756, 1449.00
1757, 1449.00
1758, 1449.00
1759, 1447.00
1760, 1448.00
1761, 1450.00
1762, 1448.00
1763, 1449.00
1764, 1447.00
1765, 1447.00
1766, 1451.00
1767, 1450.00
1768, 1448.00
1769, 1449.00
1770, 1448.00
1771, 1447.00
1772, 1448.00
1773, 1448.00
1774, 1447.00
1775, 1447.00
1776, 1447.00
1777, 1446.00
1778, 1445.00
1779, 1446.00
1780, 1445.00
1781, 1447.00
1782, 1446.00
1783, 1445.00
1784, 1443.00
1785, 1443.00
1786, 1444.00
1787, 1443.00
1788, 1442.00
1789, 1442.00
1790, 1443.00
1791, 1443.00
1792, 1441.00
1793, 1442.00
1794, 1441.00
1795, 1441.00
1796, 1443.00
1797, 1440.00
1798, 1439.00
1799, 1440.00
1800, 1439.00
1801, 1438.00
1802, 1437.00
1803, 1438.00
1804, 1439.00
1805, 1439.00
1806, 1438.00
1807, 1437.00
1808, 1438.00
1809, 1438.00
1810, 1437.00
1811, 1436.00
1812, 1436.00
1813, 1434.00
1814, 1435.00
1815, 1436.00
1816, 1434.00
1817, 1432.00
1818, 1433.00
1819, 1434.00
1820, 1434.00
1821, 1432.00
1822, 1430.00
1823, 1431.00
1824, 1430.00
1825, 1429.00
1826, 1430.00
1827, 1427.00
1828, 1426.00
1829, 1424.00
1830, 1424.00
1831, 1422.00
1832, 1423.00
1833, 1421.00
1834, 1419.00
1835, 1419.00
1836, 1420.00
1837, 1418.00
1838, 1416.00
1839, 1415.00
1840, 1413.00
1841, 1411.00
1842, 1412.00
1843, 1408.00
1844, 1407.00
1845, 1406.00
1846, 1405.00
1847, 1403.00
1848, 1402.00
1849, 1401.00
1850, 1401.00
1851, 1399.00
1852, 1396.00
1853, 1393.00
1854, 1394.00
1855, 1391.00
1856, 1393.00
1857, 1390.00
1858, 1388.00
1859, 1386.00
1860, 1384.00
1861, 1384.00
1862, 1383.00
1863, 1382.00
1864, 1382.00
1865, 1377.00
1866, 1378.00
1867, 1376.00
1868, 1376.00
1869, 1374.00
1870, 1374.00
1871, 1373.00
1872, 1374.00
1873, 1371.00
1874, 1371.00
1875, 1370.00
1876, 1370.00
1877, 1369.00
1878, 1368.00
1879, 1369.00
1880, 1367.00
1881, 1365.00
1882, 1366.00
1883, 1363.00
1884, 1364.00
1885, 1364.00
1886, 1363.00
1887, 1364.00
1888, 1363.00
1889, 1363.00
1890, 1365.00
1891, 1362.00
1892, 1362.00
1893, 1363.00
1894, 1361.00
1895, 1361.00
1896, 1362.00
1897, 1360.00
1898, 1361.00
1899, 1362.00
1900, 1361.00
1901, 1360.00
1902, 1359.00
1903, 1361.00
1904, 1358.00
1905, 1360.00
1906, 1358.00
1907, 1357.00
1908, 1359.00
1909, 1358.00
1910, 1355.00
1911, 1358.00
1912, 1359.00
1913, 1358.00
1914, 1359.00
1915, 1358.00
1916, 1358.00
1917, 1357.00
1918, 1358.00
1919, 1356.00
1920, 1357.00
1921, 1356.00
1922, 1357.00
1923, 1359.00
1924, 1357.00
1925, 1357.00
1926, 1359.00
1927, 1357.00
1928, 1356.00
1929, 1359.00
1930, 1358.00
1931, 1357.00
1932, 1359.00
1933, 1356.00
1934, 1357.00
1935, 1357.00
1936, 1358.00
1937, 1358.00
1938, 1358.00
1939, 1356.00
1940, 1359.00
1941, 1358.00
1942, 1360.00
1943, 1358.00
1944, 1358.00
1945, 1359.00
1946, 1359.00
1947, 1359.00
1948, 1359.00
1949, 1358.00
1950, 1360.00
1951, 1359.00
1952, 1359.00
1953, 1359.00
1954, 1360.00
1955, 1359.00
1956, 1361.00
1957, 1361.00
1958, 1362.00
1959, 1360.00
1960, 1361.00
1961, 1362.00
1962, 1363.00
1963, 1362.00
1964, 1360.00
1965, 1363.00
1966, 1363.00
1967, 1364.00
1968, 1365.00
1969, 1365.00
1970, 1365.00
1971, 1363.00
1972, 1364.00
1973, 1365.00
1974, 1366.00
1975, 1365.00
1976, 1363.00
1977, 1366.00
1978, 1367.00
1979, 1370.00
1980, 1369.00
1981, 1368.00
1982, 1368.00
1983, 1368.00
1984, 1369.00
1985, 1370.00
1986, 1369.00
1987, 1370.00
1988, 1371.00
1989, 1372.00
1990, 1370.00
1991, 1370.00
1992, 1373.00
1993, 1373.00
1994, 1373.00
1995, 1372.00
1996, 1375.00
1997, 1374.00
1998, 1373.00
1999, 1375.00
2000, 1375.00
2001, 1375.00
2002, 1376.00
2003, 1375.00
2004, 1375.00
2005, 1375.00
2006, 1377.00
2007, 1375.00
2008, 1377.00
2009, 1379.00
2010, 1376.00
2011, 1377.00
2012, 1378.00
2013, 1380.00
2014, 1380.00
2015, 1379.00
2016, 1380.00
2017, 1379.00
2018, 1380.00
2019, 1381.00
2020, 1380.00
2021, 1382.00
2022, 1380.00
2023, 1382.00
2024, 1381.00
2025, 1383.00
2026, 1383.00
2027, 1383.00
2028, 1385.00
2029, 1384.00
2030, 1384.00
2031, 1384.00
2032, 1386.00
2033, 1385.00
2034, 1386.00
2035, 1386.00
2036, 1388.00
2037, 1387.00
2038, 1388.00
2039, 1389.00
2040, 1388.00
2041, 1390.00
2042, 1391.00
2043, 1390.00
2044, 1391.00
2045, 1392.00
2046, 1391.00
2047, 1392.00
2048, 1391.00
2049, 1393.00
2050, 1395.00
2051, 1394.00
2052, 1396.00
2053, 1395.00
2054, 1395.00
2055, 1397.00
2056, 1397.00
2057, 1397.00
2058, 1399.00
2059, 1399.00
2060, 1399.00
2061, 1399.00
2062, 1402.00
2063, 1403.00
2064, 1402.00
2065, 1402.00
2066, 1403.00
2067, 1403.00
2068, 1406.00
2069, 1403.00
2070, 1405.00
2071, 1406.00
2072, 1406.00
2073, 1406.00
2074, 1407.00
2075, 1409.00
2076, 1409.00
2077, 1410.00
2078, 1411.00
2079, 1409.00
2080, 1409.00
2081, 1412.00
2082, 1411.00
2083, 1413.00
2084, 1413.00
2085, 1413.00
2086, 1414.00
2087, 1415.00
2088, 1415.00
2089, 1416.00
2090, 1415.00
2091, 1415.00
2092, 1416.00
2093, 1416.00
2094, 1417.00
2095, 1418.00
2096, 1418.00
2097, 1419.00
2098, 1418.00
2099, 1418.00
2100, 1420.00
2101, 1417.00
2102, 1421.00
2103, 1420.00
2104, 1421.00
2105, 1420.00
2106, 1421.00
2107, 1421.00
2108, 1420.00
2109, 1422.00
2110, 1421.00
2111, 1424.00
2112, 1423.00
2113, 1422.00
2114, 1422.00
2115, 1422.00
2116, 1423.00
2117, 1422.00
2118, 1424.00
2119, 1424.00
2120, 1424.00
2121, 1425.00
2122, 1424.00
2123, 1426.00
2124, 1426.00
2125, 1427.00
2126, 1425.00
2127, 1427.00
2128, 1427.00
2129, 1426.00
2130, 1426.00
2131, 1429.00
2132, 1428.00
2133, 1427.00
2134, 1427.00
2135, 1429.00
2136, 1426.00
2137, 1428.00
2138, 1429.00
2139, 1431.00
2140, 1428.00
2141, 1428.00
2142, 1429.00
2143, 1430.00
2144, 1429.00
2145, 1430.00
2146, 1430.00
2147, 1428.00
2148, 1431.00
2149, 1430.00
2150, 1430.00
