FW version: 24
Log Version: 3.0.3

General Info:
       Command/Macro Performed,            Timestamp,             Device ID, COM Port, UART/I2C, Test Name, Host Major, Host Minor, Host Revision, Host Git Commit
            Single_measurement,  2023_07_11_12_03_40,       Insight2_F4_xxx,    USB-C,      USB,          ,          0,          1,             1,      4031237645

Show Spectrometer Status:
l0_version, f4_version, battery_perc, battery_mVolt, accelerometer_temp, accelerometer_x, accelerometer_y, accelerometer_z, compass_temp, compass_x, compass_y, compass_z, lamp_0, lamp_1, gain_0, gain_1
        17,         24,           53,          1919,               7008,           64652,            1412,           18760,            0,     65455,     65495,     18891,   2047,   2047,      1,      1

Temperature Statistic Info:
NTC AVG [°C], NTC2 AVG [°C]
      42.070,        41.774

Statistic Info:
M1:  num,      min,      max,   median,      AVG,      STD,M2:  num,      min,      max,   median,      AVG,      STD
     301,   753.00,   862.00,   778.00,   790.19,  35.0125,     401,  1132.00,  1199.00,  1166.00,  1166.21,  22.5892,

Measurements:
Wavelength, Data Amplitude
1350, 765.00
1351, 765.00
1352, 764.00
1353, 764.00
1354, 764.00
1355, 764.00
1356, 764.00
1357, 764.00
1358, 764.00
1359, 762.00
1360, 762.00
1361, 763.00
1362, 762.00
1363, 762.00
1364, 761.00
1365, 761.00
1366, 762.00
1367, 762.00
1368, 761.00
1369, 760.00
1370, 759.00
1371, 759.00
1372, 758.00
1373, 758.00
1374, 758.00
1375, 757.00
1376, 757.00
1377, 757.00
1378, 756.00
1379, 756.00
1380, 756.00
1381, 755.00
1382, 756.00
1383, 755.00
1384, 754.00
1385, 755.00
1386, 755.00
1387, 754.00
1388, 755.00
1389, 754.00
1390, 755.00
1391, 753.00
1392, 754.00
1393, 754.00
1394, 753.00
1395, 754.00
1396, 753.00
1397, 754.00
1398, 753.00
1399, 754.00
1400, 754.00
1401, 753.00
1402, 753.00
1403, 754.00
1404, 753.00
1405, 754.00
1406, 753.00
1407, 754.00
1408, 753.00
1409, 753.00
1410, 754.00
1411, 754.00
1412, 753.00
1413, 753.00
1414, 754.00
1415, 753.00
1416, 755.00
1417, 753.00
1418, 753.00
1419, 754.00
1420, 753.00
1421, 753.00
1422, 754.00
1423, 753.00
1424, 754.00
1425, 753.00
1426, 753.00
1427, 754.00
1428, 754.00
1429, 754.00
1430, 755.00
1431, 755.00
1432, 756.00
1433, 755.00
1434, 755.00
1435, 755.00
1436, 756.00
1437, 755.00
1438, 757.00
1439, 755.00
1440, 757.00
1441, 757.00
1442, 757.00
1443, 757.00
1444, 757.00
1445, 757.00
1446, 758.00
1447, 758.00
1448, 759.00
1449, 759.00
1450, 759.00
1451, 759.00
1452, 758.00
1453, 760.00
1454, 760.00
1455, 759.00
1456, 761.00
1457, 760.00
1458, 761.00
1459, 762.00
1460, 762.00
1461, 762.00
1462, 763.00
1463, 763.00
1464, 762.00
1465, 764.00
1466, 764.00
1467, 764.00
1468, 764.00
1469, 764.00
1470, 765.00
1471, 765.00
1472, 765.00
1473, 766.00
1474, 767.00
1475, 767.00
1476, 768.00
1477, 768.00
1478, 768.00
1479, 769.00
1480, 769.00
1481, 770.00
1482, 770.00
1483, 771.00
1484, 771.00
1485, 772.00
1486, 772.00
1487, 772.00
1488, 774.00
1489, 773.00
1490, 774.00
1491, 775.00
1492, 775.00
1493, 775.00
1494, 776.00
1495, 776.00
1496, 778.00
1497, 777.00
1498, 777.00
1499, 778.00
1500, 778.00
1501, 779.00
1502, 780.00
1503, 780.00
1504, 781.00
1505, 781.00
1506, 782.00
1507, 782.00
1508, 783.00
1509, 783.00
1510, 783.00
1511, 784.00
1512, 785.00
1513, 785.00
1514, 786.00
1515, 787.00
1516, 787.00
1517, 788.00
1518, 788.00
1519, 789.00
1520, 790.00
1521, 790.00
1522, 790.00
1523, 790.00
1524, 791.00
1525, 792.00
1526, 793.00
1527, 793.00
1528, 794.00
1529, 794.00
1530, 795.00
1531, 795.00
1532, 796.00
1533, 796.00
1534, 797.00
1535, 797.00
1536, 799.00
1537, 799.00
1538, 798.00
1539, 800.00
1540, 800.00
1541, 800.00
1542, 801.00
1543, 802.00
1544, 803.00
1545, 803.00
1546, 804.00
1547, 804.00
1548, 805.00
1549, 806.00
1550, 806.00
1551, 806.00
1552, 807.00
1553, 807.00
1554, 808.00
1555, 808.00
1556, 809.00
1557, 810.00
1558, 811.00
1559, 811.00
1560, 811.00
1561, 812.00
1562, 812.00
1563, 813.00
1564, 813.00
1565, 814.00
1566, 814.00
1567, 815.00
1568, 817.00
1569, 817.00
1570, 817.00
1571, 817.00
1572, 818.00
1573, 819.00
1574, 820.00
1575, 820.00
1576, 821.00
1577, 821.00
1578, 821.00
1579, 823.00
1580, 822.00
1581, 823.00
1582, 823.00
1583, 823.00
1584, 825.00
1585, 825.00
1586, 825.00
1587, 826.00
1588, 827.00
1589, 827.00
1590, 828.00
1591, 828.00
1592, 829.00
1593, 829.00
1594, 830.00
1595, 830.00
1596, 831.00
1597, 831.00
1598, 832.00
1599, 832.00
1600, 833.00
1601, 833.00
1602, 834.00
1603, 835.00
1604, 835.00
1605, 836.00
1606, 836.00
1607, 837.00
1608, 838.00
1609, 839.00
1610, 839.00
1611, 840.00
1612, 840.00
1613, 841.00
1614, 842.00
1615, 842.00
1616, 844.00
1617, 843.00
1618, 845.00
1619, 845.00
1620, 846.00
1621, 846.00
1622, 847.00
1623, 849.00
1624, 847.00
1625, 849.00
1626, 849.00
1627, 851.00
1628, 851.00
1629, 851.00
1630, 852.00
1631, 853.00
1632, 854.00
1633, 854.00
1634, 855.00
1635, 855.00
1636, 856.00
1637, 856.00
1638, 857.00
1639, 857.00
1640, 858.00
1641, 857.00
1642, 859.00
1643, 859.00
1644, 859.00
1645, 860.00
1646, 861.00
1647, 860.00
1648, 861.00
1649, 861.00
1650, 862.00

1750, 1198.00
1751, 1197.00
1752, 1197.00
1753, 1199.00
1754, 1198.00
1755, 1196.00
1756, 1198.00
1757, 1198.00
1758, 1198.00
1759, 1196.00
1760, 1198.00
1761, 1197.00
1762, 1198.00
1763, 1196.00
1764, 1195.00
1765, 1195.00
1766, 1196.00
1767, 1197.00
1768, 1199.00
1769, 1196.00
1770, 1196.00
1771, 1197.00
1772, 1195.00
1773, 1195.00
1774, 1197.00
1775, 1197.00
1776, 1197.00
1777, 1196.00
1778, 1194.00
1779, 1196.00
1780, 1195.00
1781, 1194.00
1782, 1194.00
1783, 1194.00
1784, 1194.00
1785, 1193.00
1786, 1194.00
1787, 1194.00
1788, 1192.00
1789, 1194.00
1790, 1192.00
1791, 1193.00
1792, 1192.00
1793, 1191.00
1794, 1190.00
1795, 1190.00
1796, 1190.00
1797, 1192.00
1798, 1191.00
1799, 1192.00
1800, 1192.00
1801, 1190.00
1802, 1191.00
1803, 1189.00
1804, 1191.00
1805, 1190.00
1806, 1191.00
1807, 1190.00
1808, 1189.00
1809, 1189.00
1810, 1190.00
1811, 1189.00
1812, 1188.00
1813, 1187.00
1814, 1187.00
1815, 1191.00
1816, 1188.00
1817, 1189.00
1818, 1186.00
1819, 1188.00
1820, 1187.00
1821, 1185.00
1822, 1185.00
1823, 1185.00
1824, 1185.00
1825, 1184.00
1826, 1183.00
1827, 1184.00
1828, 1186.00
1829, 1180.00
1830, 1181.00
1831, 1179.00
1832, 1182.00
1833, 1179.00
1834, 1180.00
1835, 1179.00
1836, 1178.00
1837, 1177.00
1838, 1177.00
1839, 1174.00
1840, 1174.00
1841, 1174.00
1842, 1174.00
1843, 1170.00
1844, 1170.00
1845, 1169.00
1846, 1168.00
1847, 1166.00
1848, 1167.00
1849, 1164.00
1850, 1162.00
1851, 1164.00
1852, 1162.00
1853, 1161.00
1854, 1160.00
1855, 1157.00
1856, 1157.00
1857, 1156.00
1858, 1156.00
1859, 1154.00
1860, 1152.00
1861, 1152.00
1862, 1152.00
1863, 1150.00
1864, 1150.00
1865, 1151.00
1866, 1150.00
1867, 1148.00
1868, 1148.00
1869, 1148.00
1870, 1147.00
1871, 1145.00
1872, 1144.00
1873, 1143.00
1874, 1143.00
1875, 1143.00
1876, 1142.00
1877, 1141.00
1878, 1141.00
1879, 1140.00
1880, 1140.00
1881, 1142.00
1882, 1141.00
1883, 1139.00
1884, 1141.00
1885, 1140.00
1886, 1137.00
1887, 1139.00
1888, 1139.00
1889, 1139.00
1890, 1137.00
1891, 1138.00
1892, 1139.00
1893, 1139.00
1894, 1136.00
1895, 1135.00
1896, 1136.00
1897, 1136.00
1898, 1136.00
1899, 1137.00
1900, 1134.00
1901, 1137.00
1902, 1135.00
1903, 1137.00
1904, 1136.00
1905, 1135.00
1906, 1136.00
1907, 1136.00
1908, 1133.00
1909, 1135.00
1910, 1134.00
1911, 1135.00
1912, 1135.00
1913, 1136.00
1914, 1136.00
1915, 1133.00
1916, 1133.00
1917, 1135.00
1918, 1134.00
1919, 1134.00
1920, 1136.00
1921, 1134.00
1922, 1132.00
1923, 1134.00
1924, 1134.00
1925, 1135.00
1926, 1133.00
1927, 1136.00
1928, 1133.00
1929, 1134.00
1930, 1133.00
1931, 1135.00
1932, 1136.00
1933, 1133.00
1934, 1136.00
1935, 1135.00
1936, 1136.00
1937, 1135.00
1938, 1136.00
1939, 1136.00
1940, 1136.00
1941, 1134.00
1942, 1136.00
1943, 1137.00
1944, 1137.00
1945, 1137.00
1946, 1138.00
1947, 1136.00
1948, 1136.00
1949, 1137.00
1950, 1137.00
1951, 1139.00
1952, 1138.00
1953, 1137.00
1954, 1138.00
1955, 1137.00
1956, 1138.00
1957, 1137.00
1958, 1139.00
1959, 1137.00
1960, 1140.00
1961, 1140.00
1962, 1141.00
1963, 1141.00
1964, 1140.00
1965, 1142.00
1966, 1142.00
1967, 1140.00
1968, 1141.00
1969, 1140.00
1970, 1142.00
1971, 1143.00
1972, 1143.00
1973, 1143.00
1974, 1143.00
1975, 1144.00
1976, 1143.00
1977, 1142.00
1978, 1144.00
1979, 1143.00
1980, 1145.00
1981, 1146.00
1982, 1145.00
1983, 1146.00
1984, 1147.00
1985, 1145.00
1986, 1147.00
1987, 1147.00
1988, 1148.00
1989, 1147.00
1990, 1148.00
1991, 1149.00
1992, 1150.00
1993, 1149.00
1994, 1150.00
1995, 1149.00
1996, 1149.00
1997, 1149.00
1998, 1152.00
1999, 1150.00
2000, 1151.00
2001, 1152.00
2002, 1151.00
2003, 1153.00
2004, 1153.00
2005, 1152.00
2006, 1152.00
2007, 1153.00
2008, 1156.00
2009, 1152.00
2010, 1154.00
2011, 1154.00
2012, 1154.00
2013, 1157.00
2014, 1155.00
2015, 1155.00
2016, 1156.00
2017, 1154.00
2018, 1156.00
2019, 1158.00
2020, 1156.00
2021, 1155.00
2022, 1156.00
2023, 1157.00
2024, 1158.00
2025, 1157.00
2026, 1159.00
2027, 1157.00
2028, 1159.00
2029, 1158.00
2030, 1160.00
2031, 1160.00
2032, 1159.00
2033, 1161.00
2034, 1161.00
2035, 1162.00
2036, 1162.00
2037, 1163.00
2038, 1162.00
2039, 1162.00
2040, 1163.00
2041, 1163.00
2042, 1164.00
2043, 1164.00
2044, 1164.00
2045, 1163.00
2046, 1166.00
2047, 1167.00
2048, 1167.00
2049, 1166.00
2050, 1167.00
2051, 1166.00
2052, 1168.00
2053, 1169.00
2054, 1167.00
2055, 1171.00
2056, 1169.00
2057, 1170.00
2058, 1170.00
2059, 1171.00
2060, 1172.00
2061, 1172.00
2062, 1172.00
2063, 1173.00
2064, 1173.00
2065, 1174.00
2066, 1175.00
2067, 1174.00
2068, 1175.00
2069, 1175.00
2070, 1174.00
2071, 1177.00
2072, 1177.00
2073, 1178.00
2074, 1179.00
2075, 1179.00
2076, 1177.00
2077, 1178.00
2078, 1179.00
2079, 1178.00
2080, 1182.00
2081, 1182.00
2082, 1181.00
2083, 1181.00
2084, 1182.00
2085, 1183.00
2086, 1183.00
2087, 1184.00
2088, 1184.00
2089, 1183.00
2090, 1185.00
2091, 1185.00
2092, 1186.00
2093, 1184.00
2094, 1184.00
2095, 1186.00
2096, 1186.00
2097, 1187.00
2098, 1187.00
2099, 1187.00
2100, 1187.00
2101, 1189.00
2102, 1187.00
2103, 1188.00
2104, 1188.00
2105, 1189.00
2106, 1188.00
2107, 1186.00
2108, 1187.00
2109, 1189.00
2110, 1189.00
2111, 1191.00
2112, 1190.00
2113, 1189.00
2114, 1191.00
2115, 1189.00
2116, 1190.00
2117, 1189.00
2118, 1190.00
2119, 1191.00
2120, 1191.00
2121, 1190.00
2122, 1191.00
2123, 1191.00
2124, 1192.00
2125, 1192.00
2126, 1192.00
2127, 1191.00
2128, 1193.00
2129, 1194.00
2130, 1191.00
2131, 1194.00
2132, 1195.00
2133, 1193.00
2134, 1193.00
2135, 1194.00
2136, 1194.00
2137, 1194.00
2138, 1195.00
2139, 1195.00
2140, 1194.00
2141, 1195.00
2142, 1196.00
2143, 1195.00
2144, 1196.00
2145, 1196.00
2146, 1196.00
2147, 1196.00
2148, 1196.00
2149, 1197.00
2150, 1196.00
