FW version: 24
Log Version: 3.0.3

General Info:
       Command/Macro Performed,            Timestamp,             Device ID, COM Port, UART/I2C, Test Name, Host Major, Host Minor, Host Revision, Host Git Commit
            Single_measurement,  2023_07_11_12_03_44,       Insight2_F4_xxx,    USB-C,      USB,          ,          0,          1,             1,      4031237645

Show Spectrometer Status:
l0_version, f4_version, battery_perc, battery_mVolt, accelerometer_temp, accelerometer_x, accelerometer_y, accelerometer_z, compass_temp, compass_x, compass_y, compass_z, lamp_0, lamp_1, gain_0, gain_1
        17,         24,           53,          1916,               6992,           64628,            1388,           18772,            0,     65407,     65407,     18806,   2047,   2047,      1,      1

Temperature Statistic Info:
NTC AVG [°C], NTC2 AVG [°C]
      42.070,        41.833

Statistic Info:
M1:  num,      min,      max,   median,      AVG,      STD,M2:  num,      min,      max,   median,      AVG,      STD
     301,   753.00,   862.00,   779.00,   790.35,  34.9665,     401,  1133.00,  1200.00,  1167.00,  1166.72,  22.5217,

Measurements:
Wavelength, Data Amplitude
1350, 766.00
1351, 765.00
1352, 765.00
1353, 765.00
1354, 765.00
1355, 765.00
1356, 764.00
1357, 764.00
1358, 765.00
1359, 763.00
1360, 763.00
1361, 763.00
1362, 763.00
1363, 762.00
1364, 762.00
1365, 762.00
1366, 761.00
1367, 760.00
1368, 759.00
1369, 760.00
1370, 759.00
1371, 758.00
1372, 758.00
1373, 758.00
1374, 757.00
1375, 758.00
1376, 757.00
1377, 757.00
1378, 756.00
1379, 757.00
1380, 756.00
1381, 756.00
1382, 756.00
1383, 755.00
1384, 756.00
1385, 755.00
1386, 754.00
1387, 754.00
1388, 755.00
1389, 754.00
1390, 755.00
1391, 755.00
1392, 754.00
1393, 755.00
1394, 754.00
1395, 754.00
1396, 754.00
1397, 754.00
1398, 754.00
1399, 753.00
1400, 753.00
1401, 753.00
1402, 754.00
1403, 753.00
1404, 754.00
1405, 754.00
1406, 753.00
1407, 753.00
1408, 754.00
1409, 753.00
1410, 753.00
1411, 753.00
1412, 754.00
1413, 754.00
1414, 754.00
1415, 754.00
1416, 753.00
1417, 754.00
1418, 753.00
1419, 754.00
1420, 754.00
1421, 753.00
1422, 753.00
1423, 754.00
1424, 754.00
1425, 755.00
1426, 754.00
1427, 754.00
1428, 754.00
1429, 755.00
1430, 755.00
1431, 755.00
1432, 755.00
1433, 755.00
1434, 756.00
1435, 756.00
1436, 757.00
1437, 755.00
1438, 757.00
1439, 756.00
1440, 756.00
1441, 757.00
1442, 757.00
1443, 757.00
1444, 757.00
1445, 758.00
1446, 758.00
1447, 758.00
1448, 758.00
1449, 758.00
1450, 759.00
1451, 759.00
1452, 759.00
1453, 760.00
1454, 759.00
1455, 760.00
1456, 760.00
1457, 760.00
1458, 761.00
1459, 763.00
1460, 762.00
1461, 762.00
1462, 762.00
1463, 763.00
1464, 764.00
1465, 763.00
1466, 763.00
1467, 763.00
1468, 765.00
1469, 766.00
1470, 766.00
1471, 766.00
1472, 766.00
1473, 766.00
1474, 767.00
1475, 768.00
1476, 768.00
1477, 768.00
1478, 769.00
1479, 769.00
1480, 769.00
1481, 770.00
1482, 771.00
1483, 771.00
1484, 772.00
1485, 772.00
1486, 773.00
1487, 773.00
1488, 773.00
1489, 774.00
1490, 774.00
1491, 775.00
1492, 775.00
1493, 775.00
1494, 776.00
1495, 777.00
1496, 777.00
1497, 777.00
1498, 778.00
1499, 778.00
1500, 779.00
1501, 780.00
1502, 780.00
1503, 781.00
1504, 781.00
1505, 781.00
1506, 782.00
1507, 783.00
1508, 784.00
1509, 784.00
1510, 785.00
1511, 785.00
1512, 785.00
1513, 786.00
1514, 786.00
1515, 786.00
1516, 787.00
1517, 788.00
1518, 787.00
1519, 788.00
1520, 789.00
1521, 789.00
1522, 791.00
1523, 791.00
1524, 792.00
1525, 792.00
1526, 793.00
1527, 793.00
1528, 793.00
1529, 795.00
1530, 794.00
1531, 795.00
1532, 797.00
1533, 796.00
1534, 797.00
1535, 798.00
1536, 797.00
1537, 799.00
1538, 799.00
1539, 799.00
1540, 800.00
1541, 801.00
1542, 802.00
1543, 802.00
1544, 802.00
1545, 803.00
1546, 804.00
1547, 804.00
1548, 804.00
1549, 805.00
1550, 806.00
1551, 806.00
1552, 806.00
1553, 808.00
1554, 809.00
1555, 808.00
1556, 809.00
1557, 809.00
1558, 811.00
1559, 810.00
1560, 812.00
1561, 812.00
1562, 812.00
1563, 813.00
1564, 814.00
1565, 814.00
1566, 815.00
1567, 815.00
1568, 817.00
1569, 816.00
1570, 817.00
1571, 817.00
1572, 819.00
1573, 819.00
1574, 819.00
1575, 820.00
1576, 820.00
1577, 821.00
1578, 822.00
1579, 822.00
1580, 823.00
1581, 823.00
1582, 824.00
1583, 824.00
1584, 824.00
1585, 826.00
1586, 826.00
1587, 826.00
1588, 827.00
1589, 827.00
1590, 827.00
1591, 829.00
1592, 828.00
1593, 830.00
1594, 829.00
1595, 830.00
1596, 831.00
1597, 831.00
1598, 832.00
1599, 832.00
1600, 833.00
1601, 835.00
1602, 834.00
1603, 835.00
1604, 835.00
1605, 836.00
1606, 837.00
1607, 837.00
1608, 837.00
1609, 838.00
1610, 840.00
1611, 840.00
1612, 840.00
1613, 842.00
1614, 842.00
1615, 843.00
1616, 843.00
1617, 844.00
1618, 845.00
1619, 845.00
1620, 846.00
1621, 846.00
1622, 847.00
1623, 847.00
1624, 848.00
1625, 850.00
1626, 849.00
1627, 851.00
1628, 851.00
1629, 851.00
1630, 853.00
1631, 853.00
1632, 854.00
1633, 854.00
1634, 855.00
1635, 855.00
1636, 855.00
1637, 856.00
1638, 856.00
1639, 858.00
1640, 858.00
1641, 858.00
1642, 858.00
1643, 859.00
1644, 859.00
1645, 861.00
1646, 861.00
1647, 860.00
1648, 862.00
1649, 862.00
1650, 862.00

1750, 1198.00
1751, 1197.00
1752, 1199.00
1753, 1198.00
1754, 1197.00
1755, 1199.00
1756, 1199.00
1757, 1200.00
1758, 1197.00
1759, 1197.00
1760, 1198.00
1761, 1198.00
1762, 1199.00
1763, 1198.00
1764, 1198.00
1765, 1198.00
1766, 1198.00
1767, 1198.00
1768, 1198.00
1769, 1198.00
1770, 1199.00
1771, 1195.00
1772, 1196.00
1773, 1195.00
1774, 1195.00
1775, 1197.00
1776, 1199.00
1777, 1195.00
1778, 1196.00
1779, 1197.00
1780, 1195.00
1781, 1197.00
1782, 1194.00
1783, 1194.00
1784, 1193.00
1785, 1194.00
1786, 1193.00
1787, 1194.00
1788, 1195.00
1789, 1194.00
1790, 1192.00
1791, 1192.00
1792, 1191.00
1793, 1192.00
1794, 1194.00
1795, 1193.00
1796, 1190.00
1797, 1192.00
1798, 1191.00
1799, 1190.00
1800, 1191.00
1801, 1190.00
1802, 1191.00
1803, 1188.00
1804, 1189.00
1805, 1190.00
1806, 1189.00
1807, 1191.00
1808, 1190.00
1809, 1186.00
1810, 1189.00
1811, 1190.00
1812, 1188.00
1813, 1190.00
1814, 1189.00
1815, 1187.00
1816, 1187.00
1817, 1186.00
1818, 1189.00
1819, 1187.00
1820, 1186.00
1821, 1187.00
1822, 1187.00
1823, 1186.00
1824, 1186.00
1825, 1185.00
1826, 1185.00
1827, 1185.00
1828, 1182.00
1829, 1183.00
1830, 1184.00
1831, 1181.00
1832, 1180.00
1833, 1179.00
1834, 1181.00
1835, 1178.00
1836, 1176.00
1837, 1176.00
1838, 1178.00
1839, 1176.00
1840, 1173.00
1841, 1175.00
1842, 1173.00
1843, 1170.00
1844, 1172.00
1845, 1170.00
1846, 1168.00
1847, 1168.00
1848, 1167.00
1849, 1164.00
1850, 1165.00
1851, 1163.00
1852, 1163.00
1853, 1161.00
1854, 1160.00
1855, 1158.00
1856, 1157.00
1857, 1158.00
1858, 1155.00
1859, 1156.00
1860, 1155.00
1861, 1153.00
1862, 1153.00
1863, 1151.00
1864, 1150.00
1865, 1150.00
1866, 1148.00
1867, 1147.00
1868, 1150.00
1869, 1146.00
1870, 1147.00
1871, 1145.00
1872, 1145.00
1873, 1146.00
1874, 1145.00
1875, 1144.00
1876, 1144.00
1877, 1143.00
1878, 1141.00
1879, 1141.00
1880, 1141.00
1881, 1141.00
1882, 1140.00
1883, 1140.00
1884, 1139.00
1885, 1141.00
1886, 1140.00
1887, 1138.00
1888, 1140.00
1889, 1138.00
1890, 1138.00
1891, 1141.00
1892, 1138.00
1893, 1137.00
1894, 1137.00
1895, 1138.00
1896, 1138.00
1897, 1138.00
1898, 1138.00
1899, 1135.00
1900, 1138.00
1901, 1136.00
1902, 1139.00
1903, 1135.00
1904, 1136.00
1905, 1137.00
1906, 1137.00
1907, 1137.00
1908, 1136.00
1909, 1136.00
1910, 1136.00
1911, 1135.00
1912, 1135.00
1913, 1135.00
1914, 1134.00
1915, 1133.00
1916, 1137.00
1917, 1133.00
1918, 1135.00
1919, 1134.00
1920, 1135.00
1921, 1135.00
1922, 1135.00
1923, 1134.00
1924, 1134.00
1925, 1133.00
1926, 1134.00
1927, 1136.00
1928, 1135.00
1929, 1137.00
1930, 1134.00
1931, 1136.00
1932, 1136.00
1933, 1134.00
1934, 1137.00
1935, 1136.00
1936, 1138.00
1937, 1137.00
1938, 1137.00
1939, 1137.00
1940, 1137.00
1941, 1135.00
1942, 1136.00
1943, 1137.00
1944, 1136.00
1945, 1138.00
1946, 1137.00
1947, 1134.00
1948, 1138.00
1949, 1137.00
1950, 1138.00
1951, 1137.00
1952, 1139.00
1953, 1138.00
1954, 1139.00
1955, 1139.00
1956, 1139.00
1957, 1141.00
1958, 1140.00
1959, 1140.00
1960, 1141.00
1961, 1141.00
1962, 1140.00
1963, 1139.00
1964, 1141.00
1965, 1141.00
1966, 1142.00
1967, 1141.00
1968, 1141.00
1969, 1141.00
1970, 1142.00
1971, 1144.00
1972, 1144.00
1973, 1142.00
1974, 1144.00
1975, 1143.00
1976, 1143.00
1977, 1145.00
1978, 1144.00
1979, 1146.00
1980, 1146.00
1981, 1144.00
1982, 1145.00
1983, 1146.00
1984, 1145.00
1985, 1147.00
1986, 1148.00
1987, 1147.00
1988, 1148.00
1989, 1148.00
1990, 1149.00
1991, 1148.00
1992, 1148.00
1993, 1150.00
1994, 1149.00
1995, 1149.00
1996, 1150.00
1997, 1150.00
1998, 1152.00
1999, 1152.00
2000, 1152.00
2001, 1152.00
2002, 1152.00
2003, 1152.00
2004, 1153.00
2005, 1154.00
2006, 1153.00
2007, 1154.00
2008, 1155.00
2009, 1152.00
2010, 1154.00
2011, 1155.00
2012, 1155.00
2013, 1155.00
2014, 1156.00
2015, 1155.00
2016, 1155.00
2017, 1154.00
2018, 1155.00
2019, 1156.00
2020, 1155.00
2021, 1158.00
2022, 1159.00
2023, 1157.00
2024, 1158.00
2025, 1158.00
2026, 1159.00
2027, 1158.00
2028, 1160.00
2029, 1160.00
2030, 1159.00
2031, 1162.00
2032, 1160.00
2033, 1162.00
2034, 1161.00
2035, 1161.00
2036, 1160.00
2037, 1165.00
2038, 1161.00
2039, 1164.00
2040, 1165.00
2041, 1163.00
2042, 1165.00
2043, 1166.00
2044, 1165.00
2045, 1166.00
2046, 1165.00
2047, 1166.00
2048, 1167.00
2049, 1166.00
2050, 1167.00
2051, 1169.00
2052, 1169.00
2053, 1171.00
2054, 1170.00
2055, 1172.00
2056, 1169.00
2057, 1172.00
2058, 1172.00
2059, 1174.00
2060, 1171.00
2061, 1170.00
2062, 1173.00
2063, 1175.00
2064, 1172.00
2065, 1174.00
2066, 1177.00
2067, 1176.00
2068, 1176.00
2069, 1176.00
2070, 1177.00
2071, 1177.00
2072, 1177.00
2073, 1180.00
2074, 1177.00
2075, 1177.00
2076, 1179.00
2077, 1180.00
2078, 1180.00
2079, 1180.00
2080, 1180.00
2081, 1183.00
2082, 1181.00
2083, 1181.00
2084, 1182.00
2085, 1182.00
2086, 1182.00
2087, 1184.00
2088, 1185.00
2089, 1185.00
2090, 1185.00
2091, 1184.00
2092, 1185.00
2093, 1185.00
2094, 1186.00
2095, 1185.00
2096, 1185.00
2097, 1187.00
2098, 1187.00
2099, 1187.00
2100, 1188.00
2101, 1187.00
2102, 1186.00
2103, 1188.00
2104, 1189.00
2105, 1187.00
2106, 1188.00
2107, 1189.00
2108, 1190.00
2109, 1191.00
2110, 1191.00
2111, 1189.00
2112, 1190.00
2113, 1191.00
2114, 1191.00
2115, 1191.00
2116, 1190.00
2117, 1190.00
2118, 1191.00
2119, 1193.00
2120, 1190.00
2121, 1191.00
2122, 1193.00
2123, 1191.00
2124, 1191.00
2125, 1192.00
2126, 1193.00
2127, 1194.00
2128, 1192.00
2129, 1195.00
2130, 1195.00
2131, 1193.00
2132, 1195.00
2133, 1194.00
2134, 1194.00
2135, 1194.00
2136, 1194.00
2137, 1193.00
2138, 1194.00
2139, 1195.00
2140, 1193.00
2141, 1195.00
2142, 1196.00
2143, 1197.00
2144, 1196.00
2145, 1197.00
2146, 1197.00
2147, 1197.00
2148, 1196.00
2149, 1196.00
2150, 1196.00
