FW version: 24
Log Version: 3.0.3

General Info:
       Command/Macro Performed,            Timestamp,             Device ID, COM Port, UART/I2C, Test Name, Host Major, Host Minor, Host Revision, Host Git Commit
            Single_measurement,  2023_07_11_12_04_46,       Insight2_F4_xxx,    USB-C,      USB,          ,          0,          1,             1,      4031237645

Show Spectrometer Status:
l0_version, f4_version, battery_perc, battery_mVolt, accelerometer_temp, accelerometer_x, accelerometer_y, accelerometer_z, compass_temp, compass_x, compass_y, compass_z, lamp_0, lamp_1, gain_0, gain_1
        17,         24,           53,          1915,               7040,           64596,            1436,           18856,            0,     65375,     65501,     18942,   3276,   3276,      1,      1

Temperature Statistic Info:
NTC AVG [°C], NTC2 AVG [°C]
      42.524,        42.192

Statistic Info:
M1:  num,      min,      max,   median,      AVG,      STD,M2:  num,      min,      max,   median,      AVG,      STD
     301,  1885.00,  2137.00,  1940.00,  1968.49,  78.1158,     401,  2497.00,  2641.00,  2564.00,  2564.43,  48.1383,

Measurements:
Wavelength, Data Amplitude
1350, 1924.00
1351, 1922.00
1352, 1921.00
1353, 1921.00
1354, 1920.00
1355, 1919.00
1356, 1919.00
1357, 1917.00
1358, 1917.00
1359, 1918.00
1360, 1916.00
1361, 1915.00
1362, 1914.00
1363, 1913.00
1364, 1911.00
1365, 1911.00
1366, 1909.00
1367, 1908.00
1368, 1907.00
1369, 1906.00
1370, 1907.00
1371, 1905.00
1372, 1903.00
1373, 1902.00
1374, 1901.00
1375, 1900.00
1376, 1899.00
1377, 1899.00
1378, 1897.00
1379, 1897.00
1380, 1896.00
1381, 1896.00
1382, 1896.00
1383, 1894.00
1384, 1894.00
1385, 1893.00
1386, 1893.00
1387, 1892.00
1388, 1891.00
1389, 1892.00
1390, 1891.00
1391, 1891.00
1392, 1890.00
1393, 1890.00
1394, 1890.00
1395, 1890.00
1396, 1889.00
1397, 1889.00
1398, 1889.00
1399, 1889.00
1400, 1889.00
1401, 1887.00
1402, 1887.00
1403, 1887.00
1404, 1887.00
1405, 1888.00
1406, 1887.00
1407, 1886.00
1408, 1886.00
1409, 1888.00
1410, 1886.00
1411, 1887.00
1412, 1885.00
1413, 1886.00
1414, 1886.00
1415, 1887.00
1416, 1886.00
1417, 1887.00
1418, 1887.00
1419, 1887.00
1420, 1887.00
1421, 1887.00
1422, 1886.00
1423, 1886.00
1424, 1887.00
1425, 1887.00
1426, 1887.00
1427, 1889.00
1428, 1887.00
1429, 1888.00
1430, 1889.00
1431, 1889.00
1432, 1889.00
1433, 1890.00
1434, 1891.00
1435, 1890.00
1436, 1891.00
1437, 1891.00
1438, 1891.00
1439, 1893.00
1440, 1892.00
1441, 1893.00
1442, 1892.00
1443, 1895.00
1444, 1894.00
1445, 1894.00
1446, 1895.00
1447, 1896.00
1448, 1896.00
1449, 1897.00
1450, 1897.00
1451, 1898.00
1452, 1898.00
1453, 1899.00
1454, 1899.00
1455, 1901.00
1456, 1901.00
1457, 1901.00
1458, 1902.00
1459, 1903.00
1460, 1903.00
1461, 1904.00
1462, 1905.00
1463, 1905.00
1464, 1904.00
1465, 1907.00
1466, 1907.00
1467, 1908.00
1468, 1909.00
1469, 1910.00
1470, 1911.00
1471, 1912.00
1472, 1913.00
1473, 1914.00
1474, 1915.00
1475, 1915.00
1476, 1917.00
1477, 1917.00
1478, 1919.00
1479, 1919.00
1480, 1921.00
1481, 1921.00
1482, 1922.00
1483, 1921.00
1484, 1924.00
1485, 1924.00
1486, 1925.00
1487, 1928.00
1488, 1928.00
1489, 1929.00
1490, 1929.00
1491, 1932.00
1492, 1932.00
1493, 1933.00
1494, 1933.00
1495, 1934.00
1496, 1936.00
1497, 1937.00
1498, 1938.00
1499, 1938.00
1500, 1940.00
1501, 1940.00
1502, 1943.00
1503, 1943.00
1504, 1944.00
1505, 1945.00
1506, 1946.00
1507, 1946.00
1508, 1948.00
1509, 1950.00
1510, 1950.00
1511, 1952.00
1512, 1952.00
1513, 1954.00
1514, 1955.00
1515, 1955.00
1516, 1958.00
1517, 1958.00
1518, 1960.00
1519, 1961.00
1520, 1962.00
1521, 1963.00
1522, 1964.00
1523, 1966.00
1524, 1966.00
1525, 1966.00
1526, 1969.00
1527, 1971.00
1528, 1971.00
1529, 1973.00
1530, 1974.00
1531, 1975.00
1532, 1976.00
1533, 1977.00
1534, 1979.00
1535, 1979.00
1536, 1982.00
1537, 1983.00
1538, 1983.00
1539, 1985.00
1540, 1986.00
1541, 1988.00
1542, 1989.00
1543, 1990.00
1544, 1992.00
1545, 1992.00
1546, 1994.00
1547, 1994.00
1548, 1996.00
1549, 1997.00
1550, 1999.00
1551, 2000.00
1552, 2001.00
1553, 2003.00
1554, 2005.00
1555, 2005.00
1556, 2006.00
1557, 2008.00
1558, 2009.00
1559, 2012.00
1560, 2012.00
1561, 2015.00
1562, 2015.00
1563, 2017.00
1564, 2018.00
1565, 2020.00
1566, 2021.00
1567, 2022.00
1568, 2023.00
1569, 2026.00
1570, 2028.00
1571, 2027.00
1572, 2029.00
1573, 2031.00
1574, 2032.00
1575, 2033.00
1576, 2034.00
1577, 2036.00
1578, 2036.00
1579, 2038.00
1580, 2039.00
1581, 2040.00
1582, 2042.00
1583, 2043.00
1584, 2044.00
1585, 2045.00
1586, 2047.00
1587, 2048.00
1588, 2049.00
1589, 2051.00
1590, 2051.00
1591, 2054.00
1592, 2055.00
1593, 2056.00
1594, 2056.00
1595, 2059.00
1596, 2059.00
1597, 2060.00
1598, 2062.00
1599, 2063.00
1600, 2064.00
1601, 2066.00
1602, 2066.00
1603, 2068.00
1604, 2070.00
1605, 2072.00
1606, 2072.00
1607, 2074.00
1608, 2075.00
1609, 2077.00
1610, 2079.00
1611, 2080.00
1612, 2082.00
1613, 2083.00
1614, 2085.00
1615, 2086.00
1616, 2087.00
1617, 2090.00
1618, 2091.00
1619, 2092.00
1620, 2094.00
1621, 2096.00
1622, 2097.00
1623, 2098.00
1624, 2100.00
1625, 2102.00
1626, 2104.00
1627, 2105.00
1628, 2106.00
1629, 2108.00
1630, 2109.00
1631, 2111.00
1632, 2113.00
1633, 2113.00
1634, 2115.00
1635, 2117.00
1636, 2117.00
1637, 2119.00
1638, 2121.00
1639, 2121.00
1640, 2123.00
1641, 2124.00
1642, 2125.00
1643, 2126.00
1644, 2127.00
1645, 2129.00
1646, 2130.00
1647, 2131.00
1648, 2132.00
1649, 2133.00
1650, 2137.00

1750, 2638.00
1751, 2639.00
1752, 2640.00
1753, 2639.00
1754, 2641.00
1755, 2639.00
1756, 2640.00
1757, 2639.00
1758, 2641.00
1759, 2640.00
1760, 2637.00
1761, 2640.00
1762, 2639.00
1763, 2638.00
1764, 2640.00
1765, 2639.00
1766, 2637.00
1767, 2639.00
1768, 2634.00
1769, 2635.00
1770, 2637.00
1771, 2635.00
1772, 2634.00
1773, 2635.00
1774, 2634.00
1775, 2634.00
1776, 2632.00
1777, 2634.00
1778, 2633.00
1779, 2634.00
1780, 2633.00
1781, 2631.00
1782, 2629.00
1783, 2632.00
1784, 2631.00
1785, 2629.00
1786, 2630.00
1787, 2628.00
1788, 2627.00
1789, 2628.00
1790, 2627.00
1791, 2626.00
1792, 2626.00
1793, 2625.00
1794, 2627.00
1795, 2624.00
1796, 2624.00
1797, 2624.00
1798, 2621.00
1799, 2624.00
1800, 2620.00
1801, 2622.00
1802, 2621.00
1803, 2620.00
1804, 2619.00
1805, 2619.00
1806, 2620.00
1807, 2619.00
1808, 2618.00
1809, 2618.00
1810, 2619.00
1811, 2617.00
1812, 2614.00
1813, 2616.00
1814, 2614.00
1815, 2616.00
1816, 2615.00
1817, 2613.00
1818, 2612.00
1819, 2613.00
1820, 2612.00
1821, 2611.00
1822, 2610.00
1823, 2608.00
1824, 2607.00
1825, 2606.00
1826, 2606.00
1827, 2604.00
1828, 2605.00
1829, 2601.00
1830, 2601.00
1831, 2600.00
1832, 2600.00
1833, 2597.00
1834, 2595.00
1835, 2593.00
1836, 2590.00
1837, 2590.00
1838, 2585.00
1839, 2587.00
1840, 2585.00
1841, 2582.00
1842, 2578.00
1843, 2578.00
1844, 2575.00
1845, 2574.00
1846, 2571.00
1847, 2566.00
1848, 2567.00
1849, 2565.00
1850, 2561.00
1851, 2560.00
1852, 2556.00
1853, 2556.00
1854, 2550.00
1855, 2550.00
1856, 2549.00
1857, 2547.00
1858, 2543.00
1859, 2542.00
1860, 2540.00
1861, 2536.00
1862, 2536.00
1863, 2536.00
1864, 2532.00
1865, 2530.00
1866, 2531.00
1867, 2526.00
1868, 2526.00
1869, 2524.00
1870, 2525.00
1871, 2522.00
1872, 2522.00
1873, 2519.00
1874, 2518.00
1875, 2518.00
1876, 2514.00
1877, 2515.00
1878, 2513.00
1879, 2513.00
1880, 2511.00
1881, 2514.00
1882, 2510.00
1883, 2508.00
1884, 2508.00
1885, 2509.00
1886, 2509.00
1887, 2507.00
1888, 2506.00
1889, 2507.00
1890, 2504.00
1891, 2503.00
1892, 2504.00
1893, 2502.00
1894, 2503.00
1895, 2504.00
1896, 2504.00
1897, 2502.00
1898, 2501.00
1899, 2501.00
1900, 2501.00
1901, 2503.00
1902, 2501.00
1903, 2501.00
1904, 2501.00
1905, 2499.00
1906, 2499.00
1907, 2498.00
1908, 2500.00
1909, 2501.00
1910, 2497.00
1911, 2497.00
1912, 2499.00
1913, 2499.00
1914, 2499.00
1915, 2499.00
1916, 2499.00
1917, 2499.00
1918, 2497.00
1919, 2498.00
1920, 2498.00
1921, 2497.00
1922, 2499.00
1923, 2500.00
1924, 2498.00
1925, 2498.00
1926, 2500.00
1927, 2497.00
1928, 2499.00
1929, 2499.00
1930, 2498.00
1931, 2497.00
1932, 2499.00
1933, 2500.00
1934, 2500.00
1935, 2498.00
1936, 2500.00
1937, 2498.00
1938, 2500.00
1939, 2499.00
1940, 2500.00
1941, 2501.00
1942, 2498.00
1943, 2501.00
1944, 2501.00
1945, 2501.00
1946, 2501.00
1947, 2503.00
1948, 2504.00
1949, 2501.00
1950, 2503.00
1951, 2503.00
1952, 2504.00
1953, 2504.00
1954, 2502.00
1955, 2503.00
1956, 2504.00
1957, 2505.00
1958, 2505.00
1959, 2506.00
1960, 2507.00
1961, 2509.00
1962, 2509.00
1963, 2507.00
1964, 2510.00
1965, 2510.00
1966, 2511.00
1967, 2511.00
1968, 2512.00
1969, 2512.00
1970, 2512.00
1971, 2513.00
1972, 2513.00
1973, 2514.00
1974, 2515.00
1975, 2517.00
1976, 2517.00
1977, 2517.00
1978, 2514.00
1979, 2517.00
1980, 2519.00
1981, 2519.00
1982, 2519.00
1983, 2520.00
1984, 2522.00
1985, 2522.00
1986, 2521.00
1987, 2523.00
1988, 2521.00
1989, 2525.00
1990, 2525.00
1991, 2526.00
1992, 2526.00
1993, 2528.00
1994, 2526.00
1995, 2528.00
1996, 2530.00
1997, 2530.00
1998, 2529.00
1999, 2529.00
2000, 2531.00
2001, 2530.00
2002, 2531.00
2003, 2533.00
2004, 2533.00
2005, 2533.00
2006, 2535.00
2007, 2535.00
2008, 2536.00
2009, 2535.00
2010, 2539.00
2011, 2537.00
2012, 2537.00
2013, 2537.00
2014, 2538.00
2015, 2539.00
2016, 2543.00
2017, 2541.00
2018, 2541.00
2019, 2539.00
2020, 2542.00
2021, 2543.00
2022, 2544.00
2023, 2545.00
2024, 2545.00
2025, 2546.00
2026, 2547.00
2027, 2545.00
2028, 2549.00
2029, 2547.00
2030, 2547.00
2031, 2547.00
2032, 2551.00
2033, 2552.00
2034, 2550.00
2035, 2553.00
2036, 2552.00
2037, 2554.00
2038, 2553.00
2039, 2554.00
2040, 2554.00
2041, 2555.00
2042, 2556.00
2043, 2557.00
2044, 2558.00
2045, 2558.00
2046, 2561.00
2047, 2561.00
2048, 2563.00
2049, 2563.00
2050, 2564.00
2051, 2565.00
2052, 2565.00
2053, 2565.00
2054, 2567.00
2055, 2569.00
2056, 2569.00
2057, 2569.00
2058, 2572.00
2059, 2570.00
2060, 2572.00
2061, 2575.00
2062, 2574.00
2063, 2577.00
2064, 2577.00
2065, 2578.00
2066, 2577.00
2067, 2578.00
2068, 2581.00
2069, 2581.00
2070, 2580.00
2071, 2584.00
2072, 2582.00
2073, 2585.00
2074, 2585.00
2075, 2584.00
2076, 2585.00
2077, 2587.00
2078, 2589.00
2079, 2592.00
2080, 2589.00
2081, 2590.00
2082, 2592.00
2083, 2591.00
2084, 2592.00
2085, 2594.00
2086, 2594.00
2087, 2593.00
2088, 2595.00
2089, 2597.00
2090, 2598.00
2091, 2596.00
2092, 2596.00
2093, 2599.00
2094, 2601.00
2095, 2602.00
2096, 2600.00
2097, 2601.00
2098, 2602.00
2099, 2603.00
2100, 2602.00
2101, 2603.00
2102, 2605.00
2103, 2605.00
2104, 2602.00
2105, 2605.00
2106, 2605.00
2107, 2605.00
2108, 2605.00
2109, 2605.00
2110, 2608.00
2111, 2608.00
2112, 2607.00
2113, 2605.00
2114, 2607.00
2115, 2609.00
2116, 2608.00
2117, 2610.00
2118, 2609.00
2119, 2613.00
2120, 2611.00
2121, 2611.00
2122, 2611.00
2123, 2610.00
2124, 2613.00
2125, 2610.00
2126, 2613.00
2127, 2614.00
2128, 2613.00
2129, 2613.00
2130, 2615.00
2131, 2615.00
2132, 2615.00
2133, 2615.00
2134, 2615.00
2135, 2617.00
2136, 2615.00
2137, 2617.00
2138, 2616.00
2139, 2619.00
2140, 2617.00
2141, 2618.00
2142, 2617.00
2143, 2617.00
2144, 2620.00
2145, 2618.00
2146, 2619.00
2147, 2619.00
2148, 2620.00
2149, 2621.00
2150, 2619.00
