FW version: 24
Log Version: 3.0.3

General Info:
       Command/Macro Performed,            Timestamp,             Device ID, COM Port, UART/I2C, Test Name, Host Major, Host Minor, Host Revision, Host Git Commit
            Single_measurement,  2023_07_11_12_04_42,       Insight2_F4_xxx,    USB-C,      USB,          ,          0,          1,             1,      4031237645

Show Spectrometer Status:
l0_version, f4_version, battery_perc, battery_mVolt, accelerometer_temp, accelerometer_x, accelerometer_y, accelerometer_z, compass_temp, compass_x, compass_y, compass_z, lamp_0, lamp_1, gain_0, gain_1
        17,         24,           53,          1916,               7040,           64652,            1412,           18832,            0,     65453,     65492,     18941,   3276,   3276,      1,      1

Temperature Statistic Info:
NTC AVG [°C], NTC2 AVG [°C]
      42.494,        42.101

Statistic Info:
M1:  num,      min,      max,   median,      AVG,      STD,M2:  num,      min,      max,   median,      AVG,      STD
     301,  1886.00,  2137.00,  1940.00,  1968.91,  78.1203,     401,  2497.00,  2643.00,  2564.00,  2565.27,  48.0860,

Measurements:
Wavelength, Data Amplitude
1350, 1924.00
1351, 1923.00
1352, 1922.00
1353, 1922.00
1354, 1920.00
1355, 1920.00
1356, 1919.00
1357, 1919.00
1358, 1917.00
1359, 1916.00
1360, 1917.00
1361, 1915.00
1362, 1914.00
1363, 1915.00
1364, 1911.00
1365, 1910.00
1366, 1909.00
1367, 1909.00
1368, 1909.00
1369, 1907.00
1370, 1907.00
1371, 1904.00
1372, 1905.00
1373, 1903.00
1374, 1903.00
1375, 1902.00
1376, 1900.00
1377, 1900.00
1378, 1898.00
1379, 1898.00
1380, 1897.00
1381, 1897.00
1382, 1895.00
1383, 1893.00
1384, 1894.00
1385, 1894.00
1386, 1894.00
1387, 1892.00
1388, 1892.00
1389, 1892.00
1390, 1891.00
1391, 1892.00
1392, 1890.00
1393, 1890.00
1394, 1890.00
1395, 1889.00
1396, 1888.00
1397, 1889.00
1398, 1889.00
1399, 1889.00
1400, 1888.00
1401, 1889.00
1402, 1889.00
1403, 1887.00
1404, 1888.00
1405, 1887.00
1406, 1888.00
1407, 1888.00
1408, 1886.00
1409, 1889.00
1410, 1888.00
1411, 1887.00
1412, 1887.00
1413, 1887.00
1414, 1887.00
1415, 1887.00
1416, 1887.00
1417, 1887.00
1418, 1888.00
1419, 1887.00
1420, 1889.00
1421, 1887.00
1422, 1888.00
1423, 1888.00
1424, 1887.00
1425, 1888.00
1426, 1888.00
1427, 1888.00
1428, 1889.00
1429, 1889.00
1430, 1889.00
1431, 1889.00
1432, 1890.00
1433, 1890.00
1434, 1890.00
1435, 1891.00
1436, 1891.00
1437, 1893.00
1438, 1892.00
1439, 1892.00
1440, 1892.00
1441, 1893.00
1442, 1893.00
1443, 1894.00
1444, 1895.00
1445, 1894.00
1446, 1895.00
1447, 1896.00
1448, 1897.00
1449, 1896.00
1450, 1897.00
1451, 1897.00
1452, 1899.00
1453, 1899.00
1454, 1900.00
1455, 1900.00
1456, 1900.00
1457, 1902.00
1458, 1903.00
1459, 1903.00
1460, 1903.00
1461, 1905.00
1462, 1904.00
1463, 1905.00
1464, 1907.00
1465, 1906.00
1466, 1907.00
1467, 1909.00
1468, 1909.00
1469, 1910.00
1470, 1912.00
1471, 1912.00
1472, 1913.00
1473, 1914.00
1474, 1914.00
1475, 1915.00
1476, 1915.00
1477, 1918.00
1478, 1919.00
1479, 1919.00
1480, 1919.00
1481, 1922.00
1482, 1922.00
1483, 1923.00
1484, 1925.00
1485, 1925.00
1486, 1925.00
1487, 1928.00
1488, 1928.00
1489, 1929.00
1490, 1930.00
1491, 1931.00
1492, 1932.00
1493, 1934.00
1494, 1935.00
1495, 1935.00
1496, 1937.00
1497, 1938.00
1498, 1939.00
1499, 1940.00
1500, 1940.00
1501, 1942.00
1502, 1943.00
1503, 1944.00
1504, 1945.00
1505, 1945.00
1506, 1946.00
1507, 1947.00
1508, 1948.00
1509, 1950.00
1510, 1950.00
1511, 1953.00
1512, 1953.00
1513, 1954.00
1514, 1955.00
1515, 1956.00
1516, 1957.00
1517, 1958.00
1518, 1961.00
1519, 1961.00
1520, 1962.00
1521, 1963.00
1522, 1965.00
1523, 1966.00
1524, 1967.00
1525, 1969.00
1526, 1969.00
1527, 1971.00
1528, 1972.00
1529, 1973.00
1530, 1974.00
1531, 1976.00
1532, 1977.00
1533, 1976.00
1534, 1979.00
1535, 1980.00
1536, 1982.00
1537, 1983.00
1538, 1984.00
1539, 1986.00
1540, 1987.00
1541, 1988.00
1542, 1989.00
1543, 1990.00
1544, 1991.00
1545, 1993.00
1546, 1994.00
1547, 1995.00
1548, 1997.00
1549, 1998.00
1550, 1999.00
1551, 2000.00
1552, 2003.00
1553, 2003.00
1554, 2004.00
1555, 2005.00
1556, 2007.00
1557, 2009.00
1558, 2010.00
1559, 2012.00
1560, 2013.00
1561, 2013.00
1562, 2017.00
1563, 2015.00
1564, 2018.00
1565, 2020.00
1566, 2021.00
1567, 2023.00
1568, 2024.00
1569, 2025.00
1570, 2026.00
1571, 2028.00
1572, 2029.00
1573, 2030.00
1574, 2032.00
1575, 2034.00
1576, 2035.00
1577, 2036.00
1578, 2037.00
1579, 2039.00
1580, 2039.00
1581, 2041.00
1582, 2043.00
1583, 2044.00
1584, 2044.00
1585, 2047.00
1586, 2049.00
1587, 2049.00
1588, 2051.00
1589, 2051.00
1590, 2052.00
1591, 2053.00
1592, 2055.00
1593, 2056.00
1594, 2057.00
1595, 2058.00
1596, 2059.00
1597, 2061.00
1598, 2063.00
1599, 2063.00
1600, 2064.00
1601, 2066.00
1602, 2067.00
1603, 2069.00
1604, 2069.00
1605, 2071.00
1606, 2073.00
1607, 2074.00
1608, 2075.00
1609, 2078.00
1610, 2080.00
1611, 2081.00
1612, 2082.00
1613, 2083.00
1614, 2085.00
1615, 2087.00
1616, 2088.00
1617, 2089.00
1618, 2092.00
1619, 2093.00
1620, 2093.00
1621, 2095.00
1622, 2098.00
1623, 2100.00
1624, 2101.00
1625, 2102.00
1626, 2104.00
1627, 2106.00
1628, 2107.00
1629, 2108.00
1630, 2111.00
1631, 2111.00
1632, 2113.00
1633, 2114.00
1634, 2115.00
1635, 2116.00
1636, 2118.00
1637, 2119.00
1638, 2121.00
1639, 2122.00
1640, 2123.00
1641, 2125.00
1642, 2125.00
1643, 2127.00
1644, 2129.00
1645, 2129.00
1646, 2131.00
1647, 2132.00
1648, 2133.00
1649, 2134.00
1650, 2137.00

1750, 2641.00
1751, 2643.00
1752, 2641.00
1753, 2642.00
1754, 2641.00
1755, 2641.00
1756, 2640.00
1757, 2640.00
1758, 2640.00
1759, 2639.00
1760, 2637.00
1761, 2638.00
1762, 2638.00
1763, 2639.00
1764, 2640.00
1765, 2639.00
1766, 2636.00
1767, 2638.00
1768, 2638.00
1769, 2636.00
1770, 2637.00
1771, 2637.00
1772, 2637.00
1773, 2637.00
1774, 2635.00
1775, 2636.00
1776, 2634.00
1777, 2634.00
1778, 2634.00
1779, 2634.00
1780, 2632.00
1781, 2633.00
1782, 2632.00
1783, 2631.00
1784, 2629.00
1785, 2631.00
1786, 2628.00
1787, 2629.00
1788, 2629.00
1789, 2629.00
1790, 2628.00
1791, 2627.00
1792, 2628.00
1793, 2625.00
1794, 2627.00
1795, 2624.00
1796, 2624.00
1797, 2625.00
1798, 2623.00
1799, 2623.00
1800, 2623.00
1801, 2621.00
1802, 2622.00
1803, 2622.00
1804, 2621.00
1805, 2623.00
1806, 2621.00
1807, 2619.00
1808, 2619.00
1809, 2619.00
1810, 2620.00
1811, 2619.00
1812, 2619.00
1813, 2617.00
1814, 2617.00
1815, 2615.00
1816, 2617.00
1817, 2614.00
1818, 2615.00
1819, 2612.00
1820, 2614.00
1821, 2610.00
1822, 2610.00
1823, 2608.00
1824, 2609.00
1825, 2606.00
1826, 2606.00
1827, 2607.00
1828, 2604.00
1829, 2603.00
1830, 2601.00
1831, 2601.00
1832, 2599.00
1833, 2595.00
1834, 2595.00
1835, 2594.00
1836, 2592.00
1837, 2590.00
1838, 2589.00
1839, 2586.00
1840, 2585.00
1841, 2581.00
1842, 2580.00
1843, 2577.00
1844, 2575.00
1845, 2574.00
1846, 2570.00
1847, 2570.00
1848, 2568.00
1849, 2564.00
1850, 2562.00
1851, 2561.00
1852, 2558.00
1853, 2558.00
1854, 2552.00
1855, 2552.00
1856, 2547.00
1857, 2547.00
1858, 2544.00
1859, 2544.00
1860, 2542.00
1861, 2538.00
1862, 2538.00
1863, 2536.00
1864, 2535.00
1865, 2530.00
1866, 2530.00
1867, 2527.00
1868, 2526.00
1869, 2525.00
1870, 2523.00
1871, 2521.00
1872, 2521.00
1873, 2519.00
1874, 2518.00
1875, 2518.00
1876, 2518.00
1877, 2515.00
1878, 2514.00
1879, 2512.00
1880, 2513.00
1881, 2511.00
1882, 2512.00
1883, 2512.00
1884, 2510.00
1885, 2512.00
1886, 2507.00
1887, 2509.00
1888, 2508.00
1889, 2506.00
1890, 2506.00
1891, 2505.00
1892, 2505.00
1893, 2506.00
1894, 2504.00
1895, 2503.00
1896, 2503.00
1897, 2503.00
1898, 2505.00
1899, 2504.00
1900, 2502.00
1901, 2500.00
1902, 2501.00
1903, 2500.00
1904, 2503.00
1905, 2502.00
1906, 2499.00
1907, 2501.00
1908, 2501.00
1909, 2500.00
1910, 2500.00
1911, 2498.00
1912, 2499.00
1913, 2499.00
1914, 2499.00
1915, 2497.00
1916, 2499.00
1917, 2500.00
1918, 2501.00
1919, 2499.00
1920, 2498.00
1921, 2498.00
1922, 2498.00
1923, 2498.00
1924, 2499.00
1925, 2498.00
1926, 2497.00
1927, 2499.00
1928, 2498.00
1929, 2499.00
1930, 2500.00
1931, 2499.00
1932, 2501.00
1933, 2498.00
1934, 2499.00
1935, 2499.00
1936, 2500.00
1937, 2502.00
1938, 2500.00
1939, 2501.00
1940, 2502.00
1941, 2502.00
1942, 2499.00
1943, 2502.00
1944, 2502.00
1945, 2502.00
1946, 2504.00
1947, 2503.00
1948, 2502.00
1949, 2503.00
1950, 2503.00
1951, 2505.00
1952, 2505.00
1953, 2503.00
1954, 2506.00
1955, 2504.00
1956, 2505.00
1957, 2508.00
1958, 2508.00
1959, 2508.00
1960, 2507.00
1961, 2508.00
1962, 2509.00
1963, 2507.00
1964, 2511.00
1965, 2512.00
1966, 2510.00
1967, 2512.00
1968, 2513.00
1969, 2513.00
1970, 2513.00
1971, 2512.00
1972, 2517.00
1973, 2515.00
1974, 2517.00
1975, 2516.00
1976, 2517.00
1977, 2517.00
1978, 2519.00
1979, 2518.00
1980, 2520.00
1981, 2519.00
1982, 2521.00
1983, 2523.00
1984, 2523.00
1985, 2524.00
1986, 2524.00
1987, 2524.00
1988, 2525.00
1989, 2524.00
1990, 2524.00
1991, 2527.00
1992, 2525.00
1993, 2527.00
1994, 2527.00
1995, 2529.00
1996, 2530.00
1997, 2528.00
1998, 2530.00
1999, 2529.00
2000, 2532.00
2001, 2531.00
2002, 2532.00
2003, 2534.00
2004, 2535.00
2005, 2534.00
2006, 2534.00
2007, 2535.00
2008, 2537.00
2009, 2537.00
2010, 2538.00
2011, 2540.00
2012, 2540.00
2013, 2538.00
2014, 2539.00
2015, 2540.00
2016, 2540.00
2017, 2542.00
2018, 2542.00
2019, 2543.00
2020, 2543.00
2021, 2545.00
2022, 2544.00
2023, 2546.00
2024, 2548.00
2025, 2549.00
2026, 2547.00
2027, 2547.00
2028, 2548.00
2029, 2550.00
2030, 2550.00
2031, 2550.00
2032, 2551.00
2033, 2551.00
2034, 2552.00
2035, 2554.00
2036, 2553.00
2037, 2555.00
2038, 2555.00
2039, 2556.00
2040, 2556.00
2041, 2557.00
2042, 2558.00
2043, 2557.00
2044, 2560.00
2045, 2560.00
2046, 2561.00
2047, 2563.00
2048, 2563.00
2049, 2564.00
2050, 2564.00
2051, 2568.00
2052, 2566.00
2053, 2566.00
2054, 2570.00
2055, 2569.00
2056, 2570.00
2057, 2571.00
2058, 2573.00
2059, 2573.00
2060, 2575.00
2061, 2574.00
2062, 2576.00
2063, 2577.00
2064, 2579.00
2065, 2579.00
2066, 2578.00
2067, 2581.00
2068, 2582.00
2069, 2582.00
2070, 2583.00
2071, 2582.00
2072, 2583.00
2073, 2584.00
2074, 2586.00
2075, 2586.00
2076, 2587.00
2077, 2589.00
2078, 2590.00
2079, 2589.00
2080, 2589.00
2081, 2590.00
2082, 2592.00
2083, 2591.00
2084, 2595.00
2085, 2593.00
2086, 2594.00
2087, 2595.00
2088, 2596.00
2089, 2597.00
2090, 2599.00
2091, 2597.00
2092, 2599.00
2093, 2598.00
2094, 2601.00
2095, 2600.00
2096, 2601.00
2097, 2601.00
2098, 2602.00
2099, 2603.00
2100, 2603.00
2101, 2604.00
2102, 2605.00
2103, 2604.00
2104, 2605.00
2105, 2604.00
2106, 2605.00
2107, 2606.00
2108, 2607.00
2109, 2608.00
2110, 2605.00
2111, 2610.00
2112, 2607.00
2113, 2611.00
2114, 2607.00
2115, 2610.00
2116, 2610.00
2117, 2610.00
2118, 2610.00
2119, 2613.00
2120, 2611.00
2121, 2613.00
2122, 2610.00
2123, 2612.00
2124, 2611.00
2125, 2612.00
2126, 2615.00
2127, 2614.00
2128, 2613.00
2129, 2613.00
2130, 2614.00
2131, 2616.00
2132, 2615.00
2133, 2614.00
2134, 2614.00
2135, 2615.00
2136, 2616.00
2137, 2616.00
2138, 2618.00
2139, 2618.00
2140, 2618.00
2141, 2616.00
2142, 2618.00
2143, 2621.00
2144, 2619.00
2145, 2621.00
2146, 2620.00
2147, 2619.00
2148, 2620.00
2149, 2621.00
2150, 2621.00
