FW version: 24
Log Version: 3.0.3

General Info:
       Command/Macro Performed,            Timestamp,             Device ID, COM Port, UART/I2C, Test Name, Host Major, Host Minor, Host Revision, Host Git Commit
            Single_measurement,  2023_07_11_11_23_47,       Insight2_F4_xxx,    USB-C,      USB,          ,          0,          1,             1,      4031237645

Show Spectrometer Status:
l0_version, f4_version, battery_perc, battery_mVolt, accelerometer_temp, accelerometer_x, accelerometer_y, accelerometer_z, compass_temp, compass_x, compass_y, compass_z, lamp_0, lamp_1, gain_0, gain_1
        17,         24,           50,          1904,               6912,           65240,            1248,           18860,            0,     65532,     65511,     18925,   3276,   3276,      1,      1

Temperature Statistic Info:
NTC AVG [°C], NTC2 AVG [°C]
      42.010,        41.685

Statistic Info:
M1:  num,      min,      max,   median,      AVG,      STD,M2:  num,      min,      max,   median,      AVG,      STD
     301,  2345.00,  2693.00,  2415.00,  2459.27, 108.2802,     401,  2971.00,  3171.00,  3049.00,  3055.79,  64.4521,

Measurements:
Wavelength, Data Amplitude
1350, 2410.00
1351, 2411.00
1352, 2407.00
1353, 2407.00
1354, 2405.00
1355, 2404.00
1356, 2402.00
1357, 2401.00
1358, 2399.00
1359, 2398.00
1360, 2397.00
1361, 2395.00
1362, 2394.00
1363, 2392.00
1364, 2389.00
1365, 2388.00
1366, 2384.00
1367, 2385.00
1368, 2383.00
1369, 2381.00
1370, 2379.00
1371, 2377.00
1372, 2376.00
1373, 2374.00
1374, 2374.00
1375, 2371.00
1376, 2369.00
1377, 2368.00
1378, 2365.00
1379, 2365.00
1380, 2363.00
1381, 2363.00
1382, 2361.00
1383, 2361.00
1384, 2360.00
1385, 2359.00
1386, 2357.00
1387, 2358.00
1388, 2355.00
1389, 2355.00
1390, 2355.00
1391, 2353.00
1392, 2354.00
1393, 2353.00
1394, 2352.00
1395, 2350.00
1396, 2351.00
1397, 2351.00
1398, 2349.00
1399, 2349.00
1400, 2349.00
1401, 2348.00
1402, 2350.00
1403, 2348.00
1404, 2348.00
1405, 2349.00
1406, 2348.00
1407, 2347.00
1408, 2346.00
1409, 2347.00
1410, 2346.00
1411, 2347.00
1412, 2347.00
1413, 2346.00
1414, 2346.00
1415, 2346.00
1416, 2345.00
1417, 2346.00
1418, 2345.00
1419, 2345.00
1420, 2345.00
1421, 2345.00
1422, 2345.00
1423, 2346.00
1424, 2347.00
1425, 2346.00
1426, 2347.00
1427, 2346.00
1428, 2347.00
1429, 2348.00
1430, 2347.00
1431, 2348.00
1432, 2349.00
1433, 2349.00
1434, 2349.00
1435, 2349.00
1436, 2350.00
1437, 2351.00
1438, 2351.00
1439, 2350.00
1440, 2351.00
1441, 2353.00
1442, 2353.00
1443, 2353.00
1444, 2355.00
1445, 2354.00
1446, 2356.00
1447, 2355.00
1448, 2357.00
1449, 2357.00
1450, 2359.00
1451, 2359.00
1452, 2359.00
1453, 2360.00
1454, 2361.00
1455, 2362.00
1456, 2361.00
1457, 2363.00
1458, 2365.00
1459, 2365.00
1460, 2366.00
1461, 2367.00
1462, 2368.00
1463, 2369.00
1464, 2369.00
1465, 2371.00
1466, 2373.00
1467, 2372.00
1468, 2373.00
1469, 2375.00
1470, 2377.00
1471, 2378.00
1472, 2379.00
1473, 2379.00
1474, 2380.00
1475, 2383.00
1476, 2383.00
1477, 2386.00
1478, 2386.00
1479, 2387.00
1480, 2389.00
1481, 2390.00
1482, 2390.00
1483, 2392.00
1484, 2394.00
1485, 2395.00
1486, 2397.00
1487, 2398.00
1488, 2399.00
1489, 2401.00
1490, 2402.00
1491, 2403.00
1492, 2403.00
1493, 2406.00
1494, 2407.00
1495, 2408.00
1496, 2409.00
1497, 2411.00
1498, 2413.00
1499, 2415.00
1500, 2415.00
1501, 2417.00
1502, 2419.00
1503, 2420.00
1504, 2420.00
1505, 2423.00
1506, 2424.00
1507, 2425.00
1508, 2426.00
1509, 2429.00
1510, 2431.00
1511, 2432.00
1512, 2434.00
1513, 2434.00
1514, 2436.00
1515, 2439.00
1516, 2439.00
1517, 2440.00
1518, 2443.00
1519, 2445.00
1520, 2446.00
1521, 2449.00
1522, 2450.00
1523, 2451.00
1524, 2453.00
1525, 2455.00
1526, 2456.00
1527, 2457.00
1528, 2459.00
1529, 2462.00
1530, 2463.00
1531, 2465.00
1532, 2466.00
1533, 2469.00
1534, 2469.00
1535, 2471.00
1536, 2474.00
1537, 2476.00
1538, 2477.00
1539, 2479.00
1540, 2481.00
1541, 2483.00
1542, 2485.00
1543, 2486.00
1544, 2488.00
1545, 2490.00
1546, 2492.00
1547, 2493.00
1548, 2495.00
1549, 2498.00
1550, 2500.00
1551, 2501.00
1552, 2503.00
1553, 2506.00
1554, 2507.00
1555, 2509.00
1556, 2511.00
1557, 2513.00
1558, 2515.00
1559, 2516.00
1560, 2519.00
1561, 2522.00
1562, 2524.00
1563, 2525.00
1564, 2527.00
1565, 2529.00
1566, 2531.00
1567, 2532.00
1568, 2535.00
1569, 2537.00
1570, 2540.00
1571, 2541.00
1572, 2543.00
1573, 2546.00
1574, 2547.00
1575, 2548.00
1576, 2551.00
1577, 2553.00
1578, 2554.00
1579, 2555.00
1580, 2558.00
1581, 2559.00
1582, 2562.00
1583, 2563.00
1584, 2565.00
1585, 2567.00
1586, 2568.00
1587, 2570.00
1588, 2571.00
1589, 2574.00
1590, 2575.00
1591, 2576.00
1592, 2579.00
1593, 2579.00
1594, 2582.00
1595, 2584.00
1596, 2585.00
1597, 2587.00
1598, 2588.00
1599, 2591.00
1600, 2593.00
1601, 2595.00
1602, 2597.00
1603, 2598.00
1604, 2600.00
1605, 2603.00
1606, 2603.00
1607, 2606.00
1608, 2609.00
1609, 2612.00
1610, 2612.00
1611, 2615.00
1612, 2617.00
1613, 2619.00
1614, 2622.00
1615, 2624.00
1616, 2625.00
1617, 2628.00
1618, 2631.00
1619, 2632.00
1620, 2634.00
1621, 2636.00
1622, 2640.00
1623, 2640.00
1624, 2643.00
1625, 2645.00
1626, 2647.00
1627, 2649.00
1628, 2651.00
1629, 2654.00
1630, 2655.00
1631, 2658.00
1632, 2659.00
1633, 2662.00
1634, 2664.00
1635, 2664.00
1636, 2667.00
1637, 2669.00
1638, 2670.00
1639, 2672.00
1640, 2674.00
1641, 2676.00
1642, 2678.00
1643, 2679.00
1644, 2681.00
1645, 2683.00
1646, 2685.00
1647, 2687.00
1648, 2688.00
1649, 2691.00
1650, 2693.00

1750, 3168.00
1751, 3171.00
1752, 3170.00
1753, 3168.00
1754, 3168.00
1755, 3168.00
1756, 3166.00
1757, 3169.00
1758, 3168.00
1759, 3169.00
1760, 3168.00
1761, 3167.00
1762, 3166.00
1763, 3167.00
1764, 3168.00
1765, 3165.00
1766, 3165.00
1767, 3165.00
1768, 3165.00
1769, 3165.00
1770, 3165.00
1771, 3163.00
1772, 3161.00
1773, 3161.00
1774, 3160.00
1775, 3161.00
1776, 3161.00
1777, 3161.00
1778, 3160.00
1779, 3160.00
1780, 3159.00
1781, 3158.00
1782, 3158.00
1783, 3156.00
1784, 3156.00
1785, 3153.00
1786, 3155.00
1787, 3154.00
1788, 3150.00
1789, 3152.00
1790, 3151.00
1791, 3152.00
1792, 3150.00
1793, 3150.00
1794, 3146.00
1795, 3148.00
1796, 3145.00
1797, 3144.00
1798, 3145.00
1799, 3144.00
1800, 3144.00
1801, 3141.00
1802, 3141.00
1803, 3142.00
1804, 3143.00
1805, 3141.00
1806, 3142.00
1807, 3139.00
1808, 3139.00
1809, 3137.00
1810, 3139.00
1811, 3136.00
1812, 3137.00
1813, 3133.00
1814, 3134.00
1815, 3133.00
1816, 3132.00
1817, 3132.00
1818, 3129.00
1819, 3129.00
1820, 3128.00
1821, 3125.00
1822, 3125.00
1823, 3123.00
1824, 3121.00
1825, 3120.00
1826, 3117.00
1827, 3115.00
1828, 3114.00
1829, 3111.00
1830, 3109.00
1831, 3106.00
1832, 3104.00
1833, 3103.00
1834, 3099.00
1835, 3099.00
1836, 3096.00
1837, 3094.00
1838, 3093.00
1839, 3088.00
1840, 3084.00
1841, 3083.00
1842, 3081.00
1843, 3077.00
1844, 3072.00
1845, 3072.00
1846, 3067.00
1847, 3064.00
1848, 3063.00
1849, 3057.00
1850, 3054.00
1851, 3052.00
1852, 3049.00
1853, 3047.00
1854, 3042.00
1855, 3042.00
1856, 3037.00
1857, 3035.00
1858, 3032.00
1859, 3030.00
1860, 3029.00
1861, 3024.00
1862, 3021.00
1863, 3018.00
1864, 3017.00
1865, 3015.00
1866, 3014.00
1867, 3013.00
1868, 3007.00
1869, 3010.00
1870, 3005.00
1871, 3004.00
1872, 3002.00
1873, 3001.00
1874, 3000.00
1875, 2998.00
1876, 2997.00
1877, 2994.00
1878, 2994.00
1879, 2993.00
1880, 2992.00
1881, 2992.00
1882, 2992.00
1883, 2989.00
1884, 2989.00
1885, 2987.00
1886, 2987.00
1887, 2986.00
1888, 2987.00
1889, 2985.00
1890, 2984.00
1891, 2983.00
1892, 2983.00
1893, 2982.00
1894, 2982.00
1895, 2981.00
1896, 2980.00
1897, 2980.00
1898, 2981.00
1899, 2978.00
1900, 2980.00
1901, 2979.00
1902, 2978.00
1903, 2978.00
1904, 2973.00
1905, 2977.00
1906, 2976.00
1907, 2975.00
1908, 2974.00
1909, 2975.00
1910, 2976.00
1911, 2974.00
1912, 2973.00
1913, 2974.00
1914, 2975.00
1915, 2972.00
1916, 2975.00
1917, 2972.00
1918, 2971.00
1919, 2971.00
1920, 2974.00
1921, 2973.00
1922, 2973.00
1923, 2975.00
1924, 2971.00
1925, 2973.00
1926, 2971.00
1927, 2971.00
1928, 2973.00
1929, 2971.00
1930, 2972.00
1931, 2973.00
1932, 2972.00
1933, 2972.00
1934, 2973.00
1935, 2972.00
1936, 2973.00
1937, 2972.00
1938, 2975.00
1939, 2974.00
1940, 2976.00
1941, 2971.00
1942, 2974.00
1943, 2974.00
1944, 2977.00
1945, 2973.00
1946, 2976.00
1947, 2975.00
1948, 2977.00
1949, 2976.00
1950, 2977.00
1951, 2977.00
1952, 2979.00
1953, 2977.00
1954, 2979.00
1955, 2979.00
1956, 2979.00
1957, 2980.00
1958, 2981.00
1959, 2981.00
1960, 2980.00
1961, 2983.00
1962, 2982.00
1963, 2983.00
1964, 2983.00
1965, 2982.00
1966, 2984.00
1967, 2983.00
1968, 2985.00
1969, 2986.00
1970, 2987.00
1971, 2989.00
1972, 2989.00
1973, 2987.00
1974, 2989.00
1975, 2989.00
1976, 2991.00
1977, 2991.00
1978, 2993.00
1979, 2993.00
1980, 2990.00
1981, 2994.00
1982, 2995.00
1983, 2995.00
1984, 2996.00
1985, 2996.00
1986, 2995.00
1987, 2998.00
1988, 2999.00
1989, 2997.00
1990, 3000.00
1991, 3000.00
1992, 3001.00
1993, 3002.00
1994, 3002.00
1995, 3005.00
1996, 3002.00
1997, 3006.00
1998, 3004.00
1999, 3006.00
2000, 3007.00
2001, 3007.00
2002, 3007.00
2003, 3009.00
2004, 3009.00
2005, 3010.00
2006, 3011.00
2007, 3012.00
2008, 3014.00
2009, 3010.00
2010, 3014.00
2011, 3014.00
2012, 3015.00
2013, 3013.00
2014, 3016.00
2015, 3015.00
2016, 3019.00
2017, 3018.00
2018, 3017.00
2019, 3020.00
2020, 3019.00
2021, 3022.00
2022, 3023.00
2023, 3024.00
2024, 3023.00
2025, 3024.00
2026, 3024.00
2027, 3025.00
2028, 3027.00
2029, 3026.00
2030, 3030.00
2031, 3029.00
2032, 3030.00
2033, 3032.00
2034, 3031.00
2035, 3033.00
2036, 3033.00
2037, 3034.00
2038, 3035.00
2039, 3035.00
2040, 3037.00
2041, 3037.00
2042, 3037.00
2043, 3040.00
2044, 3038.00
2045, 3041.00
2046, 3042.00
2047, 3043.00
2048, 3045.00
2049, 3047.00
2050, 3046.00
2051, 3048.00
2052, 3044.00
2053, 3050.00
2054, 3049.00
2055, 3051.00
2056, 3053.00
2057, 3053.00
2058, 3055.00
2059, 3055.00
2060, 3058.00
2061, 3060.00
2062, 3059.00
2063, 3058.00
2064, 3062.00
2065, 3063.00
2066, 3064.00
2067, 3063.00
2068, 3066.00
2069, 3065.00
2070, 3068.00
2071, 3067.00
2072, 3071.00
2073, 3070.00
2074, 3073.00
2075, 3074.00
2076, 3074.00
2077, 3075.00
2078, 3077.00
2079, 3076.00
2080, 3079.00
2081, 3077.00
2082, 3078.00
2083, 3080.00
2084, 3081.00
2085, 3083.00
2086, 3082.00
2087, 3083.00
2088, 3084.00
2089, 3085.00
2090, 3087.00
2091, 3088.00
2092, 3089.00
2093, 3089.00
2094, 3090.00
2095, 3091.00
2096, 3092.00
2097, 3091.00
2098, 3092.00
2099, 3093.00
2100, 3094.00
2101, 3094.00
2102, 3095.00
2103, 3097.00
2104, 3096.00
2105, 3098.00
2106, 3097.00
2107, 3098.00
2108, 3101.00
2109, 3099.00
2110, 3102.00
2111, 3101.00
2112, 3102.00
2113, 3102.00
2114, 3103.00
2115, 3102.00
2116, 3103.00
2117, 3104.00
2118, 3105.00
2119, 3105.00
2120, 3106.00
2121, 3107.00
2122, 3106.00
2123, 3107.00
2124, 3105.00
2125, 3109.00
2126, 3110.00
2127, 3109.00
2128, 3109.00
2129, 3109.00
2130, 3108.00
2131, 3109.00
2132, 3111.00
2133, 3111.00
2134, 3112.00
2135, 3112.00
2136, 3114.00
2137, 3115.00
2138, 3113.00
2139, 3114.00
2140, 3112.00
2141, 3114.00
2142, 3115.00
2143, 3115.00
2144, 3116.00
2145, 3117.00
2146, 3116.00
2147, 3119.00
2148, 3118.00
2149, 3119.00
2150, 3119.00
