FW version: 24
Log Version: 3.0.3

General Info:
       Command/Macro Performed,            Timestamp,             Device ID, COM Port, UART/I2C, Test Name, Host Major, Host Minor, Host Revision, Host Git Commit
            Single_measurement,  2023_07_11_11_23_04,       Insight2_F4_xxx,    USB-C,      USB,          ,          0,          1,             1,      4031237645

Show Spectrometer Status:
l0_version, f4_version, battery_perc, battery_mVolt, accelerometer_temp, accelerometer_x, accelerometer_y, accelerometer_z, compass_temp, compass_x, compass_y, compass_z, lamp_0, lamp_1, gain_0, gain_1
        17,         24,           50,          1909,               6896,           65256,            1256,           18756,            0,     65535,     65514,     18790,   2457,   2457,      1,      1

Temperature Statistic Info:
NTC AVG [°C], NTC2 AVG [°C]
      41.685,        41.357

Statistic Info:
M1:  num,      min,      max,   median,      AVG,      STD,M2:  num,      min,      max,   median,      AVG,      STD
     301,  1352.00,  1569.00,  1397.00,  1423.27,  67.3833,     401,  1850.00,  1975.00,  1902.00,  1905.35,  40.7558,

Measurements:
Wavelength, Data Amplitude
1350, 1388.00
1351, 1387.00
1352, 1387.00
1353, 1386.00
1354, 1384.00
1355, 1384.00
1356, 1384.00
1357, 1382.00
1358, 1382.00
1359, 1381.00
1360, 1381.00
1361, 1381.00
1362, 1379.00
1363, 1378.00
1364, 1377.00
1365, 1376.00
1366, 1374.00
1367, 1375.00
1368, 1373.00
1369, 1372.00
1370, 1372.00
1371, 1370.00
1372, 1369.00
1373, 1368.00
1374, 1367.00
1375, 1366.00
1376, 1366.00
1377, 1364.00
1378, 1363.00
1379, 1364.00
1380, 1363.00
1381, 1361.00
1382, 1361.00
1383, 1360.00
1384, 1360.00
1385, 1360.00
1386, 1359.00
1387, 1359.00
1388, 1357.00
1389, 1358.00
1390, 1358.00
1391, 1357.00
1392, 1358.00
1393, 1357.00
1394, 1355.00
1395, 1355.00
1396, 1354.00
1397, 1355.00
1398, 1356.00
1399, 1355.00
1400, 1355.00
1401, 1355.00
1402, 1355.00
1403, 1354.00
1404, 1354.00
1405, 1354.00
1406, 1355.00
1407, 1354.00
1408, 1353.00
1409, 1353.00
1410, 1352.00
1411, 1353.00
1412, 1353.00
1413, 1353.00
1414, 1353.00
1415, 1353.00
1416, 1353.00
1417, 1354.00
1418, 1353.00
1419, 1353.00
1420, 1354.00
1421, 1352.00
1422, 1353.00
1423, 1354.00
1424, 1352.00
1425, 1353.00
1426, 1354.00
1427, 1354.00
1428, 1353.00
1429, 1354.00
1430, 1355.00
1431, 1355.00
1432, 1354.00
1433, 1354.00
1434, 1355.00
1435, 1356.00
1436, 1356.00
1437, 1357.00
1438, 1357.00
1439, 1357.00
1440, 1357.00
1441, 1358.00
1442, 1357.00
1443, 1359.00
1444, 1359.00
1445, 1360.00
1446, 1359.00
1447, 1360.00
1448, 1360.00
1449, 1360.00
1450, 1360.00
1451, 1361.00
1452, 1361.00
1453, 1363.00
1454, 1363.00
1455, 1364.00
1456, 1364.00
1457, 1365.00
1458, 1365.00
1459, 1366.00
1460, 1366.00
1461, 1367.00
1462, 1367.00
1463, 1368.00
1464, 1369.00
1465, 1369.00
1466, 1369.00
1467, 1370.00
1468, 1371.00
1469, 1371.00
1470, 1373.00
1471, 1373.00
1472, 1375.00
1473, 1373.00
1474, 1375.00
1475, 1375.00
1476, 1377.00
1477, 1377.00
1478, 1379.00
1479, 1381.00
1480, 1380.00
1481, 1381.00
1482, 1382.00
1483, 1382.00
1484, 1384.00
1485, 1385.00
1486, 1385.00
1487, 1386.00
1488, 1387.00
1489, 1388.00
1490, 1388.00
1491, 1390.00
1492, 1390.00
1493, 1390.00
1494, 1391.00
1495, 1392.00
1496, 1394.00
1497, 1394.00
1498, 1395.00
1499, 1398.00
1500, 1397.00
1501, 1397.00
1502, 1399.00
1503, 1399.00
1504, 1400.00
1505, 1402.00
1506, 1403.00
1507, 1403.00
1508, 1405.00
1509, 1405.00
1510, 1407.00
1511, 1406.00
1512, 1408.00
1513, 1409.00
1514, 1409.00
1515, 1411.00
1516, 1412.00
1517, 1413.00
1518, 1414.00
1519, 1415.00
1520, 1416.00
1521, 1417.00
1522, 1419.00
1523, 1419.00
1524, 1421.00
1525, 1421.00
1526, 1423.00
1527, 1424.00
1528, 1424.00
1529, 1425.00
1530, 1427.00
1531, 1428.00
1532, 1429.00
1533, 1429.00
1534, 1431.00
1535, 1432.00
1536, 1435.00
1537, 1435.00
1538, 1436.00
1539, 1437.00
1540, 1437.00
1541, 1440.00
1542, 1439.00
1543, 1441.00
1544, 1442.00
1545, 1443.00
1546, 1444.00
1547, 1446.00
1548, 1447.00
1549, 1448.00
1550, 1449.00
1551, 1450.00
1552, 1451.00
1553, 1452.00
1554, 1453.00
1555, 1455.00
1556, 1457.00
1557, 1457.00
1558, 1458.00
1559, 1460.00
1560, 1461.00
1561, 1462.00
1562, 1463.00
1563, 1464.00
1564, 1465.00
1565, 1467.00
1566, 1469.00
1567, 1469.00
1568, 1471.00
1569, 1471.00
1570, 1472.00
1571, 1474.00
1572, 1474.00
1573, 1476.00
1574, 1477.00
1575, 1478.00
1576, 1481.00
1577, 1481.00
1578, 1482.00
1579, 1484.00
1580, 1485.00
1581, 1485.00
1582, 1487.00
1583, 1487.00
1584, 1488.00
1585, 1489.00
1586, 1490.00
1587, 1493.00
1588, 1492.00
1589, 1494.00
1590, 1495.00
1591, 1496.00
1592, 1498.00
1593, 1499.00
1594, 1499.00
1595, 1500.00
1596, 1501.00
1597, 1503.00
1598, 1503.00
1599, 1505.00
1600, 1506.00
1601, 1507.00
1602, 1509.00
1603, 1509.00
1604, 1510.00
1605, 1513.00
1606, 1513.00
1607, 1515.00
1608, 1516.00
1609, 1517.00
1610, 1518.00
1611, 1520.00
1612, 1522.00
1613, 1521.00
1614, 1523.00
1615, 1526.00
1616, 1526.00
1617, 1526.00
1618, 1529.00
1619, 1531.00
1620, 1531.00
1621, 1534.00
1622, 1534.00
1623, 1535.00
1624, 1537.00
1625, 1538.00
1626, 1540.00
1627, 1542.00
1628, 1543.00
1629, 1544.00
1630, 1546.00
1631, 1546.00
1632, 1548.00
1633, 1549.00
1634, 1551.00
1635, 1551.00
1636, 1553.00
1637, 1554.00
1638, 1555.00
1639, 1556.00
1640, 1558.00
1641, 1558.00
1642, 1560.00
1643, 1561.00
1644, 1562.00
1645, 1562.00
1646, 1564.00
1647, 1564.00
1648, 1566.00
1649, 1567.00
1650, 1569.00

1750, 1973.00
1751, 1974.00
1752, 1973.00
1753, 1973.00
1754, 1973.00
1755, 1971.00
1756, 1975.00
1757, 1975.00
1758, 1973.00
1759, 1973.00
1760, 1973.00
1761, 1973.00
1762, 1973.00
1763, 1974.00
1764, 1973.00
1765, 1972.00
1766, 1973.00
1767, 1972.00
1768, 1972.00
1769, 1971.00
1770, 1971.00
1771, 1971.00
1772, 1971.00
1773, 1969.00
1774, 1969.00
1775, 1969.00
1776, 1969.00
1777, 1969.00
1778, 1969.00
1779, 1969.00
1780, 1971.00
1781, 1970.00
1782, 1966.00
1783, 1967.00
1784, 1967.00
1785, 1967.00
1786, 1965.00
1787, 1965.00
1788, 1964.00
1789, 1964.00
1790, 1964.00
1791, 1963.00
1792, 1962.00
1793, 1962.00
1794, 1961.00
1795, 1962.00
1796, 1961.00
1797, 1961.00
1798, 1961.00
1799, 1959.00
1800, 1960.00
1801, 1960.00
1802, 1958.00
1803, 1959.00
1804, 1959.00
1805, 1958.00
1806, 1956.00
1807, 1956.00
1808, 1958.00
1809, 1958.00
1810, 1955.00
1811, 1954.00
1812, 1953.00
1813, 1954.00
1814, 1953.00
1815, 1951.00
1816, 1953.00
1817, 1951.00
1818, 1950.00
1819, 1949.00
1820, 1948.00
1821, 1948.00
1822, 1947.00
1823, 1946.00
1824, 1944.00
1825, 1945.00
1826, 1943.00
1827, 1941.00
1828, 1941.00
1829, 1937.00
1830, 1941.00
1831, 1937.00
1832, 1936.00
1833, 1935.00
1834, 1933.00
1835, 1932.00
1836, 1930.00
1837, 1928.00
1838, 1927.00
1839, 1924.00
1840, 1922.00
1841, 1921.00
1842, 1922.00
1843, 1916.00
1844, 1915.00
1845, 1913.00
1846, 1911.00
1847, 1910.00
1848, 1908.00
1849, 1905.00
1850, 1904.00
1851, 1902.00
1852, 1901.00
1853, 1897.00
1854, 1896.00
1855, 1894.00
1856, 1893.00
1857, 1891.00
1858, 1890.00
1859, 1888.00
1860, 1886.00
1861, 1885.00
1862, 1883.00
1863, 1882.00
1864, 1882.00
1865, 1880.00
1866, 1878.00
1867, 1876.00
1868, 1877.00
1869, 1873.00
1870, 1873.00
1871, 1873.00
1872, 1871.00
1873, 1870.00
1874, 1869.00
1875, 1868.00
1876, 1868.00
1877, 1868.00
1878, 1865.00
1879, 1864.00
1880, 1864.00
1881, 1865.00
1882, 1864.00
1883, 1860.00
1884, 1861.00
1885, 1862.00
1886, 1860.00
1887, 1860.00
1888, 1861.00
1889, 1857.00
1890, 1861.00
1891, 1859.00
1892, 1859.00
1893, 1857.00
1894, 1859.00
1895, 1858.00
1896, 1856.00
1897, 1855.00
1898, 1856.00
1899, 1858.00
1900, 1857.00
1901, 1857.00
1902, 1855.00
1903, 1853.00
1904, 1854.00
1905, 1855.00
1906, 1853.00
1907, 1852.00
1908, 1853.00
1909, 1852.00
1910, 1854.00
1911, 1853.00
1912, 1855.00
1913, 1853.00
1914, 1852.00
1915, 1853.00
1916, 1853.00
1917, 1853.00
1918, 1850.00
1919, 1851.00
1920, 1852.00
1921, 1852.00
1922, 1853.00
1923, 1851.00
1924, 1850.00
1925, 1851.00
1926, 1853.00
1927, 1852.00
1928, 1853.00
1929, 1852.00
1930, 1853.00
1931, 1851.00
1932, 1850.00
1933, 1852.00
1934, 1853.00
1935, 1853.00
1936, 1850.00
1937, 1853.00
1938, 1853.00
1939, 1852.00
1940, 1852.00
1941, 1851.00
1942, 1854.00
1943, 1853.00
1944, 1853.00
1945, 1855.00
1946, 1853.00
1947, 1854.00
1948, 1856.00
1949, 1853.00
1950, 1855.00
1951, 1857.00
1952, 1855.00
1953, 1855.00
1954, 1854.00
1955, 1854.00
1956, 1856.00
1957, 1857.00
1958, 1859.00
1959, 1857.00
1960, 1859.00
1961, 1857.00
1962, 1859.00
1963, 1860.00
1964, 1860.00
1965, 1859.00
1966, 1860.00
1967, 1861.00
1968, 1859.00
1969, 1862.00
1970, 1860.00
1971, 1861.00
1972, 1862.00
1973, 1862.00
1974, 1864.00
1975, 1863.00
1976, 1864.00
1977, 1867.00
1978, 1866.00
1979, 1866.00
1980, 1865.00
1981, 1866.00
1982, 1866.00
1983, 1866.00
1984, 1867.00
1985, 1869.00
1986, 1869.00
1987, 1868.00
1988, 1869.00
1989, 1871.00
1990, 1869.00
1991, 1872.00
1992, 1871.00
1993, 1869.00
1994, 1873.00
1995, 1871.00
1996, 1874.00
1997, 1872.00
1998, 1873.00
1999, 1874.00
2000, 1875.00
2001, 1875.00
2002, 1875.00
2003, 1875.00
2004, 1878.00
2005, 1877.00
2006, 1878.00
2007, 1877.00
2008, 1878.00
2009, 1878.00
2010, 1878.00
2011, 1880.00
2012, 1880.00
2013, 1880.00
2014, 1880.00
2015, 1882.00
2016, 1882.00
2017, 1882.00
2018, 1883.00
2019, 1882.00
2020, 1886.00
2021, 1884.00
2022, 1886.00
2023, 1883.00
2024, 1884.00
2025, 1886.00
2026, 1885.00
2027, 1887.00
2028, 1890.00
2029, 1887.00
2030, 1889.00
2031, 1888.00
2032, 1889.00
2033, 1890.00
2034, 1892.00
2035, 1890.00
2036, 1891.00
2037, 1892.00
2038, 1892.00
2039, 1893.00
2040, 1893.00
2041, 1894.00
2042, 1896.00
2043, 1894.00
2044, 1895.00
2045, 1896.00
2046, 1897.00
2047, 1898.00
2048, 1899.00
2049, 1899.00
2050, 1901.00
2051, 1900.00
2052, 1902.00
2053, 1903.00
2054, 1903.00
2055, 1903.00
2056, 1903.00
2057, 1903.00
2058, 1906.00
2059, 1908.00
2060, 1905.00
2061, 1907.00
2062, 1909.00
2063, 1908.00
2064, 1911.00
2065, 1910.00
2066, 1911.00
2067, 1911.00
2068, 1913.00
2069, 1915.00
2070, 1911.00
2071, 1915.00
2072, 1917.00
2073, 1915.00
2074, 1917.00
2075, 1919.00
2076, 1919.00
2077, 1918.00
2078, 1920.00
2079, 1918.00
2080, 1922.00
2081, 1923.00
2082, 1922.00
2083, 1923.00
2084, 1924.00
2085, 1925.00
2086, 1924.00
2087, 1926.00
2088, 1927.00
2089, 1926.00
2090, 1927.00
2091, 1927.00
2092, 1927.00
2093, 1929.00
2094, 1928.00
2095, 1930.00
2096, 1929.00
2097, 1931.00
2098, 1931.00
2099, 1932.00
2100, 1932.00
2101, 1931.00
2102, 1932.00
2103, 1934.00
2104, 1934.00
2105, 1934.00
2106, 1936.00
2107, 1934.00
2108, 1935.00
2109, 1936.00
2110, 1935.00
2111, 1938.00
2112, 1936.00
2113, 1938.00
2114, 1936.00
2115, 1936.00
2116, 1940.00
2117, 1939.00
2118, 1939.00
2119, 1939.00
2120, 1941.00
2121, 1940.00
2122, 1941.00
2123, 1941.00
2124, 1942.00
2125, 1941.00
2126, 1943.00
2127, 1941.00
2128, 1943.00
2129, 1943.00
2130, 1944.00
2131, 1943.00
2132, 1943.00
2133, 1946.00
2134, 1945.00
2135, 1944.00
2136, 1945.00
2137, 1946.00
2138, 1946.00
2139, 1945.00
2140, 1947.00
2141, 1947.00
2142, 1947.00
2143, 1947.00
2144, 1947.00
2145, 1947.00
2146, 1949.00
2147, 1946.00
2148, 1949.00
2149, 1949.00
2150, 1948.00
