FW version: 24
Log Version: 3.0.3

General Info:
       Command/Macro Performed,            Timestamp,             Device ID, COM Port, UART/I2C, Test Name, Host Major, Host Minor, Host Revision, Host Git Commit
            Single_measurement,  2023_07_11_11_23_43,       Insight2_F4_xxx,    USB-C,      USB,          ,          0,          1,             1,      4031237645

Show Spectrometer Status:
l0_version, f4_version, battery_perc, battery_mVolt, accelerometer_temp, accelerometer_x, accelerometer_y, accelerometer_z, compass_temp, compass_x, compass_y, compass_z, lamp_0, lamp_1, gain_0, gain_1
        17,         24,           50,          1907,               6912,           65212,            1264,           18800,            0,     65468,     65520,     18805,   3276,   3276,      1,      1

Temperature Statistic Info:
NTC AVG [°C], NTC2 AVG [°C]
      42.010,        41.625

Statistic Info:
M1:  num,      min,      max,   median,      AVG,      STD,M2:  num,      min,      max,   median,      AVG,      STD
     301,  2346.00,  2693.00,  2417.00,  2460.20, 108.3963,     401,  2972.00,  3172.00,  3050.00,  3056.54,  64.4196,

Measurements:
Wavelength, Data Amplitude
1350, 2410.00
1351, 2410.00
1352, 2409.00
1353, 2409.00
1354, 2404.00
1355, 2405.00
1356, 2403.00
1357, 2402.00
1358, 2401.00
1359, 2399.00
1360, 2399.00
1361, 2396.00
1362, 2394.00
1363, 2392.00
1364, 2390.00
1365, 2388.00
1366, 2386.00
1367, 2385.00
1368, 2384.00
1369, 2381.00
1370, 2380.00
1371, 2378.00
1372, 2375.00
1373, 2373.00
1374, 2375.00
1375, 2373.00
1376, 2369.00
1377, 2369.00
1378, 2366.00
1379, 2366.00
1380, 2365.00
1381, 2364.00
1382, 2362.00
1383, 2362.00
1384, 2360.00
1385, 2360.00
1386, 2358.00
1387, 2358.00
1388, 2356.00
1389, 2355.00
1390, 2355.00
1391, 2355.00
1392, 2354.00
1393, 2354.00
1394, 2352.00
1395, 2353.00
1396, 2352.00
1397, 2351.00
1398, 2351.00
1399, 2349.00
1400, 2350.00
1401, 2351.00
1402, 2350.00
1403, 2348.00
1404, 2349.00
1405, 2349.00
1406, 2347.00
1407, 2347.00
1408, 2346.00
1409, 2348.00
1410, 2348.00
1411, 2347.00
1412, 2347.00
1413, 2348.00
1414, 2348.00
1415, 2347.00
1416, 2347.00
1417, 2347.00
1418, 2347.00
1419, 2346.00
1420, 2347.00
1421, 2347.00
1422, 2348.00
1423, 2347.00
1424, 2348.00
1425, 2348.00
1426, 2347.00
1427, 2347.00
1428, 2347.00
1429, 2349.00
1430, 2348.00
1431, 2349.00
1432, 2350.00
1433, 2350.00
1434, 2351.00
1435, 2351.00
1436, 2352.00
1437, 2352.00
1438, 2351.00
1439, 2352.00
1440, 2354.00
1441, 2353.00
1442, 2355.00
1443, 2354.00
1444, 2355.00
1445, 2355.00
1446, 2356.00
1447, 2357.00
1448, 2357.00
1449, 2358.00
1450, 2358.00
1451, 2360.00
1452, 2360.00
1453, 2362.00
1454, 2362.00
1455, 2362.00
1456, 2363.00
1457, 2365.00
1458, 2364.00
1459, 2366.00
1460, 2367.00
1461, 2366.00
1462, 2368.00
1463, 2371.00
1464, 2370.00
1465, 2371.00
1466, 2372.00
1467, 2374.00
1468, 2375.00
1469, 2376.00
1470, 2376.00
1471, 2377.00
1472, 2379.00
1473, 2380.00
1474, 2381.00
1475, 2383.00
1476, 2385.00
1477, 2385.00
1478, 2387.00
1479, 2388.00
1480, 2389.00
1481, 2390.00
1482, 2391.00
1483, 2392.00
1484, 2395.00
1485, 2395.00
1486, 2397.00
1487, 2397.00
1488, 2400.00
1489, 2402.00
1490, 2403.00
1491, 2404.00
1492, 2405.00
1493, 2407.00
1494, 2408.00
1495, 2409.00
1496, 2412.00
1497, 2412.00
1498, 2414.00
1499, 2415.00
1500, 2417.00
1501, 2418.00
1502, 2419.00
1503, 2421.00
1504, 2423.00
1505, 2424.00
1506, 2426.00
1507, 2426.00
1508, 2427.00
1509, 2429.00
1510, 2432.00
1511, 2433.00
1512, 2434.00
1513, 2436.00
1514, 2436.00
1515, 2439.00
1516, 2440.00
1517, 2443.00
1518, 2444.00
1519, 2446.00
1520, 2447.00
1521, 2448.00
1522, 2450.00
1523, 2452.00
1524, 2454.00
1525, 2455.00
1526, 2458.00
1527, 2459.00
1528, 2461.00
1529, 2462.00
1530, 2464.00
1531, 2465.00
1532, 2468.00
1533, 2469.00
1534, 2471.00
1535, 2473.00
1536, 2474.00
1537, 2477.00
1538, 2478.00
1539, 2479.00
1540, 2482.00
1541, 2483.00
1542, 2485.00
1543, 2487.00
1544, 2489.00
1545, 2491.00
1546, 2493.00
1547, 2495.00
1548, 2496.00
1549, 2499.00
1550, 2500.00
1551, 2502.00
1552, 2503.00
1553, 2505.00
1554, 2509.00
1555, 2509.00
1556, 2512.00
1557, 2513.00
1558, 2515.00
1559, 2518.00
1560, 2519.00
1561, 2522.00
1562, 2523.00
1563, 2526.00
1564, 2526.00
1565, 2530.00
1566, 2531.00
1567, 2534.00
1568, 2537.00
1569, 2537.00
1570, 2539.00
1571, 2543.00
1572, 2544.00
1573, 2546.00
1574, 2547.00
1575, 2550.00
1576, 2551.00
1577, 2554.00
1578, 2555.00
1579, 2556.00
1580, 2560.00
1581, 2560.00
1582, 2563.00
1583, 2564.00
1584, 2567.00
1585, 2568.00
1586, 2570.00
1587, 2572.00
1588, 2572.00
1589, 2575.00
1590, 2576.00
1591, 2578.00
1592, 2579.00
1593, 2581.00
1594, 2583.00
1595, 2585.00
1596, 2587.00
1597, 2589.00
1598, 2592.00
1599, 2592.00
1600, 2594.00
1601, 2595.00
1602, 2597.00
1603, 2600.00
1604, 2601.00
1605, 2604.00
1606, 2605.00
1607, 2608.00
1608, 2609.00
1609, 2612.00
1610, 2613.00
1611, 2616.00
1612, 2619.00
1613, 2621.00
1614, 2622.00
1615, 2623.00
1616, 2626.00
1617, 2629.00
1618, 2631.00
1619, 2634.00
1620, 2636.00
1621, 2638.00
1622, 2640.00
1623, 2642.00
1624, 2645.00
1625, 2646.00
1626, 2649.00
1627, 2651.00
1628, 2653.00
1629, 2655.00
1630, 2658.00
1631, 2658.00
1632, 2661.00
1633, 2663.00
1634, 2664.00
1635, 2666.00
1636, 2669.00
1637, 2669.00
1638, 2671.00
1639, 2674.00
1640, 2676.00
1641, 2678.00
1642, 2678.00
1643, 2680.00
1644, 2683.00
1645, 2684.00
1646, 2685.00
1647, 2689.00
1648, 2690.00
1649, 2691.00
1650, 2693.00

1750, 3169.00
1751, 3172.00
1752, 3169.00
1753, 3168.00
1754, 3167.00
1755, 3168.00
1756, 3167.00
1757, 3169.00
1758, 3166.00
1759, 3170.00
1760, 3168.00
1761, 3168.00
1762, 3167.00
1763, 3168.00
1764, 3168.00
1765, 3167.00
1766, 3166.00
1767, 3168.00
1768, 3165.00
1769, 3164.00
1770, 3166.00
1771, 3165.00
1772, 3163.00
1773, 3163.00
1774, 3165.00
1775, 3161.00
1776, 3160.00
1777, 3160.00
1778, 3161.00
1779, 3160.00
1780, 3161.00
1781, 3159.00
1782, 3158.00
1783, 3158.00
1784, 3156.00
1785, 3155.00
1786, 3155.00
1787, 3155.00
1788, 3154.00
1789, 3152.00
1790, 3153.00
1791, 3153.00
1792, 3151.00
1793, 3150.00
1794, 3149.00
1795, 3149.00
1796, 3149.00
1797, 3145.00
1798, 3146.00
1799, 3148.00
1800, 3145.00
1801, 3143.00
1802, 3144.00
1803, 3143.00
1804, 3142.00
1805, 3141.00
1806, 3143.00
1807, 3138.00
1808, 3140.00
1809, 3138.00
1810, 3139.00
1811, 3137.00
1812, 3137.00
1813, 3136.00
1814, 3136.00
1815, 3135.00
1816, 3133.00
1817, 3130.00
1818, 3131.00
1819, 3130.00
1820, 3126.00
1821, 3125.00
1822, 3124.00
1823, 3122.00
1824, 3120.00
1825, 3119.00
1826, 3118.00
1827, 3116.00
1828, 3115.00
1829, 3111.00
1830, 3111.00
1831, 3108.00
1832, 3107.00
1833, 3105.00
1834, 3102.00
1835, 3098.00
1836, 3095.00
1837, 3094.00
1838, 3091.00
1839, 3087.00
1840, 3086.00
1841, 3084.00
1842, 3080.00
1843, 3077.00
1844, 3074.00
1845, 3071.00
1846, 3068.00
1847, 3066.00
1848, 3062.00
1849, 3056.00
1850, 3054.00
1851, 3051.00
1852, 3050.00
1853, 3047.00
1854, 3046.00
1855, 3040.00
1856, 3038.00
1857, 3035.00
1858, 3031.00
1859, 3031.00
1860, 3026.00
1861, 3025.00
1862, 3022.00
1863, 3020.00
1864, 3019.00
1865, 3017.00
1866, 3017.00
1867, 3011.00
1868, 3008.00
1869, 3008.00
1870, 3007.00
1871, 3006.00
1872, 3003.00
1873, 3002.00
1874, 3001.00
1875, 3002.00
1876, 2996.00
1877, 2998.00
1878, 2994.00
1879, 2993.00
1880, 2993.00
1881, 2994.00
1882, 2991.00
1883, 2989.00
1884, 2989.00
1885, 2989.00
1886, 2989.00
1887, 2986.00
1888, 2987.00
1889, 2987.00
1890, 2985.00
1891, 2985.00
1892, 2984.00
1893, 2982.00
1894, 2981.00
1895, 2984.00
1896, 2978.00
1897, 2983.00
1898, 2980.00
1899, 2979.00
1900, 2979.00
1901, 2979.00
1902, 2978.00
1903, 2978.00
1904, 2978.00
1905, 2979.00
1906, 2976.00
1907, 2979.00
1908, 2977.00
1909, 2977.00
1910, 2976.00
1911, 2976.00
1912, 2975.00
1913, 2973.00
1914, 2974.00
1915, 2973.00
1916, 2974.00
1917, 2975.00
1918, 2975.00
1919, 2974.00
1920, 2975.00
1921, 2973.00
1922, 2974.00
1923, 2974.00
1924, 2973.00
1925, 2974.00
1926, 2975.00
1927, 2973.00
1928, 2973.00
1929, 2975.00
1930, 2973.00
1931, 2973.00
1932, 2975.00
1933, 2972.00
1934, 2973.00
1935, 2973.00
1936, 2973.00
1937, 2973.00
1938, 2974.00
1939, 2975.00
1940, 2976.00
1941, 2974.00
1942, 2975.00
1943, 2975.00
1944, 2975.00
1945, 2976.00
1946, 2975.00
1947, 2979.00
1948, 2978.00
1949, 2977.00
1950, 2978.00
1951, 2976.00
1952, 2976.00
1953, 2979.00
1954, 2978.00
1955, 2978.00
1956, 2978.00
1957, 2980.00
1958, 2982.00
1959, 2980.00
1960, 2984.00
1961, 2984.00
1962, 2983.00
1963, 2983.00
1964, 2982.00
1965, 2983.00
1966, 2984.00
1967, 2983.00
1968, 2987.00
1969, 2985.00
1970, 2989.00
1971, 2988.00
1972, 2989.00
1973, 2990.00
1974, 2990.00
1975, 2991.00
1976, 2991.00
1977, 2991.00
1978, 2994.00
1979, 2993.00
1980, 2994.00
1981, 2995.00
1982, 2995.00
1983, 2996.00
1984, 2997.00
1985, 2997.00
1986, 2997.00
1987, 2999.00
1988, 2999.00
1989, 2998.00
1990, 3000.00
1991, 3003.00
1992, 3003.00
1993, 3003.00
1994, 3000.00
1995, 3006.00
1996, 3005.00
1997, 3005.00
1998, 3007.00
1999, 3007.00
2000, 3007.00
2001, 3009.00
2002, 3009.00
2003, 3008.00
2004, 3012.00
2005, 3009.00
2006, 3010.00
2007, 3011.00
2008, 3013.00
2009, 3013.00
2010, 3015.00
2011, 3015.00
2012, 3016.00
2013, 3018.00
2014, 3016.00
2015, 3016.00
2016, 3018.00
2017, 3020.00
2018, 3021.00
2019, 3021.00
2020, 3021.00
2021, 3021.00
2022, 3021.00
2023, 3021.00
2024, 3023.00
2025, 3026.00
2026, 3026.00
2027, 3027.00
2028, 3027.00
2029, 3027.00
2030, 3029.00
2031, 3028.00
2032, 3031.00
2033, 3031.00
2034, 3032.00
2035, 3032.00
2036, 3033.00
2037, 3033.00
2038, 3035.00
2039, 3035.00
2040, 3038.00
2041, 3038.00
2042, 3039.00
2043, 3038.00
2044, 3040.00
2045, 3041.00
2046, 3043.00
2047, 3043.00
2048, 3045.00
2049, 3047.00
2050, 3047.00
2051, 3048.00
2052, 3047.00
2053, 3052.00
2054, 3052.00
2055, 3051.00
2056, 3052.00
2057, 3054.00
2058, 3057.00
2059, 3055.00
2060, 3057.00
2061, 3058.00
2062, 3061.00
2063, 3063.00
2064, 3061.00
2065, 3061.00
2066, 3064.00
2067, 3065.00
2068, 3067.00
2069, 3070.00
2070, 3068.00
2071, 3070.00
2072, 3072.00
2073, 3071.00
2074, 3071.00
2075, 3074.00
2076, 3074.00
2077, 3075.00
2078, 3077.00
2079, 3078.00
2080, 3080.00
2081, 3078.00
2082, 3080.00
2083, 3080.00
2084, 3083.00
2085, 3082.00
2086, 3084.00
2087, 3084.00
2088, 3085.00
2089, 3087.00
2090, 3087.00
2091, 3088.00
2092, 3088.00
2093, 3089.00
2094, 3090.00
2095, 3090.00
2096, 3092.00
2097, 3094.00
2098, 3092.00
2099, 3096.00
2100, 3096.00
2101, 3094.00
2102, 3097.00
2103, 3096.00
2104, 3098.00
2105, 3096.00
2106, 3101.00
2107, 3099.00
2108, 3098.00
2109, 3098.00
2110, 3102.00
2111, 3101.00
2112, 3101.00
2113, 3101.00
2114, 3102.00
2115, 3101.00
2116, 3104.00
2117, 3105.00
2118, 3106.00
2119, 3105.00
2120, 3107.00
2121, 3106.00
2122, 3107.00
2123, 3108.00
2124, 3108.00
2125, 3108.00
2126, 3107.00
2127, 3109.00
2128, 3111.00
2129, 3110.00
2130, 3112.00
2131, 3112.00
2132, 3112.00
2133, 3113.00
2134, 3113.00
2135, 3113.00
2136, 3115.00
2137, 3115.00
2138, 3114.00
2139, 3113.00
2140, 3116.00
2141, 3116.00
2142, 3115.00
2143, 3117.00
2144, 3119.00
2145, 3117.00
2146, 3117.00
2147, 3118.00
2148, 3119.00
2149, 3119.00
2150, 3119.00
