FW version: 24
Log Version: 3.0.3

General Info:
       Command/Macro Performed,            Timestamp,             Device ID, COM Port, UART/I2C, Test Name, Host Major, Host Minor, Host Revision, Host Git Commit
            Single_measurement,  2023_07_11_11_23_19,       Insight2_F4_xxx,    USB-C,      USB,          ,          0,          1,             1,      4031237645

Show Spectrometer Status:
l0_version, f4_version, battery_perc, battery_mVolt, accelerometer_temp, accelerometer_x, accelerometer_y, accelerometer_z, compass_temp, compass_x, compass_y, compass_z, lamp_0, lamp_1, gain_0, gain_1
        17,         24,           50,          1918,               6912,           65208,            1212,           18844,            0,     65470,     65532,     18941,   2866,   2866,      1,      1

Temperature Statistic Info:
NTC AVG [°C], NTC2 AVG [°C]
      41.803,        41.477

Statistic Info:
M1:  num,      min,      max,   median,      AVG,      STD,M2:  num,      min,      max,   median,      AVG,      STD
     301,  1824.00,  2106.00,  1882.00,  1916.52,  87.5160,     401,  2395.00,  2555.00,  2460.00,  2464.26,  52.1196,

Measurements:
Wavelength, Data Amplitude
1350, 1873.00
1351, 1873.00
1352, 1872.00
1353, 1871.00
1354, 1869.00
1355, 1869.00
1356, 1868.00
1357, 1867.00
1358, 1866.00
1359, 1865.00
1360, 1864.00
1361, 1862.00
1362, 1861.00
1363, 1858.00
1364, 1858.00
1365, 1857.00
1366, 1855.00
1367, 1855.00
1368, 1853.00
1369, 1851.00
1370, 1850.00
1371, 1849.00
1372, 1847.00
1373, 1846.00
1374, 1845.00
1375, 1844.00
1376, 1843.00
1377, 1842.00
1378, 1841.00
1379, 1839.00
1380, 1840.00
1381, 1838.00
1382, 1838.00
1383, 1837.00
1384, 1835.00
1385, 1835.00
1386, 1834.00
1387, 1833.00
1388, 1833.00
1389, 1832.00
1390, 1831.00
1391, 1831.00
1392, 1831.00
1393, 1831.00
1394, 1830.00
1395, 1829.00
1396, 1829.00
1397, 1830.00
1398, 1828.00
1399, 1827.00
1400, 1828.00
1401, 1827.00
1402, 1827.00
1403, 1826.00
1404, 1827.00
1405, 1826.00
1406, 1826.00
1407, 1826.00
1408, 1825.00
1409, 1825.00
1410, 1827.00
1411, 1826.00
1412, 1826.00
1413, 1826.00
1414, 1825.00
1415, 1826.00
1416, 1825.00
1417, 1825.00
1418, 1826.00
1419, 1825.00
1420, 1827.00
1421, 1825.00
1422, 1825.00
1423, 1826.00
1424, 1825.00
1425, 1824.00
1426, 1826.00
1427, 1827.00
1428, 1827.00
1429, 1826.00
1430, 1827.00
1431, 1826.00
1432, 1828.00
1433, 1828.00
1434, 1828.00
1435, 1828.00
1436, 1829.00
1437, 1829.00
1438, 1829.00
1439, 1830.00
1440, 1830.00
1441, 1831.00
1442, 1831.00
1443, 1831.00
1444, 1833.00
1445, 1833.00
1446, 1833.00
1447, 1834.00
1448, 1834.00
1449, 1834.00
1450, 1836.00
1451, 1836.00
1452, 1835.00
1453, 1838.00
1454, 1837.00
1455, 1839.00
1456, 1840.00
1457, 1839.00
1458, 1840.00
1459, 1841.00
1460, 1842.00
1461, 1842.00
1462, 1843.00
1463, 1844.00
1464, 1845.00
1465, 1845.00
1466, 1845.00
1467, 1848.00
1468, 1848.00
1469, 1848.00
1470, 1850.00
1471, 1850.00
1472, 1852.00
1473, 1853.00
1474, 1854.00
1475, 1854.00
1476, 1857.00
1477, 1856.00
1478, 1858.00
1479, 1859.00
1480, 1859.00
1481, 1861.00
1482, 1862.00
1483, 1862.00
1484, 1864.00
1485, 1865.00
1486, 1866.00
1487, 1867.00
1488, 1869.00
1489, 1870.00
1490, 1871.00
1491, 1871.00
1492, 1873.00
1493, 1873.00
1494, 1875.00
1495, 1876.00
1496, 1878.00
1497, 1878.00
1498, 1879.00
1499, 1881.00
1500, 1882.00
1501, 1883.00
1502, 1884.00
1503, 1885.00
1504, 1886.00
1505, 1888.00
1506, 1889.00
1507, 1890.00
1508, 1892.00
1509, 1893.00
1510, 1893.00
1511, 1894.00
1512, 1897.00
1513, 1897.00
1514, 1899.00
1515, 1900.00
1516, 1901.00
1517, 1903.00
1518, 1903.00
1519, 1904.00
1520, 1908.00
1521, 1907.00
1522, 1909.00
1523, 1911.00
1524, 1913.00
1525, 1914.00
1526, 1914.00
1527, 1917.00
1528, 1918.00
1529, 1919.00
1530, 1921.00
1531, 1921.00
1532, 1923.00
1533, 1923.00
1534, 1926.00
1535, 1927.00
1536, 1929.00
1537, 1930.00
1538, 1931.00
1539, 1933.00
1540, 1934.00
1541, 1936.00
1542, 1937.00
1543, 1939.00
1544, 1941.00
1545, 1941.00
1546, 1943.00
1547, 1944.00
1548, 1946.00
1549, 1947.00
1550, 1949.00
1551, 1950.00
1552, 1951.00
1553, 1953.00
1554, 1955.00
1555, 1956.00
1556, 1957.00
1557, 1960.00
1558, 1962.00
1559, 1963.00
1560, 1965.00
1561, 1966.00
1562, 1967.00
1563, 1969.00
1564, 1971.00
1565, 1971.00
1566, 1974.00
1567, 1977.00
1568, 1977.00
1569, 1979.00
1570, 1982.00
1571, 1982.00
1572, 1984.00
1573, 1986.00
1574, 1988.00
1575, 1989.00
1576, 1990.00
1577, 1991.00
1578, 1994.00
1579, 1994.00
1580, 1995.00
1581, 1998.00
1582, 1997.00
1583, 1999.00
1584, 2002.00
1585, 2002.00
1586, 2004.00
1587, 2005.00
1588, 2006.00
1589, 2007.00
1590, 2009.00
1591, 2011.00
1592, 2013.00
1593, 2013.00
1594, 2015.00
1595, 2016.00
1596, 2018.00
1597, 2020.00
1598, 2020.00
1599, 2023.00
1600, 2023.00
1601, 2026.00
1602, 2027.00
1603, 2029.00
1604, 2029.00
1605, 2031.00
1606, 2033.00
1607, 2035.00
1608, 2037.00
1609, 2037.00
1610, 2040.00
1611, 2042.00
1612, 2043.00
1613, 2046.00
1614, 2047.00
1615, 2049.00
1616, 2051.00
1617, 2052.00
1618, 2056.00
1619, 2056.00
1620, 2058.00
1621, 2061.00
1622, 2061.00
1623, 2064.00
1624, 2065.00
1625, 2068.00
1626, 2069.00
1627, 2070.00
1628, 2072.00
1629, 2075.00
1630, 2076.00
1631, 2077.00
1632, 2080.00
1633, 2081.00
1634, 2082.00
1635, 2083.00
1636, 2084.00
1637, 2087.00
1638, 2087.00
1639, 2090.00
1640, 2092.00
1641, 2092.00
1642, 2093.00
1643, 2094.00
1644, 2097.00
1645, 2097.00
1646, 2100.00
1647, 2102.00
1648, 2103.00
1649, 2105.00
1650, 2106.00

1750, 2552.00
1751, 2553.00
1752, 2552.00
1753, 2554.00
1754, 2555.00
1755, 2553.00
1756, 2554.00
1757, 2553.00
1758, 2555.00
1759, 2555.00
1760, 2553.00
1761, 2551.00
1762, 2555.00
1763, 2553.00
1764, 2553.00
1765, 2552.00
1766, 2550.00
1767, 2553.00
1768, 2551.00
1769, 2553.00
1770, 2550.00
1771, 2549.00
1772, 2550.00
1773, 2550.00
1774, 2549.00
1775, 2548.00
1776, 2549.00
1777, 2545.00
1778, 2548.00
1779, 2547.00
1780, 2545.00
1781, 2546.00
1782, 2547.00
1783, 2542.00
1784, 2545.00
1785, 2544.00
1786, 2542.00
1787, 2543.00
1788, 2540.00
1789, 2540.00
1790, 2540.00
1791, 2540.00
1792, 2540.00
1793, 2537.00
1794, 2538.00
1795, 2538.00
1796, 2537.00
1797, 2537.00
1798, 2538.00
1799, 2535.00
1800, 2535.00
1801, 2533.00
1802, 2535.00
1803, 2535.00
1804, 2534.00
1805, 2531.00
1806, 2531.00
1807, 2532.00
1808, 2530.00
1809, 2530.00
1810, 2530.00
1811, 2526.00
1812, 2529.00
1813, 2528.00
1814, 2526.00
1815, 2525.00
1816, 2524.00
1817, 2524.00
1818, 2522.00
1819, 2523.00
1820, 2520.00
1821, 2519.00
1822, 2517.00
1823, 2516.00
1824, 2517.00
1825, 2513.00
1826, 2514.00
1827, 2511.00
1828, 2511.00
1829, 2509.00
1830, 2507.00
1831, 2505.00
1832, 2504.00
1833, 2500.00
1834, 2501.00
1835, 2497.00
1836, 2497.00
1837, 2493.00
1838, 2491.00
1839, 2491.00
1840, 2489.00
1841, 2485.00
1842, 2484.00
1843, 2480.00
1844, 2479.00
1845, 2474.00
1846, 2475.00
1847, 2470.00
1848, 2468.00
1849, 2466.00
1850, 2462.00
1851, 2461.00
1852, 2460.00
1853, 2457.00
1854, 2451.00
1855, 2451.00
1856, 2449.00
1857, 2447.00
1858, 2444.00
1859, 2442.00
1860, 2442.00
1861, 2438.00
1862, 2435.00
1863, 2435.00
1864, 2434.00
1865, 2433.00
1866, 2429.00
1867, 2428.00
1868, 2428.00
1869, 2425.00
1870, 2423.00
1871, 2424.00
1872, 2421.00
1873, 2420.00
1874, 2419.00
1875, 2417.00
1876, 2416.00
1877, 2415.00
1878, 2414.00
1879, 2415.00
1880, 2413.00
1881, 2411.00
1882, 2411.00
1883, 2410.00
1884, 2411.00
1885, 2409.00
1886, 2408.00
1887, 2407.00
1888, 2407.00
1889, 2405.00
1890, 2406.00
1891, 2402.00
1892, 2405.00
1893, 2405.00
1894, 2404.00
1895, 2403.00
1896, 2403.00
1897, 2404.00
1898, 2402.00
1899, 2401.00
1900, 2401.00
1901, 2400.00
1902, 2401.00
1903, 2400.00
1904, 2400.00
1905, 2399.00
1906, 2399.00
1907, 2400.00
1908, 2398.00
1909, 2399.00
1910, 2397.00
1911, 2398.00
1912, 2397.00
1913, 2398.00
1914, 2397.00
1915, 2399.00
1916, 2397.00
1917, 2398.00
1918, 2398.00
1919, 2395.00
1920, 2396.00
1921, 2397.00
1922, 2395.00
1923, 2397.00
1924, 2396.00
1925, 2398.00
1926, 2395.00
1927, 2396.00
1928, 2396.00
1929, 2395.00
1930, 2397.00
1931, 2397.00
1932, 2397.00
1933, 2396.00
1934, 2396.00
1935, 2397.00
1936, 2397.00
1937, 2397.00
1938, 2397.00
1939, 2396.00
1940, 2396.00
1941, 2397.00
1942, 2399.00
1943, 2397.00
1944, 2399.00
1945, 2398.00
1946, 2398.00
1947, 2400.00
1948, 2399.00
1949, 2400.00
1950, 2400.00
1951, 2400.00
1952, 2402.00
1953, 2401.00
1954, 2401.00
1955, 2403.00
1956, 2402.00
1957, 2400.00
1958, 2404.00
1959, 2404.00
1960, 2402.00
1961, 2403.00
1962, 2407.00
1963, 2404.00
1964, 2405.00
1965, 2405.00
1966, 2406.00
1967, 2408.00
1968, 2407.00
1969, 2409.00
1970, 2409.00
1971, 2409.00
1972, 2411.00
1973, 2409.00
1974, 2410.00
1975, 2412.00
1976, 2412.00
1977, 2411.00
1978, 2412.00
1979, 2414.00
1980, 2413.00
1981, 2416.00
1982, 2413.00
1983, 2415.00
1984, 2415.00
1985, 2418.00
1986, 2417.00
1987, 2418.00
1988, 2416.00
1989, 2418.00
1990, 2418.00
1991, 2418.00
1992, 2420.00
1993, 2421.00
1994, 2421.00
1995, 2420.00
1996, 2423.00
1997, 2424.00
1998, 2423.00
1999, 2423.00
2000, 2424.00
2001, 2428.00
2002, 2427.00
2003, 2427.00
2004, 2425.00
2005, 2427.00
2006, 2428.00
2007, 2429.00
2008, 2429.00
2009, 2429.00
2010, 2431.00
2011, 2431.00
2012, 2431.00
2013, 2431.00
2014, 2432.00
2015, 2432.00
2016, 2433.00
2017, 2434.00
2018, 2434.00
2019, 2437.00
2020, 2435.00
2021, 2437.00
2022, 2437.00
2023, 2438.00
2024, 2438.00
2025, 2438.00
2026, 2439.00
2027, 2440.00
2028, 2441.00
2029, 2443.00
2030, 2443.00
2031, 2443.00
2032, 2445.00
2033, 2445.00
2034, 2443.00
2035, 2446.00
2036, 2445.00
2037, 2446.00
2038, 2446.00
2039, 2447.00
2040, 2448.00
2041, 2450.00
2042, 2450.00
2043, 2451.00
2044, 2451.00
2045, 2453.00
2046, 2455.00
2047, 2455.00
2048, 2454.00
2049, 2455.00
2050, 2456.00
2051, 2458.00
2052, 2459.00
2053, 2460.00
2054, 2461.00
2055, 2460.00
2056, 2461.00
2057, 2462.00
2058, 2462.00
2059, 2465.00
2060, 2466.00
2061, 2465.00
2062, 2467.00
2063, 2470.00
2064, 2469.00
2065, 2469.00
2066, 2471.00
2067, 2471.00
2068, 2473.00
2069, 2473.00
2070, 2475.00
2071, 2475.00
2072, 2478.00
2073, 2479.00
2074, 2478.00
2075, 2479.00
2076, 2480.00
2077, 2480.00
2078, 2479.00
2079, 2481.00
2080, 2483.00
2081, 2485.00
2082, 2483.00
2083, 2485.00
2084, 2488.00
2085, 2486.00
2086, 2487.00
2087, 2487.00
2088, 2490.00
2089, 2489.00
2090, 2491.00
2091, 2489.00
2092, 2491.00
2093, 2492.00
2094, 2493.00
2095, 2494.00
2096, 2493.00
2097, 2496.00
2098, 2495.00
2099, 2495.00
2100, 2496.00
2101, 2496.00
2102, 2499.00
2103, 2497.00
2104, 2499.00
2105, 2501.00
2106, 2499.00
2107, 2500.00
2108, 2500.00
2109, 2502.00
2110, 2501.00
2111, 2503.00
2112, 2503.00
2113, 2503.00
2114, 2503.00
2115, 2503.00
2116, 2505.00
2117, 2503.00
2118, 2505.00
2119, 2505.00
2120, 2504.00
2121, 2506.00
2122, 2509.00
2123, 2507.00
2124, 2507.00
2125, 2509.00
2126, 2509.00
2127, 2511.00
2128, 2510.00
2129, 2511.00
2130, 2510.00
2131, 2512.00
2132, 2512.00
2133, 2512.00
2134, 2511.00
2135, 2511.00
2136, 2513.00
2137, 2513.00
2138, 2513.00
2139, 2513.00
2140, 2514.00
2141, 2514.00
2142, 2514.00
2143, 2514.00
2144, 2515.00
2145, 2515.00
2146, 2516.00
2147, 2517.00
2148, 2518.00
2149, 2516.00
2150, 2517.00
