FW version: 24
Log Version: 3.0.3

General Info:
       Command/Macro Performed,            Timestamp,             Device ID, COM Port, UART/I2C, Test Name, Host Major, Host Minor, Host Revision, Host Git Commit
            Single_measurement,  2023_07_11_11_22_29,       Insight2_F4_xxx,    USB-C,      USB,          ,          0,          1,             1,      4031237645

Show Spectrometer Status:
l0_version, f4_version, battery_perc, battery_mVolt, accelerometer_temp, accelerometer_x, accelerometer_y, accelerometer_z, compass_temp, compass_x, compass_y, compass_z, lamp_0, lamp_1, gain_0, gain_1
        17,         24,           50,          1907,               6912,           65196,            1196,           18824,            0,     65469,     65471,     18924,   3276,   3276,      0,      0

Temperature Statistic Info:
NTC AVG [°C], NTC2 AVG [°C]
      41.507,        41.177

Statistic Info:
M1:  num,      min,      max,   median,      AVG,      STD,M2:  num,      min,      max,   median,      AVG,      STD
     301,   810.00,   930.00,   834.00,   849.61,  37.4271,     401,  1028.00,  1097.00,  1055.00,  1057.47,  22.2812,

Measurements:
Wavelength, Data Amplitude
1350, 833.00
1351, 832.00
1352, 832.00
1353, 832.00
1354, 830.00
1355, 831.00
1356, 830.00
1357, 829.00
1358, 829.00
1359, 828.00
1360, 828.00
1361, 828.00
1362, 827.00
1363, 826.00
1364, 826.00
1365, 825.00
1366, 824.00
1367, 824.00
1368, 823.00
1369, 823.00
1370, 822.00
1371, 822.00
1372, 821.00
1373, 820.00
1374, 820.00
1375, 819.00
1376, 818.00
1377, 818.00
1378, 817.00
1379, 818.00
1380, 817.00
1381, 817.00
1382, 816.00
1383, 815.00
1384, 815.00
1385, 815.00
1386, 815.00
1387, 814.00
1388, 814.00
1389, 814.00
1390, 813.00
1391, 813.00
1392, 813.00
1393, 813.00
1394, 812.00
1395, 813.00
1396, 813.00
1397, 812.00
1398, 812.00
1399, 811.00
1400, 812.00
1401, 812.00
1402, 812.00
1403, 811.00
1404, 811.00
1405, 811.00
1406, 811.00
1407, 811.00
1408, 811.00
1409, 811.00
1410, 811.00
1411, 811.00
1412, 811.00
1413, 811.00
1414, 811.00
1415, 810.00
1416, 810.00
1417, 811.00
1418, 810.00
1419, 810.00
1420, 811.00
1421, 810.00
1422, 811.00
1423, 811.00
1424, 810.00
1425, 810.00
1426, 810.00
1427, 810.00
1428, 811.00
1429, 811.00
1430, 811.00
1431, 811.00
1432, 811.00
1433, 811.00
1434, 812.00
1435, 812.00
1436, 812.00
1437, 812.00
1438, 812.00
1439, 813.00
1440, 812.00
1441, 813.00
1442, 812.00
1443, 813.00
1444, 813.00
1445, 814.00
1446, 814.00
1447, 814.00
1448, 814.00
1449, 814.00
1450, 815.00
1451, 814.00
1452, 815.00
1453, 815.00
1454, 815.00
1455, 816.00
1456, 816.00
1457, 816.00
1458, 816.00
1459, 817.00
1460, 817.00
1461, 818.00
1462, 818.00
1463, 818.00
1464, 819.00
1465, 819.00
1466, 819.00
1467, 820.00
1468, 819.00
1469, 820.00
1470, 820.00
1471, 821.00
1472, 822.00
1473, 822.00
1474, 822.00
1475, 822.00
1476, 823.00
1477, 823.00
1478, 824.00
1479, 825.00
1480, 825.00
1481, 825.00
1482, 826.00
1483, 827.00
1484, 827.00
1485, 827.00
1486, 827.00
1487, 828.00
1488, 829.00
1489, 829.00
1490, 830.00
1491, 830.00
1492, 831.00
1493, 832.00
1494, 831.00
1495, 832.00
1496, 833.00
1497, 833.00
1498, 833.00
1499, 834.00
1500, 834.00
1501, 835.00
1502, 836.00
1503, 836.00
1504, 836.00
1505, 837.00
1506, 838.00
1507, 838.00
1508, 838.00
1509, 839.00
1510, 840.00
1511, 840.00
1512, 841.00
1513, 841.00
1514, 842.00
1515, 842.00
1516, 843.00
1517, 844.00
1518, 844.00
1519, 844.00
1520, 845.00
1521, 846.00
1522, 847.00
1523, 847.00
1524, 847.00
1525, 848.00
1526, 849.00
1527, 849.00
1528, 850.00
1529, 850.00
1530, 851.00
1531, 851.00
1532, 852.00
1533, 853.00
1534, 853.00
1535, 854.00
1536, 855.00
1537, 856.00
1538, 856.00
1539, 856.00
1540, 857.00
1541, 858.00
1542, 859.00
1543, 859.00
1544, 859.00
1545, 860.00
1546, 861.00
1547, 862.00
1548, 862.00
1549, 863.00
1550, 863.00
1551, 864.00
1552, 865.00
1553, 865.00
1554, 866.00
1555, 867.00
1556, 867.00
1557, 868.00
1558, 869.00
1559, 870.00
1560, 870.00
1561, 871.00
1562, 871.00
1563, 872.00
1564, 873.00
1565, 874.00
1566, 874.00
1567, 875.00
1568, 876.00
1569, 876.00
1570, 877.00
1571, 878.00
1572, 879.00
1573, 879.00
1574, 880.00
1575, 881.00
1576, 881.00
1577, 882.00
1578, 882.00
1579, 883.00
1580, 883.00
1581, 884.00
1582, 885.00
1583, 886.00
1584, 886.00
1585, 886.00
1586, 887.00
1587, 888.00
1588, 888.00
1589, 889.00
1590, 889.00
1591, 890.00
1592, 891.00
1593, 892.00
1594, 892.00
1595, 893.00
1596, 894.00
1597, 894.00
1598, 895.00
1599, 895.00
1600, 896.00
1601, 896.00
1602, 897.00
1603, 897.00
1604, 898.00
1605, 899.00
1606, 899.00
1607, 901.00
1608, 901.00
1609, 902.00
1610, 903.00
1611, 904.00
1612, 904.00
1613, 905.00
1614, 906.00
1615, 906.00
1616, 907.00
1617, 908.00
1618, 908.00
1619, 909.00
1620, 910.00
1621, 911.00
1622, 912.00
1623, 913.00
1624, 913.00
1625, 914.00
1626, 915.00
1627, 916.00
1628, 916.00
1629, 917.00
1630, 917.00
1631, 918.00
1632, 919.00
1633, 919.00
1634, 920.00
1635, 921.00
1636, 921.00
1637, 922.00
1638, 923.00
1639, 923.00
1640, 923.00
1641, 925.00
1642, 925.00
1643, 925.00
1644, 927.00
1645, 927.00
1646, 928.00
1647, 928.00
1648, 929.00
1649, 930.00
1650, 930.00

1750, 1096.00
1751, 1096.00
1752, 1096.00
1753, 1096.00
1754, 1096.00
1755, 1097.00
1756, 1096.00
1757, 1096.00
1758, 1096.00
1759, 1097.00
1760, 1097.00
1761, 1097.00
1762, 1095.00
1763, 1096.00
1764, 1096.00
1765, 1096.00
1766, 1096.00
1767, 1096.00
1768, 1096.00
1769, 1095.00
1770, 1096.00
1771, 1095.00
1772, 1095.00
1773, 1094.00
1774, 1094.00
1775, 1094.00
1776, 1093.00
1777, 1094.00
1778, 1093.00
1779, 1093.00
1780, 1093.00
1781, 1093.00
1782, 1092.00
1783, 1092.00
1784, 1092.00
1785, 1092.00
1786, 1091.00
1787, 1091.00
1788, 1091.00
1789, 1091.00
1790, 1091.00
1791, 1090.00
1792, 1091.00
1793, 1090.00
1794, 1090.00
1795, 1089.00
1796, 1089.00
1797, 1089.00
1798, 1089.00
1799, 1089.00
1800, 1088.00
1801, 1088.00
1802, 1087.00
1803, 1087.00
1804, 1087.00
1805, 1087.00
1806, 1087.00
1807, 1087.00
1808, 1086.00
1809, 1086.00
1810, 1085.00
1811, 1085.00
1812, 1086.00
1813, 1085.00
1814, 1085.00
1815, 1084.00
1816, 1084.00
1817, 1083.00
1818, 1084.00
1819, 1083.00
1820, 1082.00
1821, 1081.00
1822, 1081.00
1823, 1081.00
1824, 1080.00
1825, 1080.00
1826, 1079.00
1827, 1078.00
1828, 1077.00
1829, 1077.00
1830, 1076.00
1831, 1075.00
1832, 1075.00
1833, 1074.00
1834, 1073.00
1835, 1071.00
1836, 1071.00
1837, 1071.00
1838, 1070.00
1839, 1069.00
1840, 1068.00
1841, 1067.00
1842, 1066.00
1843, 1065.00
1844, 1064.00
1845, 1063.00
1846, 1062.00
1847, 1060.00
1848, 1060.00
1849, 1058.00
1850, 1058.00
1851, 1057.00
1852, 1056.00
1853, 1054.00
1854, 1053.00
1855, 1052.00
1856, 1052.00
1857, 1051.00
1858, 1049.00
1859, 1049.00
1860, 1048.00
1861, 1047.00
1862, 1046.00
1863, 1045.00
1864, 1044.00
1865, 1044.00
1866, 1043.00
1867, 1042.00
1868, 1042.00
1869, 1041.00
1870, 1040.00
1871, 1039.00
1872, 1039.00
1873, 1040.00
1874, 1039.00
1875, 1037.00
1876, 1037.00
1877, 1037.00
1878, 1036.00
1879, 1036.00
1880, 1036.00
1881, 1036.00
1882, 1035.00
1883, 1035.00
1884, 1034.00
1885, 1034.00
1886, 1033.00
1887, 1033.00
1888, 1034.00
1889, 1033.00
1890, 1033.00
1891, 1033.00
1892, 1032.00
1893, 1033.00
1894, 1032.00
1895, 1032.00
1896, 1032.00
1897, 1031.00
1898, 1031.00
1899, 1031.00
1900, 1031.00
1901, 1030.00
1902, 1030.00
1903, 1030.00
1904, 1030.00
1905, 1030.00
1906, 1030.00
1907, 1030.00
1908, 1029.00
1909, 1030.00
1910, 1029.00
1911, 1029.00
1912, 1029.00
1913, 1029.00
1914, 1029.00
1915, 1029.00
1916, 1029.00
1917, 1030.00
1918, 1028.00
1919, 1029.00
1920, 1028.00
1921, 1029.00
1922, 1029.00
1923, 1028.00
1924, 1029.00
1925, 1028.00
1926, 1029.00
1927, 1030.00
1928, 1029.00
1929, 1029.00
1930, 1029.00
1931, 1028.00
1932, 1029.00
1933, 1029.00
1934, 1028.00
1935, 1029.00
1936, 1029.00
1937, 1029.00
1938, 1029.00
1939, 1029.00
1940, 1029.00
1941, 1029.00
1942, 1030.00
1943, 1029.00
1944, 1029.00
1945, 1030.00
1946, 1029.00
1947, 1030.00
1948, 1029.00
1949, 1031.00
1950, 1030.00
1951, 1030.00
1952, 1030.00
1953, 1030.00
1954, 1031.00
1955, 1030.00
1956, 1031.00
1957, 1031.00
1958, 1031.00
1959, 1031.00
1960, 1032.00
1961, 1032.00
1962, 1032.00
1963, 1032.00
1964, 1032.00
1965, 1033.00
1966, 1033.00
1967, 1033.00
1968, 1033.00
1969, 1033.00
1970, 1033.00
1971, 1034.00
1972, 1034.00
1973, 1034.00
1974, 1034.00
1975, 1035.00
1976, 1035.00
1977, 1034.00
1978, 1036.00
1979, 1035.00
1980, 1036.00
1981, 1036.00
1982, 1036.00
1983, 1037.00
1984, 1037.00
1985, 1037.00
1986, 1037.00
1987, 1037.00
1988, 1038.00
1989, 1037.00
1990, 1039.00
1991, 1039.00
1992, 1039.00
1993, 1038.00
1994, 1039.00
1995, 1040.00
1996, 1040.00
1997, 1040.00
1998, 1040.00
1999, 1041.00
2000, 1041.00
2001, 1041.00
2002, 1041.00
2003, 1041.00
2004, 1041.00
2005, 1042.00
2006, 1041.00
2007, 1042.00
2008, 1043.00
2009, 1043.00
2010, 1042.00
2011, 1043.00
2012, 1044.00
2013, 1044.00
2014, 1044.00
2015, 1044.00
2016, 1044.00
2017, 1045.00
2018, 1044.00
2019, 1045.00
2020, 1046.00
2021, 1046.00
2022, 1045.00
2023, 1046.00
2024, 1047.00
2025, 1047.00
2026, 1046.00
2027, 1048.00
2028, 1047.00
2029, 1048.00
2030, 1048.00
2031, 1048.00
2032, 1048.00
2033, 1049.00
2034, 1049.00
2035, 1049.00
2036, 1049.00
2037, 1049.00
2038, 1050.00
2039, 1050.00
2040, 1050.00
2041, 1051.00
2042, 1051.00
2043, 1051.00
2044, 1052.00
2045, 1052.00
2046, 1053.00
2047, 1053.00
2048, 1053.00
2049, 1054.00
2050, 1054.00
2051, 1054.00
2052, 1054.00
2053, 1055.00
2054, 1056.00
2055, 1055.00
2056, 1057.00
2057, 1056.00
2058, 1056.00
2059, 1057.00
2060, 1057.00
2061, 1057.00
2062, 1058.00
2063, 1059.00
2064, 1059.00
2065, 1059.00
2066, 1060.00
2067, 1060.00
2068, 1060.00
2069, 1062.00
2070, 1061.00
2071, 1061.00
2072, 1062.00
2073, 1062.00
2074, 1063.00
2075, 1063.00
2076, 1063.00
2077, 1064.00
2078, 1064.00
2079, 1064.00
2080, 1065.00
2081, 1065.00
2082, 1065.00
2083, 1066.00
2084, 1066.00
2085, 1067.00
2086, 1067.00
2087, 1067.00
2088, 1067.00
2089, 1067.00
2090, 1068.00
2091, 1068.00
2092, 1069.00
2093, 1068.00
2094, 1068.00
2095, 1069.00
2096, 1069.00
2097, 1070.00
2098, 1070.00
2099, 1071.00
2100, 1070.00
2101, 1071.00
2102, 1071.00
2103, 1071.00
2104, 1072.00
2105, 1072.00
2106, 1072.00
2107, 1072.00
2108, 1072.00
2109, 1072.00
2110, 1073.00
2111, 1073.00
2112, 1073.00
2113, 1073.00
2114, 1073.00
2115, 1074.00
2116, 1073.00
2117, 1073.00
2118, 1074.00
2119, 1075.00
2120, 1075.00
2121, 1075.00
2122, 1075.00
2123, 1075.00
2124, 1075.00
2125, 1075.00
2126, 1075.00
2127, 1076.00
2128, 1076.00
2129, 1076.00
2130, 1077.00
2131, 1076.00
2132, 1076.00
2133, 1076.00
2134, 1077.00
2135, 1077.00
2136, 1077.00
2137, 1077.00
2138, 1077.00
2139, 1078.00
2140, 1077.00
2141, 1078.00
2142, 1078.00
2143, 1078.00
2144, 1078.00
2145, 1078.00
2146, 1080.00
2147, 1079.00
2148, 1079.00
2149, 1079.00
2150, 1079.00
