FW version: 24
Log Version: 3.0.3

General Info:
       Command/Macro Performed,            Timestamp,             Device ID, COM Port, UART/I2C, Test Name, Host Major, Host Minor, Host Revision, Host Git Commit
            Single_measurement,  2023_07_11_11_23_39,       Insight2_F4_xxx,    USB-C,      USB,          ,          0,          1,             1,      4031237645

Show Spectrometer Status:
l0_version, f4_version, battery_perc, battery_mVolt, accelerometer_temp, accelerometer_x, accelerometer_y, accelerometer_z, compass_temp, compass_x, compass_y, compass_z, lamp_0, lamp_1, gain_0, gain_1
        17,         24,           50,          1905,               6912,           65208,            1220,           18788,            0,     65468,     65476,     18814,   3276,   3276,      1,      1

Temperature Statistic Info:
NTC AVG [°C], NTC2 AVG [°C]
      41.950,        41.596

Statistic Info:
M1:  num,      min,      max,   median,      AVG,      STD,M2:  num,      min,      max,   median,      AVG,      STD
     301,  2347.00,  2694.00,  2418.00,  2460.97, 108.4578,     401,  2972.00,  3172.00,  3050.00,  3057.26,  64.5050,

Measurements:
Wavelength, Data Amplitude
1350, 2411.00
1351, 2410.00
1352, 2409.00
1353, 2408.00
1354, 2407.00
1355, 2405.00
1356, 2404.00
1357, 2402.00
1358, 2403.00
1359, 2399.00
1360, 2398.00
1361, 2396.00
1362, 2396.00
1363, 2392.00
1364, 2390.00
1365, 2389.00
1366, 2388.00
1367, 2386.00
1368, 2383.00
1369, 2382.00
1370, 2382.00
1371, 2379.00
1372, 2376.00
1373, 2374.00
1374, 2375.00
1375, 2372.00
1376, 2370.00
1377, 2368.00
1378, 2368.00
1379, 2367.00
1380, 2365.00
1381, 2364.00
1382, 2363.00
1383, 2362.00
1384, 2361.00
1385, 2360.00
1386, 2360.00
1387, 2359.00
1388, 2357.00
1389, 2356.00
1390, 2356.00
1391, 2356.00
1392, 2356.00
1393, 2354.00
1394, 2352.00
1395, 2353.00
1396, 2352.00
1397, 2352.00
1398, 2352.00
1399, 2351.00
1400, 2351.00
1401, 2350.00
1402, 2351.00
1403, 2349.00
1404, 2349.00
1405, 2348.00
1406, 2349.00
1407, 2349.00
1408, 2348.00
1409, 2348.00
1410, 2348.00
1411, 2347.00
1412, 2347.00
1413, 2348.00
1414, 2347.00
1415, 2349.00
1416, 2348.00
1417, 2347.00
1418, 2347.00
1419, 2347.00
1420, 2348.00
1421, 2347.00
1422, 2347.00
1423, 2348.00
1424, 2348.00
1425, 2347.00
1426, 2348.00
1427, 2347.00
1428, 2348.00
1429, 2349.00
1430, 2350.00
1431, 2349.00
1432, 2350.00
1433, 2351.00
1434, 2350.00
1435, 2351.00
1436, 2351.00
1437, 2352.00
1438, 2353.00
1439, 2352.00
1440, 2353.00
1441, 2354.00
1442, 2355.00
1443, 2355.00
1444, 2355.00
1445, 2357.00
1446, 2356.00
1447, 2358.00
1448, 2357.00
1449, 2359.00
1450, 2360.00
1451, 2360.00
1452, 2362.00
1453, 2361.00
1454, 2363.00
1455, 2363.00
1456, 2363.00
1457, 2365.00
1458, 2367.00
1459, 2367.00
1460, 2366.00
1461, 2369.00
1462, 2369.00
1463, 2370.00
1464, 2371.00
1465, 2372.00
1466, 2373.00
1467, 2373.00
1468, 2375.00
1469, 2377.00
1470, 2378.00
1471, 2379.00
1472, 2379.00
1473, 2381.00
1474, 2383.00
1475, 2383.00
1476, 2385.00
1477, 2387.00
1478, 2388.00
1479, 2390.00
1480, 2389.00
1481, 2391.00
1482, 2392.00
1483, 2394.00
1484, 2396.00
1485, 2396.00
1486, 2398.00
1487, 2401.00
1488, 2401.00
1489, 2403.00
1490, 2404.00
1491, 2405.00
1492, 2407.00
1493, 2408.00
1494, 2409.00
1495, 2410.00
1496, 2412.00
1497, 2413.00
1498, 2414.00
1499, 2416.00
1500, 2418.00
1501, 2420.00
1502, 2420.00
1503, 2422.00
1504, 2423.00
1505, 2424.00
1506, 2426.00
1507, 2427.00
1508, 2430.00
1509, 2431.00
1510, 2433.00
1511, 2434.00
1512, 2435.00
1513, 2437.00
1514, 2438.00
1515, 2440.00
1516, 2442.00
1517, 2443.00
1518, 2443.00
1519, 2447.00
1520, 2449.00
1521, 2450.00
1522, 2451.00
1523, 2453.00
1524, 2454.00
1525, 2457.00
1526, 2459.00
1527, 2460.00
1528, 2461.00
1529, 2463.00
1530, 2465.00
1531, 2466.00
1532, 2468.00
1533, 2470.00
1534, 2473.00
1535, 2473.00
1536, 2476.00
1537, 2478.00
1538, 2479.00
1539, 2481.00
1540, 2483.00
1541, 2484.00
1542, 2485.00
1543, 2488.00
1544, 2490.00
1545, 2493.00
1546, 2493.00
1547, 2495.00
1548, 2498.00
1549, 2499.00
1550, 2502.00
1551, 2502.00
1552, 2504.00
1553, 2505.00
1554, 2509.00
1555, 2511.00
1556, 2512.00
1557, 2514.00
1558, 2517.00
1559, 2518.00
1560, 2521.00
1561, 2522.00
1562, 2523.00
1563, 2527.00
1564, 2529.00
1565, 2531.00
1566, 2532.00
1567, 2535.00
1568, 2538.00
1569, 2539.00
1570, 2541.00
1571, 2542.00
1572, 2545.00
1573, 2546.00
1574, 2549.00
1575, 2551.00
1576, 2551.00
1577, 2553.00
1578, 2556.00
1579, 2557.00
1580, 2561.00
1581, 2561.00
1582, 2563.00
1583, 2565.00
1584, 2567.00
1585, 2569.00
1586, 2571.00
1587, 2572.00
1588, 2574.00
1589, 2575.00
1590, 2578.00
1591, 2578.00
1592, 2580.00
1593, 2583.00
1594, 2584.00
1595, 2585.00
1596, 2587.00
1597, 2590.00
1598, 2591.00
1599, 2593.00
1600, 2594.00
1601, 2596.00
1602, 2599.00
1603, 2600.00
1604, 2603.00
1605, 2604.00
1606, 2606.00
1607, 2609.00
1608, 2611.00
1609, 2613.00
1610, 2615.00
1611, 2615.00
1612, 2620.00
1613, 2621.00
1614, 2623.00
1615, 2625.00
1616, 2628.00
1617, 2630.00
1618, 2632.00
1619, 2633.00
1620, 2636.00
1621, 2638.00
1622, 2641.00
1623, 2643.00
1624, 2644.00
1625, 2647.00
1626, 2648.00
1627, 2652.00
1628, 2653.00
1629, 2655.00
1630, 2657.00
1631, 2659.00
1632, 2662.00
1633, 2664.00
1634, 2665.00
1635, 2667.00
1636, 2670.00
1637, 2671.00
1638, 2674.00
1639, 2675.00
1640, 2677.00
1641, 2679.00
1642, 2680.00
1643, 2681.00
1644, 2683.00
1645, 2685.00
1646, 2687.00
1647, 2689.00
1648, 2691.00
1649, 2691.00
1650, 2694.00

1750, 3171.00
1751, 3171.00
1752, 3170.00
1753, 3170.00
1754, 3170.00
1755, 3170.00
1756, 3172.00
1757, 3170.00
1758, 3171.00
1759, 3170.00
1760, 3169.00
1761, 3170.00
1762, 3167.00
1763, 3169.00
1764, 3168.00
1765, 3168.00
1766, 3168.00
1767, 3166.00
1768, 3165.00
1769, 3165.00
1770, 3165.00
1771, 3165.00
1772, 3165.00
1773, 3166.00
1774, 3165.00
1775, 3163.00
1776, 3163.00
1777, 3161.00
1778, 3162.00
1779, 3161.00
1780, 3160.00
1781, 3159.00
1782, 3158.00
1783, 3159.00
1784, 3156.00
1785, 3155.00
1786, 3158.00
1787, 3153.00
1788, 3155.00
1789, 3153.00
1790, 3155.00
1791, 3152.00
1792, 3151.00
1793, 3150.00
1794, 3151.00
1795, 3149.00
1796, 3148.00
1797, 3147.00
1798, 3147.00
1799, 3149.00
1800, 3147.00
1801, 3146.00
1802, 3145.00
1803, 3144.00
1804, 3144.00
1805, 3141.00
1806, 3142.00
1807, 3142.00
1808, 3140.00
1809, 3141.00
1810, 3137.00
1811, 3137.00
1812, 3135.00
1813, 3137.00
1814, 3133.00
1815, 3133.00
1816, 3134.00
1817, 3134.00
1818, 3131.00
1819, 3131.00
1820, 3130.00
1821, 3128.00
1822, 3125.00
1823, 3123.00
1824, 3122.00
1825, 3121.00
1826, 3119.00
1827, 3118.00
1828, 3115.00
1829, 3111.00
1830, 3111.00
1831, 3109.00
1832, 3104.00
1833, 3105.00
1834, 3101.00
1835, 3098.00
1836, 3099.00
1837, 3094.00
1838, 3091.00
1839, 3090.00
1840, 3086.00
1841, 3084.00
1842, 3083.00
1843, 3077.00
1844, 3075.00
1845, 3071.00
1846, 3066.00
1847, 3067.00
1848, 3063.00
1849, 3059.00
1850, 3055.00
1851, 3053.00
1852, 3052.00
1853, 3049.00
1854, 3044.00
1855, 3040.00
1856, 3039.00
1857, 3037.00
1858, 3034.00
1859, 3031.00
1860, 3029.00
1861, 3026.00
1862, 3021.00
1863, 3021.00
1864, 3021.00
1865, 3017.00
1866, 3015.00
1867, 3012.00
1868, 3009.00
1869, 3010.00
1870, 3009.00
1871, 3005.00
1872, 3001.00
1873, 3003.00
1874, 3003.00
1875, 3001.00
1876, 2998.00
1877, 2998.00
1878, 2997.00
1879, 2995.00
1880, 2994.00
1881, 2993.00
1882, 2992.00
1883, 2991.00
1884, 2991.00
1885, 2989.00
1886, 2989.00
1887, 2987.00
1888, 2986.00
1889, 2987.00
1890, 2983.00
1891, 2985.00
1892, 2983.00
1893, 2986.00
1894, 2983.00
1895, 2984.00
1896, 2984.00
1897, 2982.00
1898, 2981.00
1899, 2981.00
1900, 2979.00
1901, 2981.00
1902, 2979.00
1903, 2979.00
1904, 2978.00
1905, 2979.00
1906, 2978.00
1907, 2978.00
1908, 2978.00
1909, 2976.00
1910, 2975.00
1911, 2976.00
1912, 2976.00
1913, 2977.00
1914, 2975.00
1915, 2974.00
1916, 2973.00
1917, 2973.00
1918, 2975.00
1919, 2974.00
1920, 2973.00
1921, 2972.00
1922, 2974.00
1923, 2973.00
1924, 2973.00
1925, 2973.00
1926, 2973.00
1927, 2975.00
1928, 2973.00
1929, 2974.00
1930, 2973.00
1931, 2973.00
1932, 2973.00
1933, 2975.00
1934, 2974.00
1935, 2973.00
1936, 2974.00
1937, 2974.00
1938, 2974.00
1939, 2976.00
1940, 2974.00
1941, 2975.00
1942, 2975.00
1943, 2975.00
1944, 2977.00
1945, 2976.00
1946, 2978.00
1947, 2978.00
1948, 2978.00
1949, 2979.00
1950, 2979.00
1951, 2979.00
1952, 2980.00
1953, 2979.00
1954, 2977.00
1955, 2979.00
1956, 2981.00
1957, 2980.00
1958, 2981.00
1959, 2981.00
1960, 2981.00
1961, 2986.00
1962, 2985.00
1963, 2985.00
1964, 2985.00
1965, 2985.00
1966, 2985.00
1967, 2986.00
1968, 2987.00
1969, 2987.00
1970, 2989.00
1971, 2988.00
1972, 2989.00
1973, 2991.00
1974, 2990.00
1975, 2993.00
1976, 2991.00
1977, 2992.00
1978, 2993.00
1979, 2994.00
1980, 2996.00
1981, 2993.00
1982, 2996.00
1983, 2997.00
1984, 2997.00
1985, 2999.00
1986, 2999.00
1987, 2999.00
1988, 3000.00
1989, 3002.00
1990, 3003.00
1991, 3003.00
1992, 3003.00
1993, 3003.00
1994, 3004.00
1995, 3004.00
1996, 3005.00
1997, 3006.00
1998, 3007.00
1999, 3007.00
2000, 3008.00
2001, 3007.00
2002, 3011.00
2003, 3011.00
2004, 3011.00
2005, 3013.00
2006, 3011.00
2007, 3013.00
2008, 3012.00
2009, 3015.00
2010, 3014.00
2011, 3016.00
2012, 3016.00
2013, 3017.00
2014, 3018.00
2015, 3017.00
2016, 3019.00
2017, 3020.00
2018, 3020.00
2019, 3021.00
2020, 3023.00
2021, 3021.00
2022, 3024.00
2023, 3023.00
2024, 3024.00
2025, 3025.00
2026, 3025.00
2027, 3027.00
2028, 3029.00
2029, 3029.00
2030, 3031.00
2031, 3030.00
2032, 3032.00
2033, 3031.00
2034, 3032.00
2035, 3035.00
2036, 3034.00
2037, 3036.00
2038, 3034.00
2039, 3037.00
2040, 3039.00
2041, 3038.00
2042, 3040.00
2043, 3038.00
2044, 3040.00
2045, 3041.00
2046, 3042.00
2047, 3046.00
2048, 3044.00
2049, 3045.00
2050, 3047.00
2051, 3047.00
2052, 3049.00
2053, 3050.00
2054, 3051.00
2055, 3053.00
2056, 3056.00
2057, 3054.00
2058, 3057.00
2059, 3058.00
2060, 3059.00
2061, 3058.00
2062, 3060.00
2063, 3060.00
2064, 3062.00
2065, 3064.00
2066, 3065.00
2067, 3067.00
2068, 3067.00
2069, 3067.00
2070, 3067.00
2071, 3071.00
2072, 3069.00
2073, 3072.00
2074, 3073.00
2075, 3075.00
2076, 3076.00
2077, 3076.00
2078, 3075.00
2079, 3077.00
2080, 3081.00
2081, 3079.00
2082, 3081.00
2083, 3082.00
2084, 3082.00
2085, 3083.00
2086, 3084.00
2087, 3086.00
2088, 3085.00
2089, 3086.00
2090, 3088.00
2091, 3089.00
2092, 3090.00
2093, 3089.00
2094, 3092.00
2095, 3094.00
2096, 3091.00
2097, 3092.00
2098, 3095.00
2099, 3096.00
2100, 3095.00
2101, 3097.00
2102, 3096.00
2103, 3098.00
2104, 3096.00
2105, 3098.00
2106, 3097.00
2107, 3099.00
2108, 3100.00
2109, 3101.00
2110, 3100.00
2111, 3102.00
2112, 3103.00
2113, 3102.00
2114, 3104.00
2115, 3105.00
2116, 3104.00
2117, 3107.00
2118, 3105.00
2119, 3107.00
2120, 3108.00
2121, 3107.00
2122, 3109.00
2123, 3110.00
2124, 3108.00
2125, 3108.00
2126, 3110.00
2127, 3110.00
2128, 3112.00
2129, 3110.00
2130, 3110.00
2131, 3114.00
2132, 3111.00
2133, 3113.00
2134, 3113.00
2135, 3114.00
2136, 3114.00
2137, 3114.00
2138, 3116.00
2139, 3115.00
2140, 3115.00
2141, 3116.00
2142, 3117.00
2143, 3118.00
2144, 3118.00
2145, 3118.00
2146, 3118.00
2147, 3118.00
2148, 3118.00
2149, 3121.00
2150, 3121.00
