FW version: 24
Log Version: 3.0.3

General Info:
       Command/Macro Performed,            Timestamp,             Device ID, COM Port, UART/I2C, Test Name, Host Major, Host Minor, Host Revision, Host Git Commit
            Single_measurement,  2023_06_27_11_25_45,       Insight2_F4_xxx,    USB-C,      USB,          ,          0,          1,             1,      4031237645

Show Spectrometer Status:
l0_version, f4_version, battery_perc, battery_mVolt, accelerometer_temp, accelerometer_x, accelerometer_y, accelerometer_z, compass_temp, compass_x, compass_y, compass_z, lamp_0, lamp_1, gain_0, gain_1
        17,         24,           95,          2078,               5376,           65408,              44,           18440,            0,     65505,     65389,     65325,   2457,   2457,    1,    1

Temperature Statistic Info:
NTC AVG [°C], NTC2 AVG [°C]
      36.637,        36.293

Statistic Info:
M1:  num,      min,      max,   median,      AVG,      STD,M2:  num,      min,      max,   median,      AVG,      STD
     301,  1034.00,  1208.00,  1070.00,  1090.71,  53.3017,     401,  1482.00,  1582.00,  1524.00,  1526.64,  32.6041,

Measurements:
Wavelength, Data Amplitude
1350, 1063.00
1351, 1063.00
1352, 1062.00
1353, 1061.00
1354, 1061.00
1355, 1061.00
1356, 1061.00
1357, 1059.00
1358, 1059.00
1359, 1059.00
1360, 1059.00
1361, 1057.00
1362, 1058.00
1363, 1056.00
1364, 1056.00
1365, 1055.00
1366, 1054.00
1367, 1053.00
1368, 1052.00
1369, 1051.00
1370, 1050.00
1371, 1050.00
1372, 1048.00
1373, 1047.00
1374, 1047.00
1375, 1047.00
1376, 1046.00
1377, 1046.00
1378, 1044.00
1379, 1044.00
1380, 1043.00
1381, 1043.00
1382, 1042.00
1383, 1042.00
1384, 1042.00
1385, 1040.00
1386, 1040.00
1387, 1039.00
1388, 1040.00
1389, 1039.00
1390, 1040.00
1391, 1038.00
1392, 1039.00
1393, 1038.00
1394, 1037.00
1395, 1037.00
1396, 1037.00
1397, 1037.00
1398, 1037.00
1399, 1036.00
1400, 1035.00
1401, 1036.00
1402, 1036.00
1403, 1036.00
1404, 1036.00
1405, 1037.00
1406, 1035.00
1407, 1035.00
1408, 1035.00
1409, 1036.00
1410, 1035.00
1411, 1035.00
1412, 1035.00
1413, 1035.00
1414, 1035.00
1415, 1035.00
1416, 1036.00
1417, 1034.00
1418, 1035.00
1419, 1034.00
1420, 1035.00
1421, 1035.00
1422, 1035.00
1423, 1035.00
1424, 1036.00
1425, 1035.00
1426, 1036.00
1427, 1035.00
1428, 1036.00
1429, 1036.00
1430, 1037.00
1431, 1036.00
1432, 1036.00
1433, 1037.00
1434, 1036.00
1435, 1036.00
1436, 1037.00
1437, 1037.00
1438, 1037.00
1439, 1038.00
1440, 1037.00
1441, 1038.00
1442, 1039.00
1443, 1039.00
1444, 1039.00
1445, 1038.00
1446, 1040.00
1447, 1040.00
1448, 1041.00
1449, 1041.00
1450, 1041.00
1451, 1042.00
1452, 1042.00
1453, 1043.00
1454, 1043.00
1455, 1042.00
1456, 1044.00
1457, 1044.00
1458, 1045.00
1459, 1044.00
1460, 1045.00
1461, 1045.00
1462, 1046.00
1463, 1046.00
1464, 1047.00
1465, 1047.00
1466, 1047.00
1467, 1048.00
1468, 1049.00
1469, 1049.00
1470, 1049.00
1471, 1051.00
1472, 1051.00
1473, 1052.00
1474, 1053.00
1475, 1053.00
1476, 1053.00
1477, 1056.00
1478, 1054.00
1479, 1056.00
1480, 1056.00
1481, 1057.00
1482, 1058.00
1483, 1058.00
1484, 1058.00
1485, 1059.00
1486, 1060.00
1487, 1061.00
1488, 1063.00
1489, 1062.00
1490, 1062.00
1491, 1064.00
1492, 1065.00
1493, 1065.00
1494, 1066.00
1495, 1066.00
1496, 1067.00
1497, 1067.00
1498, 1069.00
1499, 1070.00
1500, 1070.00
1501, 1072.00
1502, 1073.00
1503, 1072.00
1504, 1073.00
1505, 1074.00
1506, 1074.00
1507, 1075.00
1508, 1076.00
1509, 1077.00
1510, 1078.00
1511, 1078.00
1512, 1079.00
1513, 1079.00
1514, 1081.00
1515, 1082.00
1516, 1082.00
1517, 1084.00
1518, 1085.00
1519, 1086.00
1520, 1086.00
1521, 1086.00
1522, 1087.00
1523, 1088.00
1524, 1089.00
1525, 1091.00
1526, 1091.00
1527, 1091.00
1528, 1093.00
1529, 1094.00
1530, 1093.00
1531, 1095.00
1532, 1096.00
1533, 1097.00
1534, 1097.00
1535, 1099.00
1536, 1101.00
1537, 1101.00
1538, 1100.00
1539, 1101.00
1540, 1102.00
1541, 1103.00
1542, 1103.00
1543, 1105.00
1544, 1105.00
1545, 1106.00
1546, 1107.00
1547, 1108.00
1548, 1109.00
1549, 1110.00
1550, 1111.00
1551, 1112.00
1552, 1112.00
1553, 1113.00
1554, 1113.00
1555, 1114.00
1556, 1116.00
1557, 1116.00
1558, 1118.00
1559, 1118.00
1560, 1119.00
1561, 1121.00
1562, 1121.00
1563, 1122.00
1564, 1124.00
1565, 1124.00
1566, 1125.00
1567, 1127.00
1568, 1127.00
1569, 1129.00
1570, 1130.00
1571, 1130.00
1572, 1131.00
1573, 1132.00
1574, 1133.00
1575, 1134.00
1576, 1135.00
1577, 1135.00
1578, 1136.00
1579, 1137.00
1580, 1138.00
1581, 1138.00
1582, 1140.00
1583, 1141.00
1584, 1141.00
1585, 1143.00
1586, 1144.00
1587, 1144.00
1588, 1145.00
1589, 1146.00
1590, 1147.00
1591, 1148.00
1592, 1149.00
1593, 1149.00
1594, 1151.00
1595, 1151.00
1596, 1151.00
1597, 1153.00
1598, 1153.00
1599, 1155.00
1600, 1156.00
1601, 1157.00
1602, 1157.00
1603, 1159.00
1604, 1159.00
1605, 1160.00
1606, 1161.00
1607, 1162.00
1608, 1164.00
1609, 1164.00
1610, 1166.00
1611, 1167.00
1612, 1168.00
1613, 1169.00
1614, 1170.00
1615, 1171.00
1616, 1173.00
1617, 1173.00
1618, 1175.00
1619, 1175.00
1620, 1177.00
1621, 1178.00
1622, 1178.00
1623, 1179.00
1624, 1181.00
1625, 1182.00
1626, 1183.00
1627, 1185.00
1628, 1186.00
1629, 1187.00
1630, 1187.00
1631, 1188.00
1632, 1190.00
1633, 1191.00
1634, 1192.00
1635, 1192.00
1636, 1194.00
1637, 1195.00
1638, 1195.00
1639, 1197.00
1640, 1198.00
1641, 1198.00
1642, 1199.00
1643, 1200.00
1644, 1201.00
1645, 1202.00
1646, 1203.00
1647, 1203.00
1648, 1205.00
1649, 1205.00
1650, 1208.00

1750, 1580.00
1751, 1581.00
1752, 1580.00
1753, 1579.00
1754, 1581.00
1755, 1580.00
1756, 1581.00
1757, 1582.00
1758, 1581.00
1759, 1579.00
1760, 1582.00
1761, 1581.00
1762, 1580.00
1763, 1580.00
1764, 1579.00
1765, 1580.00
1766, 1578.00
1767, 1580.00
1768, 1579.00
1769, 1580.00
1770, 1579.00
1771, 1578.00
1772, 1579.00
1773, 1580.00
1774, 1578.00
1775, 1579.00
1776, 1579.00
1777, 1578.00
1778, 1578.00
1779, 1577.00
1780, 1578.00
1781, 1576.00
1782, 1577.00
1783, 1575.00
1784, 1575.00
1785, 1577.00
1786, 1575.00
1787, 1574.00
1788, 1577.00
1789, 1574.00
1790, 1575.00
1791, 1573.00
1792, 1574.00
1793, 1572.00
1794, 1573.00
1795, 1573.00
1796, 1573.00
1797, 1571.00
1798, 1572.00
1799, 1572.00
1800, 1571.00
1801, 1570.00
1802, 1570.00
1803, 1571.00
1804, 1568.00
1805, 1568.00
1806, 1568.00
1807, 1568.00
1808, 1568.00
1809, 1566.00
1810, 1567.00
1811, 1568.00
1812, 1567.00
1813, 1565.00
1814, 1567.00
1815, 1564.00
1816, 1564.00
1817, 1566.00
1818, 1566.00
1819, 1564.00
1820, 1561.00
1821, 1563.00
1822, 1562.00
1823, 1561.00
1824, 1559.00
1825, 1559.00
1826, 1557.00
1827, 1557.00
1828, 1557.00
1829, 1556.00
1830, 1555.00
1831, 1553.00
1832, 1553.00
1833, 1552.00
1834, 1552.00
1835, 1549.00
1836, 1549.00
1837, 1547.00
1838, 1546.00
1839, 1546.00
1840, 1543.00
1841, 1542.00
1842, 1541.00
1843, 1540.00
1844, 1540.00
1845, 1535.00
1846, 1533.00
1847, 1534.00
1848, 1531.00
1849, 1530.00
1850, 1528.00
1851, 1527.00
1852, 1525.00
1853, 1524.00
1854, 1523.00
1855, 1519.00
1856, 1520.00
1857, 1519.00
1858, 1515.00
1859, 1513.00
1860, 1513.00
1861, 1512.00
1862, 1510.00
1863, 1510.00
1864, 1510.00
1865, 1506.00
1866, 1505.00
1867, 1505.00
1868, 1503.00
1869, 1502.00
1870, 1501.00
1871, 1501.00
1872, 1498.00
1873, 1500.00
1874, 1499.00
1875, 1499.00
1876, 1497.00
1877, 1497.00
1878, 1495.00
1879, 1494.00
1880, 1495.00
1881, 1495.00
1882, 1493.00
1883, 1494.00
1884, 1493.00
1885, 1491.00
1886, 1492.00
1887, 1490.00
1888, 1489.00
1889, 1491.00
1890, 1489.00
1891, 1489.00
1892, 1489.00
1893, 1489.00
1894, 1489.00
1895, 1487.00
1896, 1486.00
1897, 1488.00
1898, 1488.00
1899, 1487.00
1900, 1488.00
1901, 1487.00
1902, 1487.00
1903, 1486.00
1904, 1486.00
1905, 1485.00
1906, 1485.00
1907, 1486.00
1908, 1486.00
1909, 1485.00
1910, 1486.00
1911, 1485.00
1912, 1485.00
1913, 1485.00
1914, 1485.00
1915, 1483.00
1916, 1484.00
1917, 1485.00
1918, 1483.00
1919, 1484.00
1920, 1483.00
1921, 1484.00
1922, 1484.00
1923, 1484.00
1924, 1484.00
1925, 1484.00
1926, 1484.00
1927, 1484.00
1928, 1485.00
1929, 1484.00
1930, 1483.00
1931, 1484.00
1932, 1486.00
1933, 1482.00
1934, 1482.00
1935, 1485.00
1936, 1485.00
1937, 1486.00
1938, 1485.00
1939, 1486.00
1940, 1484.00
1941, 1483.00
1942, 1484.00
1943, 1486.00
1944, 1485.00
1945, 1486.00
1946, 1486.00
1947, 1484.00
1948, 1486.00
1949, 1485.00
1950, 1486.00
1951, 1485.00
1952, 1486.00
1953, 1486.00
1954, 1489.00
1955, 1487.00
1956, 1487.00
1957, 1488.00
1958, 1487.00
1959, 1487.00
1960, 1489.00
1961, 1489.00
1962, 1489.00
1963, 1488.00
1964, 1491.00
1965, 1490.00
1966, 1490.00
1967, 1491.00
1968, 1490.00
1969, 1492.00
1970, 1492.00
1971, 1491.00
1972, 1492.00
1973, 1494.00
1974, 1492.00
1975, 1493.00
1976, 1494.00
1977, 1494.00
1978, 1494.00
1979, 1494.00
1980, 1495.00
1981, 1496.00
1982, 1496.00
1983, 1496.00
1984, 1495.00
1985, 1495.00
1986, 1496.00
1987, 1498.00
1988, 1495.00
1989, 1497.00
1990, 1497.00
1991, 1499.00
1992, 1498.00
1993, 1500.00
1994, 1497.00
1995, 1499.00
1996, 1498.00
1997, 1503.00
1998, 1501.00
1999, 1500.00
2000, 1501.00
2001, 1501.00
2002, 1503.00
2003, 1502.00
2004, 1501.00
2005, 1502.00
2006, 1504.00
2007, 1503.00
2008, 1503.00
2009, 1505.00
2010, 1505.00
2011, 1505.00
2012, 1506.00
2013, 1507.00
2014, 1507.00
2015, 1505.00
2016, 1508.00
2017, 1505.00
2018, 1508.00
2019, 1508.00
2020, 1508.00
2021, 1509.00
2022, 1508.00
2023, 1511.00
2024, 1510.00
2025, 1510.00
2026, 1510.00
2027, 1510.00
2028, 1513.00
2029, 1511.00
2030, 1511.00
2031, 1511.00
2032, 1511.00
2033, 1513.00
2034, 1515.00
2035, 1516.00
2036, 1514.00
2037, 1515.00
2038, 1516.00
2039, 1517.00
2040, 1517.00
2041, 1518.00
2042, 1517.00
2043, 1520.00
2044, 1521.00
2045, 1520.00
2046, 1519.00
2047, 1521.00
2048, 1521.00
2049, 1521.00
2050, 1522.00
2051, 1523.00
2052, 1522.00
2053, 1524.00
2054, 1524.00
2055, 1523.00
2056, 1526.00
2057, 1526.00
2058, 1528.00
2059, 1528.00
2060, 1527.00
2061, 1529.00
2062, 1529.00
2063, 1530.00
2064, 1530.00
2065, 1530.00
2066, 1531.00
2067, 1532.00
2068, 1532.00
2069, 1533.00
2070, 1535.00
2071, 1534.00
2072, 1533.00
2073, 1533.00
2074, 1537.00
2075, 1535.00
2076, 1537.00
2077, 1537.00
2078, 1538.00
2079, 1539.00
2080, 1540.00
2081, 1539.00
2082, 1539.00
2083, 1540.00
2084, 1539.00
2085, 1540.00
2086, 1540.00
2087, 1543.00
2088, 1542.00
2089, 1544.00
2090, 1544.00
2091, 1544.00
2092, 1544.00
2093, 1543.00
2094, 1546.00
2095, 1546.00
2096, 1546.00
2097, 1547.00
2098, 1547.00
2099, 1545.00
2100, 1548.00
2101, 1547.00
2102, 1548.00
2103, 1548.00
2104, 1549.00
2105, 1549.00
2106, 1548.00
2107, 1551.00
2108, 1549.00
2109, 1550.00
2110, 1551.00
2111, 1550.00
2112, 1551.00
2113, 1552.00
2114, 1551.00
2115, 1551.00
2116, 1553.00
2117, 1554.00
2118, 1553.00
2119, 1553.00
2120, 1552.00
2121, 1553.00
2122, 1554.00
2123, 1553.00
2124, 1553.00
2125, 1555.00
2126, 1554.00
2127, 1553.00
2128, 1555.00
2129, 1556.00
2130, 1554.00
2131, 1555.00
2132, 1555.00
2133, 1557.00
2134, 1557.00
2135, 1557.00
2136, 1557.00
2137, 1556.00
2138, 1557.00
2139, 1557.00
2140, 1558.00
2141, 1558.00
2142, 1558.00
2143, 1558.00
2144, 1557.00
2145, 1558.00
2146, 1561.00
2147, 1560.00
2148, 1557.00
2149, 1560.00
2150, 1560.00
