FW version: 24
Log Version: 3.0.3

General Info:
       Command/Macro Performed,            Timestamp,             Device ID, COM Port, UART/I2C, Test Name, Host Major, Host Minor, Host Revision, Host Git Commit
            Single_measurement,  2023_06_27_11_25_20,       Insight2_F4_xxx,    USB-C,      USB,          ,          0,          1,             1,      4031237645

Show Spectrometer Status:
l0_version, f4_version, battery_perc, battery_mVolt, accelerometer_temp, accelerometer_x, accelerometer_y, accelerometer_z, compass_temp, compass_x, compass_y, compass_z, lamp_0, lamp_1, gain_0, gain_1
        17,         24,           95,          2077,               5360,           65384,           65496,           18364,            0,     65384,     65496,     65468,   3276,   3276,    0,    0

Temperature Statistic Info:
NTC AVG [°C], NTC2 AVG [°C]
      36.465,        36.207

Statistic Info:
M1:  num,      min,      max,   median,      AVG,      STD,M2:  num,      min,      max,   median,      AVG,      STD
     301,   620.00,   715.00,   640.00,   651.74,  29.4473,     401,   826.00,   881.00,   848.00,   849.44,  17.9306,

Measurements:
Wavelength, Data Amplitude
1350, 640.00
1351, 639.00
1352, 639.00
1353, 638.00
1354, 638.00
1355, 638.00
1356, 638.00
1357, 637.00
1358, 637.00
1359, 636.00
1360, 636.00
1361, 636.00
1362, 635.00
1363, 634.00
1364, 634.00
1365, 633.00
1366, 633.00
1367, 633.00
1368, 632.00
1369, 631.00
1370, 632.00
1371, 631.00
1372, 630.00
1373, 630.00
1374, 630.00
1375, 629.00
1376, 628.00
1377, 628.00
1378, 627.00
1379, 627.00
1380, 627.00
1381, 626.00
1382, 626.00
1383, 625.00
1384, 625.00
1385, 625.00
1386, 625.00
1387, 624.00
1388, 624.00
1389, 624.00
1390, 624.00
1391, 624.00
1392, 624.00
1393, 623.00
1394, 623.00
1395, 623.00
1396, 623.00
1397, 622.00
1398, 623.00
1399, 622.00
1400, 622.00
1401, 622.00
1402, 622.00
1403, 622.00
1404, 621.00
1405, 622.00
1406, 622.00
1407, 621.00
1408, 621.00
1409, 621.00
1410, 621.00
1411, 621.00
1412, 621.00
1413, 621.00
1414, 621.00
1415, 621.00
1416, 621.00
1417, 621.00
1418, 621.00
1419, 621.00
1420, 621.00
1421, 621.00
1422, 621.00
1423, 620.00
1424, 621.00
1425, 621.00
1426, 621.00
1427, 621.00
1428, 621.00
1429, 621.00
1430, 621.00
1431, 621.00
1432, 622.00
1433, 622.00
1434, 621.00
1435, 622.00
1436, 621.00
1437, 622.00
1438, 622.00
1439, 622.00
1440, 622.00
1441, 622.00
1442, 622.00
1443, 622.00
1444, 623.00
1445, 623.00
1446, 623.00
1447, 623.00
1448, 623.00
1449, 623.00
1450, 623.00
1451, 624.00
1452, 624.00
1453, 625.00
1454, 624.00
1455, 624.00
1456, 625.00
1457, 625.00
1458, 626.00
1459, 626.00
1460, 626.00
1461, 626.00
1462, 626.00
1463, 627.00
1464, 627.00
1465, 627.00
1466, 627.00
1467, 628.00
1468, 628.00
1469, 628.00
1470, 629.00
1471, 629.00
1472, 629.00
1473, 629.00
1474, 630.00
1475, 630.00
1476, 631.00
1477, 631.00
1478, 631.00
1479, 631.00
1480, 632.00
1481, 632.00
1482, 633.00
1483, 633.00
1484, 633.00
1485, 634.00
1486, 635.00
1487, 634.00
1488, 635.00
1489, 635.00
1490, 636.00
1491, 636.00
1492, 636.00
1493, 637.00
1494, 637.00
1495, 638.00
1496, 638.00
1497, 639.00
1498, 639.00
1499, 640.00
1500, 640.00
1501, 640.00
1502, 640.00
1503, 640.00
1504, 641.00
1505, 641.00
1506, 642.00
1507, 642.00
1508, 642.00
1509, 643.00
1510, 644.00
1511, 644.00
1512, 645.00
1513, 644.00
1514, 645.00
1515, 645.00
1516, 646.00
1517, 646.00
1518, 648.00
1519, 648.00
1520, 648.00
1521, 648.00
1522, 650.00
1523, 649.00
1524, 650.00
1525, 650.00
1526, 651.00
1527, 651.00
1528, 652.00
1529, 652.00
1530, 653.00
1531, 653.00
1532, 653.00
1533, 654.00
1534, 655.00
1535, 655.00
1536, 656.00
1537, 656.00
1538, 656.00
1539, 657.00
1540, 658.00
1541, 658.00
1542, 658.00
1543, 659.00
1544, 659.00
1545, 660.00
1546, 661.00
1547, 661.00
1548, 661.00
1549, 662.00
1550, 662.00
1551, 663.00
1552, 664.00
1553, 664.00
1554, 665.00
1555, 665.00
1556, 665.00
1557, 666.00
1558, 667.00
1559, 667.00
1560, 667.00
1561, 668.00
1562, 668.00
1563, 669.00
1564, 670.00
1565, 670.00
1566, 671.00
1567, 672.00
1568, 672.00
1569, 673.00
1570, 673.00
1571, 674.00
1572, 674.00
1573, 675.00
1574, 676.00
1575, 676.00
1576, 676.00
1577, 677.00
1578, 678.00
1579, 678.00
1580, 678.00
1581, 679.00
1582, 680.00
1583, 680.00
1584, 680.00
1585, 681.00
1586, 681.00
1587, 681.00
1588, 682.00
1589, 682.00
1590, 683.00
1591, 683.00
1592, 684.00
1593, 684.00
1594, 685.00
1595, 685.00
1596, 686.00
1597, 687.00
1598, 687.00
1599, 687.00
1600, 688.00
1601, 689.00
1602, 689.00
1603, 689.00
1604, 690.00
1605, 690.00
1606, 691.00
1607, 691.00
1608, 692.00
1609, 693.00
1610, 693.00
1611, 694.00
1612, 694.00
1613, 695.00
1614, 696.00
1615, 696.00
1616, 697.00
1617, 697.00
1618, 698.00
1619, 699.00
1620, 700.00
1621, 700.00
1622, 700.00
1623, 701.00
1624, 702.00
1625, 702.00
1626, 703.00
1627, 704.00
1628, 704.00
1629, 704.00
1630, 705.00
1631, 706.00
1632, 707.00
1633, 707.00
1634, 708.00
1635, 708.00
1636, 709.00
1637, 709.00
1638, 710.00
1639, 710.00
1640, 711.00
1641, 711.00
1642, 712.00
1643, 712.00
1644, 713.00
1645, 713.00
1646, 714.00
1647, 714.00
1648, 715.00
1649, 715.00
1650, 715.00

1750, 880.00
1751, 880.00
1752, 880.00
1753, 880.00
1754, 880.00
1755, 881.00
1756, 881.00
1757, 881.00
1758, 881.00
1759, 881.00
1760, 880.00
1761, 880.00
1762, 881.00
1763, 880.00
1764, 880.00
1765, 879.00
1766, 880.00
1767, 880.00
1768, 879.00
1769, 880.00
1770, 879.00
1771, 879.00
1772, 879.00
1773, 879.00
1774, 879.00
1775, 879.00
1776, 879.00
1777, 878.00
1778, 878.00
1779, 878.00
1780, 878.00
1781, 878.00
1782, 878.00
1783, 877.00
1784, 877.00
1785, 877.00
1786, 878.00
1787, 877.00
1788, 877.00
1789, 877.00
1790, 876.00
1791, 876.00
1792, 877.00
1793, 876.00
1794, 875.00
1795, 875.00
1796, 875.00
1797, 875.00
1798, 874.00
1799, 875.00
1800, 875.00
1801, 874.00
1802, 874.00
1803, 873.00
1804, 874.00
1805, 873.00
1806, 874.00
1807, 874.00
1808, 873.00
1809, 873.00
1810, 873.00
1811, 872.00
1812, 872.00
1813, 872.00
1814, 872.00
1815, 872.00
1816, 871.00
1817, 871.00
1818, 871.00
1819, 870.00
1820, 870.00
1821, 869.00
1822, 869.00
1823, 869.00
1824, 868.00
1825, 868.00
1826, 868.00
1827, 868.00
1828, 867.00
1829, 867.00
1830, 866.00
1831, 866.00
1832, 865.00
1833, 864.00
1834, 864.00
1835, 863.00
1836, 862.00
1837, 862.00
1838, 861.00
1839, 860.00
1840, 859.00
1841, 859.00
1842, 859.00
1843, 857.00
1844, 856.00
1845, 855.00
1846, 854.00
1847, 853.00
1848, 853.00
1849, 852.00
1850, 851.00
1851, 851.00
1852, 849.00
1853, 849.00
1854, 847.00
1855, 846.00
1856, 846.00
1857, 845.00
1858, 844.00
1859, 843.00
1860, 843.00
1861, 843.00
1862, 841.00
1863, 840.00
1864, 840.00
1865, 839.00
1866, 839.00
1867, 838.00
1868, 837.00
1869, 837.00
1870, 836.00
1871, 836.00
1872, 836.00
1873, 835.00
1874, 835.00
1875, 834.00
1876, 834.00
1877, 833.00
1878, 833.00
1879, 833.00
1880, 833.00
1881, 832.00
1882, 832.00
1883, 831.00
1884, 830.00
1885, 831.00
1886, 830.00
1887, 830.00
1888, 830.00
1889, 830.00
1890, 831.00
1891, 829.00
1892, 829.00
1893, 829.00
1894, 829.00
1895, 829.00
1896, 828.00
1897, 829.00
1898, 828.00
1899, 828.00
1900, 828.00
1901, 829.00
1902, 828.00
1903, 828.00
1904, 828.00
1905, 827.00
1906, 828.00
1907, 827.00
1908, 827.00
1909, 827.00
1910, 826.00
1911, 826.00
1912, 827.00
1913, 827.00
1914, 826.00
1915, 827.00
1916, 826.00
1917, 826.00
1918, 826.00
1919, 827.00
1920, 826.00
1921, 826.00
1922, 826.00
1923, 827.00
1924, 827.00
1925, 826.00
1926, 826.00
1927, 826.00
1928, 826.00
1929, 826.00
1930, 826.00
1931, 826.00
1932, 826.00
1933, 827.00
1934, 826.00
1935, 826.00
1936, 826.00
1937, 827.00
1938, 827.00
1939, 827.00
1940, 827.00
1941, 827.00
1942, 827.00
1943, 827.00
1944, 827.00
1945, 828.00
1946, 827.00
1947, 827.00
1948, 827.00
1949, 827.00
1950, 827.00
1951, 827.00
1952, 828.00
1953, 827.00
1954, 827.00
1955, 828.00
1956, 828.00
1957, 828.00
1958, 829.00
1959, 828.00
1960, 828.00
1961, 829.00
1962, 828.00
1963, 828.00
1964, 829.00
1965, 829.00
1966, 829.00
1967, 829.00
1968, 830.00
1969, 830.00
1970, 831.00
1971, 831.00
1972, 831.00
1973, 830.00
1974, 831.00
1975, 831.00
1976, 831.00
1977, 832.00
1978, 831.00
1979, 832.00
1980, 832.00
1981, 833.00
1982, 832.00
1983, 832.00
1984, 833.00
1985, 833.00
1986, 833.00
1987, 833.00
1988, 833.00
1989, 833.00
1990, 834.00
1991, 833.00
1992, 834.00
1993, 834.00
1994, 834.00
1995, 834.00
1996, 834.00
1997, 835.00
1998, 834.00
1999, 835.00
2000, 835.00
2001, 836.00
2002, 836.00
2003, 837.00
2004, 837.00
2005, 836.00
2006, 837.00
2007, 837.00
2008, 837.00
2009, 838.00
2010, 837.00
2011, 837.00
2012, 838.00
2013, 838.00
2014, 838.00
2015, 837.00
2016, 839.00
2017, 839.00
2018, 839.00
2019, 839.00
2020, 839.00
2021, 840.00
2022, 840.00
2023, 840.00
2024, 841.00
2025, 840.00
2026, 841.00
2027, 840.00
2028, 840.00
2029, 841.00
2030, 842.00
2031, 842.00
2032, 841.00
2033, 842.00
2034, 842.00
2035, 842.00
2036, 843.00
2037, 843.00
2038, 843.00
2039, 843.00
2040, 843.00
2041, 844.00
2042, 844.00
2043, 845.00
2044, 845.00
2045, 845.00
2046, 845.00
2047, 845.00
2048, 846.00
2049, 846.00
2050, 846.00
2051, 846.00
2052, 846.00
2053, 847.00
2054, 848.00
2055, 848.00
2056, 849.00
2057, 848.00
2058, 848.00
2059, 848.00
2060, 849.00
2061, 850.00
2062, 849.00
2063, 850.00
2064, 851.00
2065, 851.00
2066, 851.00
2067, 851.00
2068, 852.00
2069, 852.00
2070, 852.00
2071, 852.00
2072, 853.00
2073, 853.00
2074, 854.00
2075, 854.00
2076, 854.00
2077, 854.00
2078, 854.00
2079, 855.00
2080, 855.00
2081, 855.00
2082, 855.00
2083, 856.00
2084, 856.00
2085, 856.00
2086, 857.00
2087, 857.00
2088, 857.00
2089, 857.00
2090, 857.00
2091, 858.00
2092, 858.00
2093, 857.00
2094, 858.00
2095, 858.00
2096, 859.00
2097, 859.00
2098, 859.00
2099, 859.00
2100, 860.00
2101, 860.00
2102, 860.00
2103, 860.00
2104, 860.00
2105, 860.00
2106, 860.00
2107, 861.00
2108, 861.00
2109, 861.00
2110, 861.00
2111, 861.00
2112, 861.00
2113, 862.00
2114, 862.00
2115, 862.00
2116, 862.00
2117, 862.00
2118, 862.00
2119, 862.00
2120, 863.00
2121, 862.00
2122, 863.00
2123, 862.00
2124, 863.00
2125, 863.00
2126, 864.00
2127, 863.00
2128, 863.00
2129, 863.00
2130, 863.00
2131, 864.00
2132, 864.00
2133, 864.00
2134, 864.00
2135, 864.00
2136, 865.00
2137, 865.00
2138, 864.00
2139, 865.00
2140, 865.00
2141, 865.00
2142, 865.00
2143, 865.00
2144, 865.00
2145, 865.00
2146, 865.00
2147, 866.00
2148, 866.00
2149, 866.00
2150, 866.00
