FW version: 24
Log Version: 3.0.3

General Info:
       Command/Macro Performed,            Timestamp,             Device ID, COM Port, UART/I2C, Test Name, Host Major, Host Minor, Host Revision, Host Git Commit
            Single_measurement,  2023_06_27_11_25_39,       Insight2_F4_xxx,    USB-C,      USB,          ,          0,          1,             1,      4031237645

Show Spectrometer Status:
l0_version, f4_version, battery_perc, battery_mVolt, accelerometer_temp, accelerometer_x, accelerometer_y, accelerometer_z, compass_temp, compass_x, compass_y, compass_z, lamp_0, lamp_1, gain_0, gain_1
        17,         24,           95,          2078,               5360,           65520,              24,           18492,            0,     65521,     65372,     65343,   2457,   2457,    1,    1

Temperature Statistic Info:
NTC AVG [°C], NTC2 AVG [°C]
      36.580,        36.293

Statistic Info:
M1:  num,      min,      max,   median,      AVG,      STD,M2:  num,      min,      max,   median,      AVG,      STD
     301,  1035.00,  1208.00,  1071.00,  1091.33,  53.3117,     401,  1484.00,  1583.00,  1525.00,  1527.54,  32.5745,

Measurements:
Wavelength, Data Amplitude
1350, 1064.00
1351, 1064.00
1352, 1063.00
1353, 1063.00
1354, 1062.00
1355, 1062.00
1356, 1062.00
1357, 1060.00
1358, 1060.00
1359, 1059.00
1360, 1059.00
1361, 1058.00
1362, 1058.00
1363, 1056.00
1364, 1056.00
1365, 1056.00
1366, 1053.00
1367, 1054.00
1368, 1053.00
1369, 1052.00
1370, 1051.00
1371, 1051.00
1372, 1049.00
1373, 1048.00
1374, 1048.00
1375, 1047.00
1376, 1046.00
1377, 1045.00
1378, 1045.00
1379, 1046.00
1380, 1044.00
1381, 1044.00
1382, 1043.00
1383, 1042.00
1384, 1042.00
1385, 1042.00
1386, 1041.00
1387, 1041.00
1388, 1040.00
1389, 1040.00
1390, 1040.00
1391, 1039.00
1392, 1039.00
1393, 1040.00
1394, 1038.00
1395, 1039.00
1396, 1037.00
1397, 1038.00
1398, 1038.00
1399, 1037.00
1400, 1037.00
1401, 1037.00
1402, 1037.00
1403, 1036.00
1404, 1036.00
1405, 1036.00
1406, 1036.00
1407, 1036.00
1408, 1036.00
1409, 1035.00
1410, 1036.00
1411, 1035.00
1412, 1036.00
1413, 1036.00
1414, 1035.00
1415, 1035.00
1416, 1036.00
1417, 1036.00
1418, 1036.00
1419, 1035.00
1420, 1036.00
1421, 1035.00
1422, 1036.00
1423, 1036.00
1424, 1036.00
1425, 1037.00
1426, 1037.00
1427, 1036.00
1428, 1036.00
1429, 1037.00
1430, 1036.00
1431, 1036.00
1432, 1037.00
1433, 1038.00
1434, 1037.00
1435, 1037.00
1436, 1038.00
1437, 1037.00
1438, 1038.00
1439, 1039.00
1440, 1039.00
1441, 1039.00
1442, 1039.00
1443, 1039.00
1444, 1040.00
1445, 1041.00
1446, 1040.00
1447, 1040.00
1448, 1041.00
1449, 1041.00
1450, 1041.00
1451, 1042.00
1452, 1042.00
1453, 1043.00
1454, 1043.00
1455, 1044.00
1456, 1044.00
1457, 1044.00
1458, 1044.00
1459, 1045.00
1460, 1046.00
1461, 1046.00
1462, 1046.00
1463, 1047.00
1464, 1048.00
1465, 1047.00
1466, 1048.00
1467, 1049.00
1468, 1049.00
1469, 1051.00
1470, 1050.00
1471, 1051.00
1472, 1051.00
1473, 1053.00
1474, 1053.00
1475, 1054.00
1476, 1053.00
1477, 1055.00
1478, 1055.00
1479, 1056.00
1480, 1057.00
1481, 1057.00
1482, 1058.00
1483, 1059.00
1484, 1059.00
1485, 1060.00
1486, 1062.00
1487, 1062.00
1488, 1062.00
1489, 1063.00
1490, 1064.00
1491, 1064.00
1492, 1065.00
1493, 1065.00
1494, 1066.00
1495, 1067.00
1496, 1068.00
1497, 1068.00
1498, 1068.00
1499, 1070.00
1500, 1071.00
1501, 1071.00
1502, 1072.00
1503, 1073.00
1504, 1073.00
1505, 1074.00
1506, 1075.00
1507, 1076.00
1508, 1076.00
1509, 1078.00
1510, 1078.00
1511, 1079.00
1512, 1079.00
1513, 1081.00
1514, 1081.00
1515, 1082.00
1516, 1082.00
1517, 1084.00
1518, 1085.00
1519, 1086.00
1520, 1086.00
1521, 1088.00
1522, 1089.00
1523, 1089.00
1524, 1090.00
1525, 1091.00
1526, 1091.00
1527, 1093.00
1528, 1094.00
1529, 1095.00
1530, 1095.00
1531, 1095.00
1532, 1097.00
1533, 1097.00
1534, 1099.00
1535, 1099.00
1536, 1099.00
1537, 1101.00
1538, 1101.00
1539, 1103.00
1540, 1103.00
1541, 1104.00
1542, 1104.00
1543, 1104.00
1544, 1106.00
1545, 1107.00
1546, 1107.00
1547, 1108.00
1548, 1110.00
1549, 1111.00
1550, 1111.00
1551, 1111.00
1552, 1113.00
1553, 1114.00
1554, 1115.00
1555, 1114.00
1556, 1115.00
1557, 1117.00
1558, 1118.00
1559, 1119.00
1560, 1120.00
1561, 1121.00
1562, 1122.00
1563, 1122.00
1564, 1124.00
1565, 1125.00
1566, 1126.00
1567, 1126.00
1568, 1128.00
1569, 1129.00
1570, 1130.00
1571, 1131.00
1572, 1132.00
1573, 1132.00
1574, 1133.00
1575, 1135.00
1576, 1134.00
1577, 1136.00
1578, 1138.00
1579, 1138.00
1580, 1139.00
1581, 1140.00
1582, 1140.00
1583, 1141.00
1584, 1142.00
1585, 1143.00
1586, 1143.00
1587, 1145.00
1588, 1147.00
1589, 1147.00
1590, 1147.00
1591, 1148.00
1592, 1149.00
1593, 1149.00
1594, 1152.00
1595, 1152.00
1596, 1153.00
1597, 1154.00
1598, 1154.00
1599, 1156.00
1600, 1156.00
1601, 1157.00
1602, 1158.00
1603, 1159.00
1604, 1160.00
1605, 1161.00
1606, 1161.00
1607, 1162.00
1608, 1164.00
1609, 1165.00
1610, 1166.00
1611, 1167.00
1612, 1168.00
1613, 1170.00
1614, 1170.00
1615, 1172.00
1616, 1173.00
1617, 1174.00
1618, 1175.00
1619, 1176.00
1620, 1177.00
1621, 1178.00
1622, 1179.00
1623, 1181.00
1624, 1181.00
1625, 1183.00
1626, 1184.00
1627, 1184.00
1628, 1186.00
1629, 1187.00
1630, 1189.00
1631, 1189.00
1632, 1191.00
1633, 1192.00
1634, 1193.00
1635, 1194.00
1636, 1194.00
1637, 1196.00
1638, 1196.00
1639, 1198.00
1640, 1198.00
1641, 1199.00
1642, 1200.00
1643, 1201.00
1644, 1201.00
1645, 1204.00
1646, 1204.00
1647, 1204.00
1648, 1206.00
1649, 1207.00
1650, 1208.00

1750, 1583.00
1751, 1582.00
1752, 1581.00
1753, 1581.00
1754, 1582.00
1755, 1582.00
1756, 1580.00
1757, 1581.00
1758, 1580.00
1759, 1582.00
1760, 1581.00
1761, 1582.00
1762, 1580.00
1763, 1581.00
1764, 1581.00
1765, 1581.00
1766, 1581.00
1767, 1581.00
1768, 1582.00
1769, 1582.00
1770, 1581.00
1771, 1580.00
1772, 1581.00
1773, 1581.00
1774, 1581.00
1775, 1579.00
1776, 1580.00
1777, 1579.00
1778, 1579.00
1779, 1577.00
1780, 1577.00
1781, 1578.00
1782, 1578.00
1783, 1577.00
1784, 1576.00
1785, 1577.00
1786, 1577.00
1787, 1576.00
1788, 1575.00
1789, 1574.00
1790, 1576.00
1791, 1572.00
1792, 1574.00
1793, 1575.00
1794, 1574.00
1795, 1575.00
1796, 1575.00
1797, 1573.00
1798, 1572.00
1799, 1571.00
1800, 1573.00
1801, 1572.00
1802, 1570.00
1803, 1570.00
1804, 1571.00
1805, 1571.00
1806, 1569.00
1807, 1567.00
1808, 1570.00
1809, 1568.00
1810, 1569.00
1811, 1567.00
1812, 1568.00
1813, 1567.00
1814, 1565.00
1815, 1566.00
1816, 1566.00
1817, 1565.00
1818, 1564.00
1819, 1565.00
1820, 1563.00
1821, 1564.00
1822, 1563.00
1823, 1561.00
1824, 1562.00
1825, 1560.00
1826, 1559.00
1827, 1558.00
1828, 1559.00
1829, 1557.00
1830, 1556.00
1831, 1556.00
1832, 1553.00
1833, 1552.00
1834, 1552.00
1835, 1552.00
1836, 1548.00
1837, 1548.00
1838, 1547.00
1839, 1546.00
1840, 1545.00
1841, 1542.00
1842, 1542.00
1843, 1539.00
1844, 1538.00
1845, 1538.00
1846, 1537.00
1847, 1534.00
1848, 1531.00
1849, 1531.00
1850, 1528.00
1851, 1527.00
1852, 1527.00
1853, 1525.00
1854, 1524.00
1855, 1522.00
1856, 1520.00
1857, 1519.00
1858, 1517.00
1859, 1515.00
1860, 1513.00
1861, 1513.00
1862, 1511.00
1863, 1511.00
1864, 1510.00
1865, 1507.00
1866, 1508.00
1867, 1507.00
1868, 1505.00
1869, 1505.00
1870, 1503.00
1871, 1501.00
1872, 1500.00
1873, 1500.00
1874, 1499.00
1875, 1500.00
1876, 1498.00
1877, 1497.00
1878, 1497.00
1879, 1496.00
1880, 1496.00
1881, 1495.00
1882, 1493.00
1883, 1493.00
1884, 1493.00
1885, 1494.00
1886, 1492.00
1887, 1491.00
1888, 1492.00
1889, 1492.00
1890, 1490.00
1891, 1490.00
1892, 1490.00
1893, 1491.00
1894, 1491.00
1895, 1489.00
1896, 1489.00
1897, 1488.00
1898, 1487.00
1899, 1489.00
1900, 1489.00
1901, 1488.00
1902, 1488.00
1903, 1487.00
1904, 1485.00
1905, 1488.00
1906, 1485.00
1907, 1485.00
1908, 1487.00
1909, 1487.00
1910, 1486.00
1911, 1486.00
1912, 1486.00
1913, 1487.00
1914, 1486.00
1915, 1487.00
1916, 1487.00
1917, 1486.00
1918, 1485.00
1919, 1485.00
1920, 1485.00
1921, 1485.00
1922, 1484.00
1923, 1485.00
1924, 1486.00
1925, 1485.00
1926, 1485.00
1927, 1485.00
1928, 1484.00
1929, 1486.00
1930, 1484.00
1931, 1484.00
1932, 1485.00
1933, 1485.00
1934, 1485.00
1935, 1486.00
1936, 1485.00
1937, 1486.00
1938, 1485.00
1939, 1485.00
1940, 1487.00
1941, 1486.00
1942, 1484.00
1943, 1487.00
1944, 1487.00
1945, 1486.00
1946, 1487.00
1947, 1486.00
1948, 1486.00
1949, 1486.00
1950, 1487.00
1951, 1488.00
1952, 1487.00
1953, 1488.00
1954, 1489.00
1955, 1487.00
1956, 1490.00
1957, 1490.00
1958, 1488.00
1959, 1490.00
1960, 1489.00
1961, 1490.00
1962, 1489.00
1963, 1490.00
1964, 1489.00
1965, 1490.00
1966, 1492.00
1967, 1491.00
1968, 1491.00
1969, 1491.00
1970, 1492.00
1971, 1493.00
1972, 1492.00
1973, 1491.00
1974, 1494.00
1975, 1493.00
1976, 1495.00
1977, 1495.00
1978, 1495.00
1979, 1496.00
1980, 1495.00
1981, 1497.00
1982, 1495.00
1983, 1498.00
1984, 1495.00
1985, 1497.00
1986, 1498.00
1987, 1497.00
1988, 1497.00
1989, 1499.00
1990, 1499.00
1991, 1498.00
1992, 1499.00
1993, 1499.00
1994, 1501.00
1995, 1501.00
1996, 1499.00
1997, 1502.00
1998, 1502.00
1999, 1502.00
2000, 1503.00
2001, 1503.00
2002, 1502.00
2003, 1501.00
2004, 1504.00
2005, 1505.00
2006, 1503.00
2007, 1504.00
2008, 1506.00
2009, 1504.00
2010, 1506.00
2011, 1508.00
2012, 1506.00
2013, 1509.00
2014, 1508.00
2015, 1507.00
2016, 1507.00
2017, 1509.00
2018, 1508.00
2019, 1509.00
2020, 1509.00
2021, 1509.00
2022, 1509.00
2023, 1510.00
2024, 1510.00
2025, 1510.00
2026, 1512.00
2027, 1512.00
2028, 1512.00
2029, 1513.00
2030, 1511.00
2031, 1514.00
2032, 1515.00
2033, 1514.00
2034, 1515.00
2035, 1516.00
2036, 1515.00
2037, 1515.00
2038, 1516.00
2039, 1516.00
2040, 1515.00
2041, 1519.00
2042, 1519.00
2043, 1520.00
2044, 1519.00
2045, 1520.00
2046, 1520.00
2047, 1522.00
2048, 1522.00
2049, 1522.00
2050, 1522.00
2051, 1524.00
2052, 1523.00
2053, 1524.00
2054, 1526.00
2055, 1526.00
2056, 1526.00
2057, 1526.00
2058, 1528.00
2059, 1527.00
2060, 1529.00
2061, 1530.00
2062, 1529.00
2063, 1530.00
2064, 1531.00
2065, 1530.00
2066, 1531.00
2067, 1531.00
2068, 1533.00
2069, 1532.00
2070, 1535.00
2071, 1534.00
2072, 1534.00
2073, 1536.00
2074, 1535.00
2075, 1538.00
2076, 1537.00
2077, 1538.00
2078, 1537.00
2079, 1537.00
2080, 1540.00
2081, 1539.00
2082, 1540.00
2083, 1540.00
2084, 1541.00
2085, 1541.00
2086, 1542.00
2087, 1543.00
2088, 1543.00
2089, 1544.00
2090, 1544.00
2091, 1544.00
2092, 1544.00
2093, 1547.00
2094, 1547.00
2095, 1546.00
2096, 1545.00
2097, 1546.00
2098, 1548.00
2099, 1547.00
2100, 1548.00
2101, 1549.00
2102, 1547.00
2103, 1548.00
2104, 1551.00
2105, 1550.00
2106, 1550.00
2107, 1549.00
2108, 1550.00
2109, 1550.00
2110, 1551.00
2111, 1551.00
2112, 1551.00
2113, 1553.00
2114, 1552.00
2115, 1552.00
2116, 1554.00
2117, 1552.00
2118, 1554.00
2119, 1554.00
2120, 1554.00
2121, 1555.00
2122, 1556.00
2123, 1555.00
2124, 1554.00
2125, 1555.00
2126, 1553.00
2127, 1556.00
2128, 1556.00
2129, 1557.00
2130, 1555.00
2131, 1556.00
2132, 1556.00
2133, 1558.00
2134, 1556.00
2135, 1558.00
2136, 1558.00
2137, 1557.00
2138, 1559.00
2139, 1560.00
2140, 1558.00
2141, 1559.00
2142, 1560.00
2143, 1558.00
2144, 1559.00
2145, 1560.00
2146, 1559.00
2147, 1560.00
2148, 1560.00
2149, 1560.00
2150, 1560.00
