FW version: 24
Log Version: 3.0.3

General Info:
       Command/Macro Performed,            Timestamp,             Device ID, COM Port, UART/I2C, Test Name, Host Major, Host Minor, Host Revision, Host Git Commit
            Single_measurement,  2023_06_27_11_25_32,       Insight2_F4_xxx,    USB-C,      USB,          ,          0,          1,             1,      4031237645

Show Spectrometer Status:
l0_version, f4_version, battery_perc, battery_mVolt, accelerometer_temp, accelerometer_x, accelerometer_y, accelerometer_z, compass_temp, compass_x, compass_y, compass_z, lamp_0, lamp_1, gain_0, gain_1
        17,         24,           95,          2078,               5376,           65404,             192,           18468,            0,     65407,     65481,     65333,   2047,   2047,    1,    1

Temperature Statistic Info:
NTC AVG [°C], NTC2 AVG [°C]
      36.551,        36.236

Statistic Info:
M1:  num,      min,      max,   median,      AVG,      STD,M2:  num,      min,      max,   median,      AVG,      STD
     301,   716.00,   841.00,   743.00,   756.87,  38.7262,     401,  1079.00,  1151.00,  1110.00,  1111.61,  23.9228,

Measurements:
Wavelength, Data Amplitude
1350, 734.00
1351, 734.00
1352, 733.00
1353, 734.00
1354, 733.00
1355, 733.00
1356, 733.00
1357, 731.00
1358, 732.00
1359, 731.00
1360, 731.00
1361, 730.00
1362, 730.00
1363, 730.00
1364, 728.00
1365, 728.00
1366, 728.00
1367, 728.00
1368, 727.00
1369, 727.00
1370, 726.00
1371, 725.00
1372, 724.00
1373, 725.00
1374, 724.00
1375, 723.00
1376, 723.00
1377, 722.00
1378, 722.00
1379, 722.00
1380, 720.00
1381, 721.00
1382, 721.00
1383, 720.00
1384, 721.00
1385, 719.00
1386, 720.00
1387, 719.00
1388, 719.00
1389, 718.00
1390, 718.00
1391, 718.00
1392, 718.00
1393, 718.00
1394, 718.00
1395, 718.00
1396, 718.00
1397, 718.00
1398, 717.00
1399, 717.00
1400, 717.00
1401, 717.00
1402, 717.00
1403, 717.00
1404, 717.00
1405, 717.00
1406, 717.00
1407, 716.00
1408, 716.00
1409, 716.00
1410, 716.00
1411, 717.00
1412, 717.00
1413, 717.00
1414, 716.00
1415, 717.00
1416, 716.00
1417, 716.00
1418, 716.00
1419, 717.00
1420, 717.00
1421, 717.00
1422, 716.00
1423, 717.00
1424, 716.00
1425, 716.00
1426, 717.00
1427, 717.00
1428, 717.00
1429, 718.00
1430, 717.00
1431, 717.00
1432, 718.00
1433, 717.00
1434, 717.00
1435, 718.00
1436, 719.00
1437, 718.00
1438, 719.00
1439, 719.00
1440, 719.00
1441, 719.00
1442, 719.00
1443, 720.00
1444, 720.00
1445, 720.00
1446, 720.00
1447, 720.00
1448, 721.00
1449, 720.00
1450, 721.00
1451, 722.00
1452, 721.00
1453, 722.00
1454, 722.00
1455, 722.00
1456, 723.00
1457, 723.00
1458, 723.00
1459, 724.00
1460, 724.00
1461, 725.00
1462, 724.00
1463, 725.00
1464, 726.00
1465, 726.00
1466, 726.00
1467, 727.00
1468, 727.00
1469, 727.00
1470, 727.00
1471, 727.00
1472, 728.00
1473, 730.00
1474, 729.00
1475, 731.00
1476, 730.00
1477, 731.00
1478, 731.00
1479, 732.00
1480, 732.00
1481, 732.00
1482, 734.00
1483, 734.00
1484, 735.00
1485, 735.00
1486, 736.00
1487, 736.00
1488, 737.00
1489, 737.00
1490, 737.00
1491, 738.00
1492, 738.00
1493, 740.00
1494, 739.00
1495, 740.00
1496, 741.00
1497, 740.00
1498, 743.00
1499, 742.00
1500, 743.00
1501, 743.00
1502, 744.00
1503, 745.00
1504, 744.00
1505, 747.00
1506, 746.00
1507, 747.00
1508, 747.00
1509, 747.00
1510, 749.00
1511, 749.00
1512, 750.00
1513, 750.00
1514, 751.00
1515, 751.00
1516, 751.00
1517, 752.00
1518, 752.00
1519, 754.00
1520, 755.00
1521, 755.00
1522, 755.00
1523, 756.00
1524, 757.00
1525, 758.00
1526, 758.00
1527, 759.00
1528, 759.00
1529, 761.00
1530, 761.00
1531, 761.00
1532, 761.00
1533, 762.00
1534, 763.00
1535, 763.00
1536, 764.00
1537, 765.00
1538, 765.00
1539, 766.00
1540, 766.00
1541, 767.00
1542, 768.00
1543, 768.00
1544, 768.00
1545, 770.00
1546, 770.00
1547, 770.00
1548, 771.00
1549, 771.00
1550, 772.00
1551, 772.00
1552, 774.00
1553, 774.00
1554, 774.00
1555, 776.00
1556, 776.00
1557, 777.00
1558, 777.00
1559, 778.00
1560, 779.00
1561, 778.00
1562, 780.00
1563, 780.00
1564, 780.00
1565, 782.00
1566, 782.00
1567, 782.00
1568, 784.00
1569, 785.00
1570, 785.00
1571, 785.00
1572, 786.00
1573, 787.00
1574, 788.00
1575, 788.00
1576, 789.00
1577, 789.00
1578, 791.00
1579, 791.00
1580, 792.00
1581, 792.00
1582, 793.00
1583, 793.00
1584, 793.00
1585, 794.00
1586, 795.00
1587, 795.00
1588, 797.00
1589, 797.00
1590, 797.00
1591, 798.00
1592, 799.00
1593, 800.00
1594, 801.00
1595, 800.00
1596, 802.00
1597, 802.00
1598, 803.00
1599, 804.00
1600, 804.00
1601, 805.00
1602, 805.00
1603, 806.00
1604, 807.00
1605, 807.00
1606, 808.00
1607, 808.00
1608, 810.00
1609, 811.00
1610, 810.00
1611, 811.00
1612, 813.00
1613, 812.00
1614, 814.00
1615, 814.00
1616, 816.00
1617, 816.00
1618, 818.00
1619, 818.00
1620, 820.00
1621, 820.00
1622, 821.00
1623, 822.00
1624, 823.00
1625, 823.00
1626, 824.00
1627, 824.00
1628, 825.00
1629, 826.00
1630, 827.00
1631, 828.00
1632, 828.00
1633, 829.00
1634, 829.00
1635, 830.00
1636, 832.00
1637, 831.00
1638, 833.00
1639, 834.00
1640, 833.00
1641, 834.00
1642, 835.00
1643, 836.00
1644, 836.00
1645, 837.00
1646, 837.00
1647, 838.00
1648, 839.00
1649, 840.00
1650, 841.00

1750, 1150.00
1751, 1151.00
1752, 1151.00
1753, 1149.00
1754, 1149.00
1755, 1151.00
1756, 1151.00
1757, 1150.00
1758, 1150.00
1759, 1151.00
1760, 1149.00
1761, 1149.00
1762, 1150.00
1763, 1150.00
1764, 1149.00
1765, 1150.00
1766, 1149.00
1767, 1149.00
1768, 1148.00
1769, 1150.00
1770, 1150.00
1771, 1149.00
1772, 1149.00
1773, 1148.00
1774, 1148.00
1775, 1149.00
1776, 1149.00
1777, 1149.00
1778, 1149.00
1779, 1148.00
1780, 1147.00
1781, 1147.00
1782, 1147.00
1783, 1148.00
1784, 1146.00
1785, 1147.00
1786, 1145.00
1787, 1145.00
1788, 1146.00
1789, 1146.00
1790, 1146.00
1791, 1144.00
1792, 1146.00
1793, 1142.00
1794, 1145.00
1795, 1145.00
1796, 1144.00
1797, 1143.00
1798, 1143.00
1799, 1144.00
1800, 1143.00
1801, 1142.00
1802, 1142.00
1803, 1142.00
1804, 1143.00
1805, 1142.00
1806, 1141.00
1807, 1140.00
1808, 1140.00
1809, 1141.00
1810, 1141.00
1811, 1143.00
1812, 1141.00
1813, 1141.00
1814, 1138.00
1815, 1140.00
1816, 1138.00
1817, 1138.00
1818, 1139.00
1819, 1137.00
1820, 1139.00
1821, 1138.00
1822, 1137.00
1823, 1137.00
1824, 1135.00
1825, 1135.00
1826, 1134.00
1827, 1134.00
1828, 1132.00
1829, 1133.00
1830, 1131.00
1831, 1131.00
1832, 1131.00
1833, 1130.00
1834, 1128.00
1835, 1126.00
1836, 1129.00
1837, 1127.00
1838, 1125.00
1839, 1125.00
1840, 1123.00
1841, 1122.00
1842, 1123.00
1843, 1121.00
1844, 1118.00
1845, 1117.00
1846, 1118.00
1847, 1117.00
1848, 1115.00
1849, 1113.00
1850, 1112.00
1851, 1112.00
1852, 1110.00
1853, 1111.00
1854, 1108.00
1855, 1107.00
1856, 1105.00
1857, 1105.00
1858, 1103.00
1859, 1103.00
1860, 1102.00
1861, 1100.00
1862, 1099.00
1863, 1098.00
1864, 1097.00
1865, 1096.00
1866, 1098.00
1867, 1095.00
1868, 1095.00
1869, 1096.00
1870, 1094.00
1871, 1092.00
1872, 1092.00
1873, 1091.00
1874, 1090.00
1875, 1092.00
1876, 1089.00
1877, 1088.00
1878, 1090.00
1879, 1089.00
1880, 1088.00
1881, 1088.00
1882, 1088.00
1883, 1086.00
1884, 1084.00
1885, 1085.00
1886, 1086.00
1887, 1084.00
1888, 1085.00
1889, 1086.00
1890, 1084.00
1891, 1085.00
1892, 1084.00
1893, 1083.00
1894, 1084.00
1895, 1082.00
1896, 1083.00
1897, 1084.00
1898, 1081.00
1899, 1082.00
1900, 1082.00
1901, 1082.00
1902, 1082.00
1903, 1081.00
1904, 1083.00
1905, 1080.00
1906, 1082.00
1907, 1081.00
1908, 1080.00
1909, 1080.00
1910, 1081.00
1911, 1080.00
1912, 1080.00
1913, 1081.00
1914, 1079.00
1915, 1082.00
1916, 1080.00
1917, 1080.00
1918, 1079.00
1919, 1080.00
1920, 1080.00
1921, 1079.00
1922, 1080.00
1923, 1080.00
1924, 1080.00
1925, 1079.00
1926, 1079.00
1927, 1080.00
1928, 1079.00
1929, 1081.00
1930, 1080.00
1931, 1079.00
1932, 1081.00
1933, 1081.00
1934, 1081.00
1935, 1079.00
1936, 1082.00
1937, 1079.00
1938, 1081.00
1939, 1081.00
1940, 1081.00
1941, 1081.00
1942, 1081.00
1943, 1081.00
1944, 1081.00
1945, 1079.00
1946, 1081.00
1947, 1081.00
1948, 1081.00
1949, 1082.00
1950, 1081.00
1951, 1081.00
1952, 1082.00
1953, 1082.00
1954, 1083.00
1955, 1083.00
1956, 1084.00
1957, 1084.00
1958, 1084.00
1959, 1084.00
1960, 1084.00
1961, 1085.00
1962, 1084.00
1963, 1086.00
1964, 1083.00
1965, 1084.00
1966, 1085.00
1967, 1085.00
1968, 1084.00
1969, 1084.00
1970, 1087.00
1971, 1086.00
1972, 1087.00
1973, 1086.00
1974, 1087.00
1975, 1087.00
1976, 1085.00
1977, 1088.00
1978, 1088.00
1979, 1088.00
1980, 1088.00
1981, 1089.00
1982, 1089.00
1983, 1088.00
1984, 1089.00
1985, 1088.00
1986, 1089.00
1987, 1090.00
1988, 1088.00
1989, 1090.00
1990, 1091.00
1991, 1090.00
1992, 1091.00
1993, 1091.00
1994, 1092.00
1995, 1091.00
1996, 1091.00
1997, 1093.00
1998, 1092.00
1999, 1092.00
2000, 1093.00
2001, 1093.00
2002, 1093.00
2003, 1094.00
2004, 1094.00
2005, 1094.00
2006, 1094.00
2007, 1095.00
2008, 1095.00
2009, 1095.00
2010, 1096.00
2011, 1096.00
2012, 1096.00
2013, 1096.00
2014, 1096.00
2015, 1097.00
2016, 1097.00
2017, 1096.00
2018, 1100.00
2019, 1098.00
2020, 1098.00
2021, 1099.00
2022, 1098.00
2023, 1099.00
2024, 1100.00
2025, 1101.00
2026, 1099.00
2027, 1101.00
2028, 1100.00
2029, 1101.00
2030, 1100.00
2031, 1101.00
2032, 1102.00
2033, 1100.00
2034, 1103.00
2035, 1104.00
2036, 1104.00
2037, 1104.00
2038, 1103.00
2039, 1103.00
2040, 1104.00
2041, 1106.00
2042, 1105.00
2043, 1106.00
2044, 1106.00
2045, 1108.00
2046, 1106.00
2047, 1107.00
2048, 1108.00
2049, 1109.00
2050, 1108.00
2051, 1109.00
2052, 1109.00
2053, 1110.00
2054, 1109.00
2055, 1110.00
2056, 1111.00
2057, 1112.00
2058, 1111.00
2059, 1113.00
2060, 1113.00
2061, 1113.00
2062, 1114.00
2063, 1114.00
2064, 1114.00
2065, 1115.00
2066, 1114.00
2067, 1117.00
2068, 1115.00
2069, 1116.00
2070, 1117.00
2071, 1117.00
2072, 1118.00
2073, 1117.00
2074, 1119.00
2075, 1119.00
2076, 1120.00
2077, 1119.00
2078, 1121.00
2079, 1119.00
2080, 1121.00
2081, 1122.00
2082, 1124.00
2083, 1121.00
2084, 1122.00
2085, 1122.00
2086, 1123.00
2087, 1124.00
2088, 1124.00
2089, 1124.00
2090, 1125.00
2091, 1128.00
2092, 1127.00
2093, 1127.00
2094, 1127.00
2095, 1126.00
2096, 1127.00
2097, 1127.00
2098, 1128.00
2099, 1128.00
2100, 1127.00
2101, 1129.00
2102, 1128.00
2103, 1128.00
2104, 1128.00
2105, 1130.00
2106, 1127.00
2107, 1129.00
2108, 1129.00
2109, 1130.00
2110, 1131.00
2111, 1131.00
2112, 1132.00
2113, 1131.00
2114, 1131.00
2115, 1131.00
2116, 1130.00
2117, 1132.00
2118, 1133.00
2119, 1131.00
2120, 1133.00
2121, 1132.00
2122, 1133.00
2123, 1132.00
2124, 1133.00
2125, 1132.00
2126, 1134.00
2127, 1134.00
2128, 1134.00
2129, 1133.00
2130, 1136.00
2131, 1133.00
2132, 1134.00
2133, 1137.00
2134, 1135.00
2135, 1136.00
2136, 1136.00
2137, 1135.00
2138, 1135.00
2139, 1137.00
2140, 1134.00
2141, 1136.00
2142, 1137.00
2143, 1136.00
2144, 1138.00
2145, 1137.00
2146, 1137.00
2147, 1137.00
2148, 1138.00
2149, 1138.00
2150, 1137.00
