FW version: 24
Log Version: 3.0.3

General Info:
       Command/Macro Performed,            Timestamp,             Device ID, COM Port, UART/I2C, Test Name, Host Major, Host Minor, Host Revision, Host Git Commit
            Single_measurement,  2023_06_27_11_26_03,       Insight2_F4_xxx,    USB-C,      USB,          ,          0,          1,             1,      4031237645

Show Spectrometer Status:
l0_version, f4_version, battery_perc, battery_mVolt, accelerometer_temp, accelerometer_x, accelerometer_y, accelerometer_z, compass_temp, compass_x, compass_y, compass_z, lamp_0, lamp_1, gain_0, gain_1
        17,         24,           95,          2077,               5392,           65328,             184,           18396,            0,     65394,     65529,     65502,   3276,   3276,    1,    1

Temperature Statistic Info:
NTC AVG [°C], NTC2 AVG [°C]
      36.863,        36.523

Statistic Info:
M1:  num,      min,      max,   median,      AVG,      STD,M2:  num,      min,      max,   median,      AVG,      STD
     301,  1789.00,  2066.00,  1845.00,  1879.41,  85.3791,     401,  2378.00,  2536.00,  2441.00,  2446.53,  51.2498,

Measurements:
Wavelength, Data Amplitude
1350, 1842.00
1351, 1842.00
1352, 1840.00
1353, 1839.00
1354, 1839.00
1355, 1837.00
1356, 1837.00
1357, 1835.00
1358, 1835.00
1359, 1833.00
1360, 1832.00
1361, 1831.00
1362, 1829.00
1363, 1827.00
1364, 1825.00
1365, 1826.00
1366, 1825.00
1367, 1823.00
1368, 1822.00
1369, 1820.00
1370, 1820.00
1371, 1817.00
1372, 1815.00
1373, 1814.00
1374, 1813.00
1375, 1812.00
1376, 1810.00
1377, 1810.00
1378, 1807.00
1379, 1807.00
1380, 1807.00
1381, 1805.00
1382, 1804.00
1383, 1803.00
1384, 1803.00
1385, 1800.00
1386, 1799.00
1387, 1800.00
1388, 1799.00
1389, 1798.00
1390, 1799.00
1391, 1798.00
1392, 1796.00
1393, 1797.00
1394, 1795.00
1395, 1795.00
1396, 1795.00
1397, 1794.00
1398, 1795.00
1399, 1794.00
1400, 1793.00
1401, 1793.00
1402, 1791.00
1403, 1793.00
1404, 1791.00
1405, 1792.00
1406, 1791.00
1407, 1791.00
1408, 1790.00
1409, 1791.00
1410, 1790.00
1411, 1791.00
1412, 1791.00
1413, 1791.00
1414, 1790.00
1415, 1789.00
1416, 1789.00
1417, 1789.00
1418, 1790.00
1419, 1790.00
1420, 1790.00
1421, 1789.00
1422, 1790.00
1423, 1790.00
1424, 1790.00
1425, 1789.00
1426, 1790.00
1427, 1789.00
1428, 1790.00
1429, 1790.00
1430, 1790.00
1431, 1791.00
1432, 1791.00
1433, 1791.00
1434, 1791.00
1435, 1792.00
1436, 1791.00
1437, 1793.00
1438, 1793.00
1439, 1793.00
1440, 1794.00
1441, 1795.00
1442, 1795.00
1443, 1794.00
1444, 1794.00
1445, 1796.00
1446, 1797.00
1447, 1797.00
1448, 1797.00
1449, 1798.00
1450, 1798.00
1451, 1799.00
1452, 1799.00
1453, 1799.00
1454, 1801.00
1455, 1802.00
1456, 1802.00
1457, 1804.00
1458, 1803.00
1459, 1804.00
1460, 1805.00
1461, 1807.00
1462, 1807.00
1463, 1807.00
1464, 1809.00
1465, 1809.00
1466, 1809.00
1467, 1810.00
1468, 1812.00
1469, 1812.00
1470, 1813.00
1471, 1814.00
1472, 1815.00
1473, 1815.00
1474, 1816.00
1475, 1818.00
1476, 1819.00
1477, 1819.00
1478, 1821.00
1479, 1821.00
1480, 1823.00
1481, 1824.00
1482, 1826.00
1483, 1826.00
1484, 1827.00
1485, 1828.00
1486, 1829.00
1487, 1830.00
1488, 1831.00
1489, 1833.00
1490, 1833.00
1491, 1834.00
1492, 1836.00
1493, 1837.00
1494, 1838.00
1495, 1839.00
1496, 1840.00
1497, 1842.00
1498, 1842.00
1499, 1844.00
1500, 1845.00
1501, 1845.00
1502, 1846.00
1503, 1849.00
1504, 1849.00
1505, 1850.00
1506, 1852.00
1507, 1854.00
1508, 1853.00
1509, 1857.00
1510, 1856.00
1511, 1858.00
1512, 1860.00
1513, 1860.00
1514, 1862.00
1515, 1862.00
1516, 1865.00
1517, 1865.00
1518, 1868.00
1519, 1867.00
1520, 1869.00
1521, 1871.00
1522, 1873.00
1523, 1874.00
1524, 1874.00
1525, 1877.00
1526, 1878.00
1527, 1879.00
1528, 1879.00
1529, 1882.00
1530, 1883.00
1531, 1884.00
1532, 1886.00
1533, 1887.00
1534, 1889.00
1535, 1890.00
1536, 1891.00
1537, 1892.00
1538, 1893.00
1539, 1896.00
1540, 1896.00
1541, 1898.00
1542, 1898.00
1543, 1900.00
1544, 1901.00
1545, 1903.00
1546, 1905.00
1547, 1906.00
1548, 1907.00
1549, 1908.00
1550, 1910.00
1551, 1911.00
1552, 1914.00
1553, 1915.00
1554, 1917.00
1555, 1917.00
1556, 1917.00
1557, 1920.00
1558, 1922.00
1559, 1924.00
1560, 1925.00
1561, 1927.00
1562, 1929.00
1563, 1931.00
1564, 1933.00
1565, 1933.00
1566, 1934.00
1567, 1937.00
1568, 1937.00
1569, 1940.00
1570, 1941.00
1571, 1943.00
1572, 1945.00
1573, 1945.00
1574, 1947.00
1575, 1948.00
1576, 1951.00
1577, 1951.00
1578, 1953.00
1579, 1955.00
1580, 1956.00
1581, 1957.00
1582, 1959.00
1583, 1960.00
1584, 1962.00
1585, 1964.00
1586, 1965.00
1587, 1966.00
1588, 1967.00
1589, 1969.00
1590, 1970.00
1591, 1971.00
1592, 1973.00
1593, 1974.00
1594, 1977.00
1595, 1977.00
1596, 1979.00
1597, 1980.00
1598, 1982.00
1599, 1983.00
1600, 1985.00
1601, 1985.00
1602, 1987.00
1603, 1988.00
1604, 1991.00
1605, 1992.00
1606, 1994.00
1607, 1995.00
1608, 1998.00
1609, 1998.00
1610, 1999.00
1611, 2001.00
1612, 2004.00
1613, 2005.00
1614, 2007.00
1615, 2009.00
1616, 2009.00
1617, 2013.00
1618, 2015.00
1619, 2015.00
1620, 2018.00
1621, 2019.00
1622, 2022.00
1623, 2022.00
1624, 2025.00
1625, 2026.00
1626, 2028.00
1627, 2030.00
1628, 2031.00
1629, 2033.00
1630, 2034.00
1631, 2036.00
1632, 2038.00
1633, 2040.00
1634, 2041.00
1635, 2041.00
1636, 2043.00
1637, 2045.00
1638, 2048.00
1639, 2048.00
1640, 2049.00
1641, 2052.00
1642, 2054.00
1643, 2054.00
1644, 2055.00
1645, 2058.00
1646, 2059.00
1647, 2060.00
1648, 2061.00
1649, 2063.00
1650, 2066.00

1750, 2534.00
1751, 2535.00
1752, 2536.00
1753, 2535.00
1754, 2534.00
1755, 2535.00
1756, 2534.00
1757, 2536.00
1758, 2535.00
1759, 2536.00
1760, 2534.00
1761, 2535.00
1762, 2534.00
1763, 2534.00
1764, 2534.00
1765, 2535.00
1766, 2535.00
1767, 2536.00
1768, 2532.00
1769, 2532.00
1770, 2532.00
1771, 2533.00
1772, 2531.00
1773, 2531.00
1774, 2532.00
1775, 2531.00
1776, 2530.00
1777, 2532.00
1778, 2531.00
1779, 2529.00
1780, 2529.00
1781, 2529.00
1782, 2527.00
1783, 2527.00
1784, 2528.00
1785, 2526.00
1786, 2526.00
1787, 2526.00
1788, 2526.00
1789, 2523.00
1790, 2522.00
1791, 2521.00
1792, 2523.00
1793, 2523.00
1794, 2521.00
1795, 2521.00
1796, 2519.00
1797, 2521.00
1798, 2519.00
1799, 2517.00
1800, 2518.00
1801, 2517.00
1802, 2518.00
1803, 2517.00
1804, 2515.00
1805, 2515.00
1806, 2514.00
1807, 2514.00
1808, 2515.00
1809, 2514.00
1810, 2513.00
1811, 2513.00
1812, 2510.00
1813, 2510.00
1814, 2510.00
1815, 2510.00
1816, 2510.00
1817, 2507.00
1818, 2506.00
1819, 2507.00
1820, 2503.00
1821, 2505.00
1822, 2500.00
1823, 2502.00
1824, 2501.00
1825, 2501.00
1826, 2497.00
1827, 2498.00
1828, 2495.00
1829, 2495.00
1830, 2493.00
1831, 2491.00
1832, 2488.00
1833, 2488.00
1834, 2485.00
1835, 2483.00
1836, 2480.00
1837, 2481.00
1838, 2479.00
1839, 2476.00
1840, 2473.00
1841, 2471.00
1842, 2470.00
1843, 2466.00
1844, 2464.00
1845, 2462.00
1846, 2459.00
1847, 2457.00
1848, 2456.00
1849, 2450.00
1850, 2449.00
1851, 2447.00
1852, 2445.00
1853, 2444.00
1854, 2440.00
1855, 2437.00
1856, 2436.00
1857, 2433.00
1858, 2431.00
1859, 2427.00
1860, 2427.00
1861, 2425.00
1862, 2422.00
1863, 2422.00
1864, 2419.00
1865, 2417.00
1866, 2415.00
1867, 2412.00
1868, 2411.00
1869, 2411.00
1870, 2407.00
1871, 2407.00
1872, 2405.00
1873, 2405.00
1874, 2403.00
1875, 2404.00
1876, 2401.00
1877, 2401.00
1878, 2398.00
1879, 2398.00
1880, 2397.00
1881, 2395.00
1882, 2395.00
1883, 2392.00
1884, 2393.00
1885, 2392.00
1886, 2392.00
1887, 2391.00
1888, 2392.00
1889, 2390.00
1890, 2389.00
1891, 2390.00
1892, 2390.00
1893, 2390.00
1894, 2386.00
1895, 2387.00
1896, 2389.00
1897, 2389.00
1898, 2385.00
1899, 2386.00
1900, 2384.00
1901, 2385.00
1902, 2384.00
1903, 2385.00
1904, 2383.00
1905, 2383.00
1906, 2383.00
1907, 2386.00
1908, 2382.00
1909, 2381.00
1910, 2383.00
1911, 2380.00
1912, 2380.00
1913, 2383.00
1914, 2382.00
1915, 2381.00
1916, 2381.00
1917, 2381.00
1918, 2381.00
1919, 2382.00
1920, 2379.00
1921, 2380.00
1922, 2381.00
1923, 2380.00
1924, 2378.00
1925, 2379.00
1926, 2381.00
1927, 2380.00
1928, 2381.00
1929, 2381.00
1930, 2381.00
1931, 2381.00
1932, 2379.00
1933, 2380.00
1934, 2379.00
1935, 2379.00
1936, 2381.00
1937, 2383.00
1938, 2381.00
1939, 2380.00
1940, 2379.00
1941, 2382.00
1942, 2383.00
1943, 2380.00
1944, 2381.00
1945, 2383.00
1946, 2383.00
1947, 2381.00
1948, 2383.00
1949, 2385.00
1950, 2384.00
1951, 2383.00
1952, 2383.00
1953, 2384.00
1954, 2387.00
1955, 2384.00
1956, 2384.00
1957, 2387.00
1958, 2385.00
1959, 2387.00
1960, 2387.00
1961, 2386.00
1962, 2387.00
1963, 2389.00
1964, 2388.00
1965, 2390.00
1966, 2390.00
1967, 2391.00
1968, 2389.00
1969, 2393.00
1970, 2392.00
1971, 2392.00
1972, 2394.00
1973, 2393.00
1974, 2393.00
1975, 2394.00
1976, 2395.00
1977, 2396.00
1978, 2397.00
1979, 2396.00
1980, 2396.00
1981, 2398.00
1982, 2397.00
1983, 2398.00
1984, 2399.00
1985, 2398.00
1986, 2399.00
1987, 2399.00
1988, 2402.00
1989, 2401.00
1990, 2401.00
1991, 2403.00
1992, 2402.00
1993, 2403.00
1994, 2405.00
1995, 2404.00
1996, 2403.00
1997, 2407.00
1998, 2406.00
1999, 2406.00
2000, 2407.00
2001, 2407.00
2002, 2407.00
2003, 2408.00
2004, 2409.00
2005, 2409.00
2006, 2410.00
2007, 2410.00
2008, 2412.00
2009, 2413.00
2010, 2411.00
2011, 2414.00
2012, 2413.00
2013, 2413.00
2014, 2415.00
2015, 2415.00
2016, 2416.00
2017, 2416.00
2018, 2416.00
2019, 2417.00
2020, 2417.00
2021, 2419.00
2022, 2419.00
2023, 2418.00
2024, 2420.00
2025, 2419.00
2026, 2421.00
2027, 2423.00
2028, 2423.00
2029, 2425.00
2030, 2423.00
2031, 2422.00
2032, 2424.00
2033, 2427.00
2034, 2425.00
2035, 2427.00
2036, 2428.00
2037, 2429.00
2038, 2427.00
2039, 2429.00
2040, 2430.00
2041, 2431.00
2042, 2431.00
2043, 2433.00
2044, 2432.00
2045, 2432.00
2046, 2435.00
2047, 2436.00
2048, 2436.00
2049, 2438.00
2050, 2440.00
2051, 2437.00
2052, 2439.00
2053, 2441.00
2054, 2442.00
2055, 2441.00
2056, 2443.00
2057, 2445.00
2058, 2445.00
2059, 2444.00
2060, 2446.00
2061, 2446.00
2062, 2448.00
2063, 2449.00
2064, 2451.00
2065, 2451.00
2066, 2451.00
2067, 2451.00
2068, 2452.00
2069, 2454.00
2070, 2454.00
2071, 2457.00
2072, 2455.00
2073, 2457.00
2074, 2459.00
2075, 2458.00
2076, 2459.00
2077, 2458.00
2078, 2463.00
2079, 2463.00
2080, 2463.00
2081, 2464.00
2082, 2463.00
2083, 2465.00
2084, 2465.00
2085, 2464.00
2086, 2466.00
2087, 2469.00
2088, 2469.00
2089, 2469.00
2090, 2470.00
2091, 2471.00
2092, 2470.00
2093, 2472.00
2094, 2473.00
2095, 2473.00
2096, 2473.00
2097, 2475.00
2098, 2476.00
2099, 2476.00
2100, 2476.00
2101, 2477.00
2102, 2475.00
2103, 2476.00
2104, 2476.00
2105, 2479.00
2106, 2478.00
2107, 2480.00
2108, 2479.00
2109, 2481.00
2110, 2481.00
2111, 2479.00
2112, 2482.00
2113, 2481.00
2114, 2480.00
2115, 2482.00
2116, 2481.00
2117, 2483.00
2118, 2482.00
2119, 2482.00
2120, 2483.00
2121, 2483.00
2122, 2483.00
2123, 2485.00
2124, 2485.00
2125, 2487.00
2126, 2487.00
2127, 2487.00
2128, 2488.00
2129, 2488.00
2130, 2487.00
2131, 2489.00
2132, 2487.00
2133, 2488.00
2134, 2488.00
2135, 2490.00
2136, 2489.00
2137, 2489.00
2138, 2490.00
2139, 2489.00
2140, 2491.00
2141, 2492.00
2142, 2492.00
2143, 2491.00
2144, 2491.00
2145, 2492.00
2146, 2493.00
2147, 2492.00
2148, 2495.00
2149, 2494.00
2150, 2493.00
