FW version: 24
Log Version: 3.0.3

General Info:
       Command/Macro Performed,            Timestamp,             Device ID, COM Port, UART/I2C, Test Name, Host Major, Host Minor, Host Revision, Host Git Commit
            Single_measurement,  2023_07_11_12_10_03,       Insight2_F4_xxx,    USB-C,      USB,          ,          0,          1,             1,      4031237645

Show Spectrometer Status:
l0_version, f4_version, battery_perc, battery_mVolt, accelerometer_temp, accelerometer_x, accelerometer_y, accelerometer_z, compass_temp, compass_x, compass_y, compass_z, lamp_0, lamp_1, gain_0, gain_1
        17,         24,           53,          1916,               7056,           64760,            1480,           18768,            0,     65528,     65487,     18808,   3276,   3276,      0,      0

Temperature Statistic Info:
NTC AVG [°C], NTC2 AVG [°C]
      42.373,        42.070

Statistic Info:
M1:  num,      min,      max,   median,      AVG,      STD,M2:  num,      min,      max,   median,      AVG,      STD
     301,   727.00,   830.00,   751.00,   761.52,  32.2920,     401,   978.00,  1038.00,  1009.00,  1007.93,  20.2801,

Measurements:
Wavelength, Data Amplitude
1350, 740.00
1351, 740.00
1352, 740.00
1353, 740.00
1354, 739.00
1355, 739.00
1356, 739.00
1357, 739.00
1358, 738.00
1359, 738.00
1360, 738.00
1361, 737.00
1362, 738.00
1363, 737.00
1364, 736.00
1365, 736.00
1366, 735.00
1367, 735.00
1368, 735.00
1369, 734.00
1370, 734.00
1371, 734.00
1372, 733.00
1373, 734.00
1374, 733.00
1375, 732.00
1376, 732.00
1377, 732.00
1378, 731.00
1379, 732.00
1380, 731.00
1381, 730.00
1382, 731.00
1383, 730.00
1384, 730.00
1385, 730.00
1386, 729.00
1387, 729.00
1388, 729.00
1389, 730.00
1390, 729.00
1391, 729.00
1392, 728.00
1393, 729.00
1394, 729.00
1395, 728.00
1396, 728.00
1397, 728.00
1398, 728.00
1399, 728.00
1400, 728.00
1401, 727.00
1402, 728.00
1403, 727.00
1404, 727.00
1405, 728.00
1406, 728.00
1407, 728.00
1408, 728.00
1409, 728.00
1410, 728.00
1411, 728.00
1412, 728.00
1413, 728.00
1414, 727.00
1415, 727.00
1416, 727.00
1417, 727.00
1418, 728.00
1419, 728.00
1420, 727.00
1421, 728.00
1422, 727.00
1423, 728.00
1424, 728.00
1425, 728.00
1426, 728.00
1427, 728.00
1428, 728.00
1429, 729.00
1430, 729.00
1431, 729.00
1432, 729.00
1433, 729.00
1434, 729.00
1435, 729.00
1436, 729.00
1437, 729.00
1438, 730.00
1439, 730.00
1440, 731.00
1441, 731.00
1442, 730.00
1443, 731.00
1444, 731.00
1445, 731.00
1446, 731.00
1447, 732.00
1448, 732.00
1449, 732.00
1450, 733.00
1451, 732.00
1452, 733.00
1453, 733.00
1454, 734.00
1455, 734.00
1456, 734.00
1457, 735.00
1458, 734.00
1459, 735.00
1460, 735.00
1461, 735.00
1462, 736.00
1463, 737.00
1464, 737.00
1465, 737.00
1466, 737.00
1467, 737.00
1468, 737.00
1469, 738.00
1470, 739.00
1471, 739.00
1472, 739.00
1473, 740.00
1474, 740.00
1475, 741.00
1476, 741.00
1477, 741.00
1478, 742.00
1479, 742.00
1480, 742.00
1481, 742.00
1482, 743.00
1483, 744.00
1484, 744.00
1485, 744.00
1486, 744.00
1487, 745.00
1488, 746.00
1489, 746.00
1490, 746.00
1491, 747.00
1492, 747.00
1493, 748.00
1494, 748.00
1495, 749.00
1496, 749.00
1497, 750.00
1498, 750.00
1499, 751.00
1500, 751.00
1501, 751.00
1502, 751.00
1503, 752.00
1504, 752.00
1505, 753.00
1506, 753.00
1507, 754.00
1508, 754.00
1509, 754.00
1510, 755.00
1511, 755.00
1512, 755.00
1513, 756.00
1514, 757.00
1515, 757.00
1516, 757.00
1517, 758.00
1518, 758.00
1519, 759.00
1520, 759.00
1521, 759.00
1522, 760.00
1523, 761.00
1524, 761.00
1525, 762.00
1526, 762.00
1527, 763.00
1528, 763.00
1529, 763.00
1530, 764.00
1531, 764.00
1532, 765.00
1533, 765.00
1534, 766.00
1535, 767.00
1536, 768.00
1537, 768.00
1538, 768.00
1539, 768.00
1540, 769.00
1541, 769.00
1542, 770.00
1543, 771.00
1544, 771.00
1545, 772.00
1546, 772.00
1547, 773.00
1548, 773.00
1549, 773.00
1550, 774.00
1551, 775.00
1552, 776.00
1553, 776.00
1554, 777.00
1555, 777.00
1556, 777.00
1557, 779.00
1558, 779.00
1559, 779.00
1560, 780.00
1561, 780.00
1562, 781.00
1563, 782.00
1564, 782.00
1565, 783.00
1566, 784.00
1567, 784.00
1568, 785.00
1569, 785.00
1570, 786.00
1571, 786.00
1572, 787.00
1573, 787.00
1574, 788.00
1575, 789.00
1576, 789.00
1577, 790.00
1578, 790.00
1579, 791.00
1580, 791.00
1581, 792.00
1582, 792.00
1583, 793.00
1584, 793.00
1585, 794.00
1586, 794.00
1587, 795.00
1588, 795.00
1589, 795.00
1590, 795.00
1591, 796.00
1592, 797.00
1593, 797.00
1594, 798.00
1595, 799.00
1596, 799.00
1597, 799.00
1598, 800.00
1599, 800.00
1600, 800.00
1601, 801.00
1602, 802.00
1603, 803.00
1604, 803.00
1605, 803.00
1606, 805.00
1607, 805.00
1608, 805.00
1609, 806.00
1610, 807.00
1611, 807.00
1612, 808.00
1613, 808.00
1614, 809.00
1615, 810.00
1616, 810.00
1617, 811.00
1618, 812.00
1619, 812.00
1620, 813.00
1621, 813.00
1622, 815.00
1623, 815.00
1624, 816.00
1625, 816.00
1626, 817.00
1627, 818.00
1628, 818.00
1629, 819.00
1630, 819.00
1631, 820.00
1632, 821.00
1633, 821.00
1634, 822.00
1635, 822.00
1636, 823.00
1637, 824.00
1638, 824.00
1639, 825.00
1640, 825.00
1641, 826.00
1642, 826.00
1643, 826.00
1644, 827.00
1645, 828.00
1646, 828.00
1647, 829.00
1648, 829.00
1649, 830.00
1650, 830.00

1750, 1037.00
1751, 1038.00
1752, 1038.00
1753, 1038.00
1754, 1038.00
1755, 1037.00
1756, 1038.00
1757, 1037.00
1758, 1037.00
1759, 1037.00
1760, 1037.00
1761, 1036.00
1762, 1037.00
1763, 1038.00
1764, 1037.00
1765, 1037.00
1766, 1037.00
1767, 1037.00
1768, 1036.00
1769, 1037.00
1770, 1036.00
1771, 1036.00
1772, 1036.00
1773, 1036.00
1774, 1036.00
1775, 1035.00
1776, 1035.00
1777, 1035.00
1778, 1035.00
1779, 1035.00
1780, 1034.00
1781, 1035.00
1782, 1034.00
1783, 1034.00
1784, 1034.00
1785, 1034.00
1786, 1034.00
1787, 1034.00
1788, 1033.00
1789, 1033.00
1790, 1032.00
1791, 1033.00
1792, 1032.00
1793, 1032.00
1794, 1032.00
1795, 1032.00
1796, 1032.00
1797, 1032.00
1798, 1031.00
1799, 1031.00
1800, 1030.00
1801, 1030.00
1802, 1031.00
1803, 1030.00
1804, 1030.00
1805, 1031.00
1806, 1030.00
1807, 1029.00
1808, 1030.00
1809, 1029.00
1810, 1029.00
1811, 1029.00
1812, 1029.00
1813, 1029.00
1814, 1029.00
1815, 1028.00
1816, 1028.00
1817, 1028.00
1818, 1028.00
1819, 1028.00
1820, 1027.00
1821, 1027.00
1822, 1027.00
1823, 1026.00
1824, 1026.00
1825, 1025.00
1826, 1025.00
1827, 1024.00
1828, 1024.00
1829, 1024.00
1830, 1024.00
1831, 1022.00
1832, 1022.00
1833, 1021.00
1834, 1020.00
1835, 1020.00
1836, 1019.00
1837, 1019.00
1838, 1019.00
1839, 1017.00
1840, 1016.00
1841, 1016.00
1842, 1015.00
1843, 1013.00
1844, 1013.00
1845, 1012.00
1846, 1012.00
1847, 1010.00
1848, 1010.00
1849, 1009.00
1850, 1007.00
1851, 1007.00
1852, 1006.00
1853, 1005.00
1854, 1004.00
1855, 1003.00
1856, 1001.00
1857, 1001.00
1858, 1000.00
1859, 998.00
1860, 997.00
1861, 997.00
1862, 997.00
1863, 996.00
1864, 995.00
1865, 994.00
1866, 994.00
1867, 993.00
1868, 991.00
1869, 991.00
1870, 990.00
1871, 990.00
1872, 989.00
1873, 988.00
1874, 988.00
1875, 988.00
1876, 986.00
1877, 986.00
1878, 986.00
1879, 984.00
1880, 985.00
1881, 985.00
1882, 984.00
1883, 985.00
1884, 984.00
1885, 983.00
1886, 984.00
1887, 983.00
1888, 983.00
1889, 981.00
1890, 982.00
1891, 982.00
1892, 982.00
1893, 981.00
1894, 981.00
1895, 981.00
1896, 980.00
1897, 981.00
1898, 980.00
1899, 981.00
1900, 980.00
1901, 980.00
1902, 980.00
1903, 980.00
1904, 980.00
1905, 979.00
1906, 979.00
1907, 979.00
1908, 980.00
1909, 980.00
1910, 979.00
1911, 979.00
1912, 979.00
1913, 980.00
1914, 979.00
1915, 979.00
1916, 980.00
1917, 979.00
1918, 979.00
1919, 979.00
1920, 978.00
1921, 978.00
1922, 980.00
1923, 979.00
1924, 979.00
1925, 978.00
1926, 978.00
1927, 979.00
1928, 979.00
1929, 979.00
1930, 979.00
1931, 979.00
1932, 979.00
1933, 979.00
1934, 979.00
1935, 980.00
1936, 980.00
1937, 980.00
1938, 979.00
1939, 980.00
1940, 980.00
1941, 979.00
1942, 981.00
1943, 980.00
1944, 981.00
1945, 981.00
1946, 981.00
1947, 981.00
1948, 981.00
1949, 981.00
1950, 981.00
1951, 982.00
1952, 982.00
1953, 981.00
1954, 983.00
1955, 982.00
1956, 983.00
1957, 983.00
1958, 983.00
1959, 984.00
1960, 983.00
1961, 984.00
1962, 984.00
1963, 984.00
1964, 985.00
1965, 985.00
1966, 985.00
1967, 985.00
1968, 985.00
1969, 986.00
1970, 986.00
1971, 986.00
1972, 987.00
1973, 987.00
1974, 987.00
1975, 987.00
1976, 988.00
1977, 988.00
1978, 988.00
1979, 989.00
1980, 989.00
1981, 989.00
1982, 990.00
1983, 989.00
1984, 991.00
1985, 990.00
1986, 991.00
1987, 991.00
1988, 991.00
1989, 991.00
1990, 991.00
1991, 992.00
1992, 993.00
1993, 992.00
1994, 994.00
1995, 994.00
1996, 993.00
1997, 993.00
1998, 994.00
1999, 995.00
2000, 994.00
2001, 995.00
2002, 995.00
2003, 995.00
2004, 995.00
2005, 996.00
2006, 996.00
2007, 996.00
2008, 996.00
2009, 996.00
2010, 996.00
2011, 997.00
2012, 997.00
2013, 998.00
2014, 998.00
2015, 998.00
2016, 998.00
2017, 1000.00
2018, 999.00
2019, 999.00
2020, 1000.00
2021, 1000.00
2022, 1000.00
2023, 1001.00
2024, 1000.00
2025, 1001.00
2026, 1002.00
2027, 1001.00
2028, 1001.00
2029, 1001.00
2030, 1003.00
2031, 1002.00
2032, 1003.00
2033, 1003.00
2034, 1004.00
2035, 1004.00
2036, 1004.00
2037, 1004.00
2038, 1005.00
2039, 1005.00
2040, 1005.00
2041, 1006.00
2042, 1006.00
2043, 1006.00
2044, 1008.00
2045, 1007.00
2046, 1007.00
2047, 1007.00
2048, 1009.00
2049, 1009.00
2050, 1008.00
2051, 1009.00
2052, 1010.00
2053, 1010.00
2054, 1010.00
2055, 1011.00
2056, 1011.00
2057, 1011.00
2058, 1012.00
2059, 1013.00
2060, 1013.00
2061, 1013.00
2062, 1013.00
2063, 1015.00
2064, 1014.00
2065, 1015.00
2066, 1015.00
2067, 1016.00
2068, 1016.00
2069, 1016.00
2070, 1017.00
2071, 1016.00
2072, 1017.00
2073, 1018.00
2074, 1018.00
2075, 1018.00
2076, 1018.00
2077, 1019.00
2078, 1019.00
2079, 1019.00
2080, 1020.00
2081, 1020.00
2082, 1020.00
2083, 1020.00
2084, 1021.00
2085, 1021.00
2086, 1022.00
2087, 1022.00
2088, 1021.00
2089, 1023.00
2090, 1024.00
2091, 1024.00
2092, 1024.00
2093, 1024.00
2094, 1024.00
2095, 1025.00
2096, 1025.00
2097, 1025.00
2098, 1024.00
2099, 1025.00
2100, 1025.00
2101, 1026.00
2102, 1026.00
2103, 1027.00
2104, 1026.00
2105, 1026.00
2106, 1026.00
2107, 1027.00
2108, 1027.00
2109, 1027.00
2110, 1027.00
2111, 1028.00
2112, 1028.00
2113, 1028.00
2114, 1027.00
2115, 1027.00
2116, 1028.00
2117, 1028.00
2118, 1028.00
2119, 1028.00
2120, 1028.00
2121, 1028.00
2122, 1028.00
2123, 1029.00
2124, 1029.00
2125, 1029.00
2126, 1029.00
2127, 1029.00
2128, 1029.00
2129, 1029.00
2130, 1030.00
2131, 1029.00
2132, 1029.00
2133, 1031.00
2134, 1030.00
2135, 1030.00
2136, 1030.00
2137, 1031.00
2138, 1031.00
2139, 1030.00
2140, 1032.00
2141, 1030.00
2142, 1031.00
2143, 1031.00
2144, 1031.00
2145, 1031.00
2146, 1031.00
2147, 1031.00
2148, 1032.00
2149, 1031.00
2150, 1032.00
