FW version: 24
Log Version: 3.0.3

General Info:
       Command/Macro Performed,            Timestamp,             Device ID, COM Port, UART/I2C, Test Name, Host Major, Host Minor, Host Revision, Host Git Commit
            Single_measurement,  2023_07_11_12_10_53,       Insight2_F4_xxx,    USB-C,      USB,          ,          0,          1,             1,      4031237645

Show Spectrometer Status:
l0_version, f4_version, battery_perc, battery_mVolt, accelerometer_temp, accelerometer_x, accelerometer_y, accelerometer_z, compass_temp, compass_x, compass_y, compass_z, lamp_0, lamp_1, gain_0, gain_1
        17,         24,           53,          1913,               7056,           64780,            1496,           18740,            0,     65325,     65500,     18805,   2866,   2866,      1,      1

Temperature Statistic Info:
NTC AVG [°C], NTC2 AVG [°C]
      42.614,        42.313

Statistic Info:
M1:  num,      min,      max,   median,      AVG,      STD,M2:  num,      min,      max,   median,      AVG,      STD
     301,  1641.00,  1882.00,  1696.00,  1721.30,  75.6882,     401,  2282.00,  2422.00,  2355.00,  2352.46,  47.2610,

Measurements:
Wavelength, Data Amplitude
1350, 1667.00
1351, 1669.00
1352, 1668.00
1353, 1667.00
1354, 1667.00
1355, 1666.00
1356, 1666.00
1357, 1665.00
1358, 1664.00
1359, 1664.00
1360, 1663.00
1361, 1663.00
1362, 1663.00
1363, 1661.00
1364, 1660.00
1365, 1660.00
1366, 1659.00
1367, 1659.00
1368, 1657.00
1369, 1657.00
1370, 1656.00
1371, 1655.00
1372, 1654.00
1373, 1653.00
1374, 1653.00
1375, 1653.00
1376, 1651.00
1377, 1650.00
1378, 1651.00
1379, 1649.00
1380, 1648.00
1381, 1649.00
1382, 1648.00
1383, 1648.00
1384, 1647.00
1385, 1647.00
1386, 1646.00
1387, 1645.00
1388, 1645.00
1389, 1645.00
1390, 1644.00
1391, 1644.00
1392, 1645.00
1393, 1644.00
1394, 1645.00
1395, 1643.00
1396, 1643.00
1397, 1644.00
1398, 1644.00
1399, 1643.00
1400, 1643.00
1401, 1642.00
1402, 1642.00
1403, 1643.00
1404, 1642.00
1405, 1643.00
1406, 1642.00
1407, 1643.00
1408, 1641.00
1409, 1642.00
1410, 1642.00
1411, 1641.00
1412, 1642.00
1413, 1642.00
1414, 1642.00
1415, 1642.00
1416, 1642.00
1417, 1641.00
1418, 1643.00
1419, 1641.00
1420, 1642.00
1421, 1642.00
1422, 1643.00
1423, 1643.00
1424, 1643.00
1425, 1643.00
1426, 1643.00
1427, 1644.00
1428, 1643.00
1429, 1644.00
1430, 1645.00
1431, 1645.00
1432, 1645.00
1433, 1646.00
1434, 1647.00
1435, 1647.00
1436, 1648.00
1437, 1648.00
1438, 1648.00
1439, 1649.00
1440, 1649.00
1441, 1649.00
1442, 1650.00
1443, 1651.00
1444, 1651.00
1445, 1652.00
1446, 1652.00
1447, 1652.00
1448, 1653.00
1449, 1653.00
1450, 1654.00
1451, 1654.00
1452, 1655.00
1453, 1655.00
1454, 1657.00
1455, 1656.00
1456, 1658.00
1457, 1658.00
1458, 1659.00
1459, 1659.00
1460, 1660.00
1461, 1661.00
1462, 1661.00
1463, 1662.00
1464, 1663.00
1465, 1664.00
1466, 1664.00
1467, 1665.00
1468, 1665.00
1469, 1667.00
1470, 1667.00
1471, 1669.00
1472, 1669.00
1473, 1669.00
1474, 1670.00
1475, 1672.00
1476, 1674.00
1477, 1674.00
1478, 1675.00
1479, 1676.00
1480, 1676.00
1481, 1678.00
1482, 1679.00
1483, 1680.00
1484, 1680.00
1485, 1682.00
1486, 1684.00
1487, 1683.00
1488, 1685.00
1489, 1685.00
1490, 1687.00
1491, 1687.00
1492, 1689.00
1493, 1690.00
1494, 1690.00
1495, 1690.00
1496, 1693.00
1497, 1693.00
1498, 1694.00
1499, 1694.00
1500, 1696.00
1501, 1697.00
1502, 1699.00
1503, 1698.00
1504, 1700.00
1505, 1700.00
1506, 1702.00
1507, 1702.00
1508, 1705.00
1509, 1705.00
1510, 1705.00
1511, 1707.00
1512, 1708.00
1513, 1709.00
1514, 1710.00
1515, 1711.00
1516, 1712.00
1517, 1713.00
1518, 1714.00
1519, 1716.00
1520, 1716.00
1521, 1718.00
1522, 1719.00
1523, 1720.00
1524, 1721.00
1525, 1721.00
1526, 1723.00
1527, 1725.00
1528, 1725.00
1529, 1726.00
1530, 1727.00
1531, 1730.00
1532, 1730.00
1533, 1732.00
1534, 1733.00
1535, 1733.00
1536, 1734.00
1537, 1736.00
1538, 1737.00
1539, 1738.00
1540, 1739.00
1541, 1741.00
1542, 1743.00
1543, 1743.00
1544, 1745.00
1545, 1746.00
1546, 1747.00
1547, 1747.00
1548, 1749.00
1549, 1750.00
1550, 1752.00
1551, 1752.00
1552, 1753.00
1553, 1755.00
1554, 1757.00
1555, 1758.00
1556, 1759.00
1557, 1761.00
1558, 1761.00
1559, 1763.00
1560, 1765.00
1561, 1765.00
1562, 1767.00
1563, 1768.00
1564, 1770.00
1565, 1771.00
1566, 1773.00
1567, 1775.00
1568, 1776.00
1569, 1777.00
1570, 1779.00
1571, 1779.00
1572, 1780.00
1573, 1783.00
1574, 1783.00
1575, 1785.00
1576, 1785.00
1577, 1786.00
1578, 1787.00
1579, 1790.00
1580, 1790.00
1581, 1791.00
1582, 1791.00
1583, 1793.00
1584, 1795.00
1585, 1796.00
1586, 1798.00
1587, 1799.00
1588, 1800.00
1589, 1800.00
1590, 1802.00
1591, 1802.00
1592, 1804.00
1593, 1804.00
1594, 1805.00
1595, 1808.00
1596, 1808.00
1597, 1809.00
1598, 1812.00
1599, 1812.00
1600, 1812.00
1601, 1815.00
1602, 1817.00
1603, 1817.00
1604, 1819.00
1605, 1820.00
1606, 1821.00
1607, 1823.00
1608, 1823.00
1609, 1826.00
1610, 1827.00
1611, 1828.00
1612, 1829.00
1613, 1832.00
1614, 1833.00
1615, 1835.00
1616, 1837.00
1617, 1838.00
1618, 1839.00
1619, 1841.00
1620, 1843.00
1621, 1844.00
1622, 1845.00
1623, 1847.00
1624, 1849.00
1625, 1850.00
1626, 1852.00
1627, 1853.00
1628, 1854.00
1629, 1855.00
1630, 1858.00
1631, 1858.00
1632, 1859.00
1633, 1861.00
1634, 1863.00
1635, 1864.00
1636, 1865.00
1637, 1867.00
1638, 1867.00
1639, 1869.00
1640, 1870.00
1641, 1871.00
1642, 1873.00
1643, 1874.00
1644, 1876.00
1645, 1876.00
1646, 1878.00
1647, 1879.00
1648, 1880.00
1649, 1881.00
1650, 1882.00

1750, 2418.00
1751, 2420.00
1752, 2419.00
1753, 2420.00
1754, 2419.00
1755, 2421.00
1756, 2420.00
1757, 2418.00
1758, 2422.00
1759, 2418.00
1760, 2420.00
1761, 2420.00
1762, 2418.00
1763, 2419.00
1764, 2418.00
1765, 2417.00
1766, 2417.00
1767, 2419.00
1768, 2415.00
1769, 2416.00
1770, 2417.00
1771, 2416.00
1772, 2416.00
1773, 2417.00
1774, 2414.00
1775, 2415.00
1776, 2414.00
1777, 2414.00
1778, 2415.00
1779, 2413.00
1780, 2412.00
1781, 2412.00
1782, 2411.00
1783, 2411.00
1784, 2411.00
1785, 2409.00
1786, 2409.00
1787, 2409.00
1788, 2407.00
1789, 2409.00
1790, 2408.00
1791, 2408.00
1792, 2406.00
1793, 2405.00
1794, 2407.00
1795, 2409.00
1796, 2406.00
1797, 2405.00
1798, 2405.00
1799, 2403.00
1800, 2404.00
1801, 2403.00
1802, 2401.00
1803, 2403.00
1804, 2403.00
1805, 2402.00
1806, 2401.00
1807, 2401.00
1808, 2403.00
1809, 2403.00
1810, 2401.00
1811, 2400.00
1812, 2399.00
1813, 2398.00
1814, 2399.00
1815, 2399.00
1816, 2399.00
1817, 2398.00
1818, 2397.00
1819, 2397.00
1820, 2395.00
1821, 2394.00
1822, 2396.00
1823, 2393.00
1824, 2392.00
1825, 2392.00
1826, 2391.00
1827, 2390.00
1828, 2388.00
1829, 2388.00
1830, 2388.00
1831, 2387.00
1832, 2385.00
1833, 2383.00
1834, 2381.00
1835, 2380.00
1836, 2379.00
1837, 2376.00
1838, 2376.00
1839, 2374.00
1840, 2372.00
1841, 2370.00
1842, 2368.00
1843, 2365.00
1844, 2366.00
1845, 2361.00
1846, 2361.00
1847, 2358.00
1848, 2355.00
1849, 2353.00
1850, 2351.00
1851, 2350.00
1852, 2346.00
1853, 2344.00
1854, 2344.00
1855, 2338.00
1856, 2336.00
1857, 2335.00
1858, 2333.00
1859, 2330.00
1860, 2329.00
1861, 2325.00
1862, 2323.00
1863, 2320.00
1864, 2322.00
1865, 2317.00
1866, 2320.00
1867, 2314.00
1868, 2315.00
1869, 2311.00
1870, 2311.00
1871, 2309.00
1872, 2308.00
1873, 2306.00
1874, 2305.00
1875, 2302.00
1876, 2303.00
1877, 2302.00
1878, 2300.00
1879, 2301.00
1880, 2300.00
1881, 2299.00
1882, 2297.00
1883, 2296.00
1884, 2297.00
1885, 2294.00
1886, 2294.00
1887, 2295.00
1888, 2293.00
1889, 2294.00
1890, 2291.00
1891, 2292.00
1892, 2291.00
1893, 2289.00
1894, 2291.00
1895, 2289.00
1896, 2290.00
1897, 2290.00
1898, 2288.00
1899, 2288.00
1900, 2289.00
1901, 2288.00
1902, 2288.00
1903, 2288.00
1904, 2287.00
1905, 2287.00
1906, 2287.00
1907, 2285.00
1908, 2284.00
1909, 2285.00
1910, 2286.00
1911, 2284.00
1912, 2286.00
1913, 2287.00
1914, 2284.00
1915, 2284.00
1916, 2285.00
1917, 2282.00
1918, 2283.00
1919, 2284.00
1920, 2285.00
1921, 2284.00
1922, 2283.00
1923, 2284.00
1924, 2284.00
1925, 2284.00
1926, 2283.00
1927, 2283.00
1928, 2284.00
1929, 2285.00
1930, 2284.00
1931, 2286.00
1932, 2284.00
1933, 2284.00
1934, 2285.00
1935, 2284.00
1936, 2286.00
1937, 2285.00
1938, 2285.00
1939, 2286.00
1940, 2287.00
1941, 2286.00
1942, 2287.00
1943, 2287.00
1944, 2288.00
1945, 2289.00
1946, 2289.00
1947, 2289.00
1948, 2289.00
1949, 2291.00
1950, 2291.00
1951, 2290.00
1952, 2292.00
1953, 2293.00
1954, 2291.00
1955, 2293.00
1956, 2292.00
1957, 2296.00
1958, 2297.00
1959, 2297.00
1960, 2294.00
1961, 2295.00
1962, 2298.00
1963, 2298.00
1964, 2297.00
1965, 2298.00
1966, 2298.00
1967, 2299.00
1968, 2302.00
1969, 2301.00
1970, 2300.00
1971, 2303.00
1972, 2304.00
1973, 2304.00
1974, 2304.00
1975, 2305.00
1976, 2305.00
1977, 2304.00
1978, 2306.00
1979, 2308.00
1980, 2308.00
1981, 2307.00
1982, 2310.00
1983, 2309.00
1984, 2312.00
1985, 2311.00
1986, 2312.00
1987, 2314.00
1988, 2313.00
1989, 2315.00
1990, 2316.00
1991, 2315.00
1992, 2317.00
1993, 2317.00
1994, 2317.00
1995, 2316.00
1996, 2319.00
1997, 2317.00
1998, 2321.00
1999, 2320.00
2000, 2324.00
2001, 2322.00
2002, 2322.00
2003, 2325.00
2004, 2321.00
2005, 2323.00
2006, 2324.00
2007, 2325.00
2008, 2327.00
2009, 2327.00
2010, 2326.00
2011, 2329.00
2012, 2330.00
2013, 2329.00
2014, 2332.00
2015, 2332.00
2016, 2330.00
2017, 2331.00
2018, 2332.00
2019, 2335.00
2020, 2333.00
2021, 2334.00
2022, 2335.00
2023, 2335.00
2024, 2336.00
2025, 2339.00
2026, 2336.00
2027, 2338.00
2028, 2340.00
2029, 2339.00
2030, 2338.00
2031, 2343.00
2032, 2339.00
2033, 2342.00
2034, 2345.00
2035, 2342.00
2036, 2344.00
2037, 2345.00
2038, 2344.00
2039, 2346.00
2040, 2349.00
2041, 2350.00
2042, 2347.00
2043, 2349.00
2044, 2351.00
2045, 2353.00
2046, 2353.00
2047, 2354.00
2048, 2354.00
2049, 2357.00
2050, 2355.00
2051, 2357.00
2052, 2358.00
2053, 2356.00
2054, 2359.00
2055, 2360.00
2056, 2362.00
2057, 2364.00
2058, 2364.00
2059, 2364.00
2060, 2365.00
2061, 2366.00
2062, 2368.00
2063, 2368.00
2064, 2370.00
2065, 2369.00
2066, 2369.00
2067, 2371.00
2068, 2373.00
2069, 2372.00
2070, 2373.00
2071, 2374.00
2072, 2376.00
2073, 2376.00
2074, 2376.00
2075, 2376.00
2076, 2379.00
2077, 2381.00
2078, 2381.00
2079, 2381.00
2080, 2383.00
2081, 2382.00
2082, 2384.00
2083, 2386.00
2084, 2387.00
2085, 2387.00
2086, 2386.00
2087, 2386.00
2088, 2387.00
2089, 2386.00
2090, 2387.00
2091, 2391.00
2092, 2390.00
2093, 2390.00
2094, 2391.00
2095, 2394.00
2096, 2393.00
2097, 2393.00
2098, 2393.00
2099, 2395.00
2100, 2395.00
2101, 2395.00
2102, 2395.00
2103, 2396.00
2104, 2396.00
2105, 2397.00
2106, 2395.00
2107, 2398.00
2108, 2397.00
2109, 2398.00
2110, 2398.00
2111, 2398.00
2112, 2400.00
2113, 2400.00
2114, 2401.00
2115, 2401.00
2116, 2400.00
2117, 2402.00
2118, 2402.00
2119, 2401.00
2120, 2404.00
2121, 2402.00
2122, 2401.00
2123, 2401.00
2124, 2402.00
2125, 2405.00
2126, 2406.00
2127, 2404.00
2128, 2406.00
2129, 2405.00
2130, 2405.00
2131, 2405.00
2132, 2404.00
2133, 2408.00
2134, 2406.00
2135, 2405.00
2136, 2409.00
2137, 2406.00
2138, 2405.00
2139, 2407.00
2140, 2408.00
2141, 2407.00
2142, 2408.00
2143, 2409.00
2144, 2409.00
2145, 2409.00
2146, 2408.00
2147, 2411.00
2148, 2409.00
2149, 2411.00
2150, 2409.00
