FW version: 24
Log Version: 3.0.3

General Info:
       Command/Macro Performed,            Timestamp,             Device ID, COM Port, UART/I2C, Test Name, Host Major, Host Minor, Host Revision, Host Git Commit
            Single_measurement,  2023_07_11_12_11_21,       Insight2_F4_xxx,    USB-C,      USB,          ,          0,          1,             1,      4031237645

Show Spectrometer Status:
l0_version, f4_version, battery_perc, battery_mVolt, accelerometer_temp, accelerometer_x, accelerometer_y, accelerometer_z, compass_temp, compass_x, compass_y, compass_z, lamp_0, lamp_1, gain_0, gain_1
        17,         24,           53,          1914,               7072,           64792,            1520,           18800,            0,     65340,     65524,     18811,   3276,   3276,      1,      1

Temperature Statistic Info:
NTC AVG [°C], NTC2 AVG [°C]
      42.823,        42.464

Statistic Info:
M1:  num,      min,      max,   median,      AVG,      STD,M2:  num,      min,      max,   median,      AVG,      STD
     301,  2109.00,  2407.00,  2177.00,  2208.53,  93.7328,     401,  2831.00,  3004.00,  2919.00,  2916.28,  58.1063,

Measurements:
Wavelength, Data Amplitude
1350, 2146.00
1351, 2145.00
1352, 2145.00
1353, 2144.00
1354, 2142.00
1355, 2142.00
1356, 2143.00
1357, 2143.00
1358, 2140.00
1359, 2139.00
1360, 2139.00
1361, 2137.00
1362, 2138.00
1363, 2137.00
1364, 2135.00
1365, 2133.00
1366, 2132.00
1367, 2131.00
1368, 2131.00
1369, 2130.00
1370, 2129.00
1371, 2128.00
1372, 2126.00
1373, 2126.00
1374, 2124.00
1375, 2124.00
1376, 2123.00
1377, 2123.00
1378, 2121.00
1379, 2120.00
1380, 2121.00
1381, 2119.00
1382, 2119.00
1383, 2118.00
1384, 2115.00
1385, 2117.00
1386, 2115.00
1387, 2114.00
1388, 2114.00
1389, 2114.00
1390, 2115.00
1391, 2115.00
1392, 2112.00
1393, 2113.00
1394, 2112.00
1395, 2112.00
1396, 2111.00
1397, 2113.00
1398, 2112.00
1399, 2111.00
1400, 2112.00
1401, 2112.00
1402, 2111.00
1403, 2111.00
1404, 2110.00
1405, 2110.00
1406, 2111.00
1407, 2109.00
1408, 2111.00
1409, 2110.00
1410, 2110.00
1411, 2110.00
1412, 2110.00
1413, 2110.00
1414, 2111.00
1415, 2110.00
1416, 2109.00
1417, 2110.00
1418, 2109.00
1419, 2110.00
1420, 2110.00
1421, 2110.00
1422, 2111.00
1423, 2112.00
1424, 2111.00
1425, 2112.00
1426, 2111.00
1427, 2112.00
1428, 2113.00
1429, 2113.00
1430, 2113.00
1431, 2113.00
1432, 2113.00
1433, 2114.00
1434, 2115.00
1435, 2115.00
1436, 2115.00
1437, 2116.00
1438, 2116.00
1439, 2118.00
1440, 2118.00
1441, 2118.00
1442, 2120.00
1443, 2120.00
1444, 2120.00
1445, 2122.00
1446, 2122.00
1447, 2122.00
1448, 2123.00
1449, 2123.00
1450, 2124.00
1451, 2126.00
1452, 2126.00
1453, 2126.00
1454, 2128.00
1455, 2128.00
1456, 2128.00
1457, 2130.00
1458, 2132.00
1459, 2133.00
1460, 2132.00
1461, 2133.00
1462, 2135.00
1463, 2135.00
1464, 2136.00
1465, 2137.00
1466, 2137.00
1467, 2139.00
1468, 2140.00
1469, 2140.00
1470, 2142.00
1471, 2143.00
1472, 2145.00
1473, 2145.00
1474, 2146.00
1475, 2147.00
1476, 2149.00
1477, 2149.00
1478, 2152.00
1479, 2151.00
1480, 2154.00
1481, 2154.00
1482, 2155.00
1483, 2157.00
1484, 2158.00
1485, 2158.00
1486, 2159.00
1487, 2162.00
1488, 2163.00
1489, 2164.00
1490, 2165.00
1491, 2167.00
1492, 2167.00
1493, 2168.00
1494, 2170.00
1495, 2170.00
1496, 2172.00
1497, 2174.00
1498, 2175.00
1499, 2177.00
1500, 2176.00
1501, 2178.00
1502, 2179.00
1503, 2180.00
1504, 2181.00
1505, 2182.00
1506, 2184.00
1507, 2185.00
1508, 2186.00
1509, 2188.00
1510, 2189.00
1511, 2189.00
1512, 2191.00
1513, 2193.00
1514, 2194.00
1515, 2195.00
1516, 2196.00
1517, 2198.00
1518, 2199.00
1519, 2199.00
1520, 2202.00
1521, 2203.00
1522, 2204.00
1523, 2207.00
1524, 2208.00
1525, 2208.00
1526, 2210.00
1527, 2212.00
1528, 2213.00
1529, 2214.00
1530, 2216.00
1531, 2217.00
1532, 2219.00
1533, 2221.00
1534, 2221.00
1535, 2223.00
1536, 2225.00
1537, 2226.00
1538, 2229.00
1539, 2229.00
1540, 2230.00
1541, 2232.00
1542, 2234.00
1543, 2235.00
1544, 2237.00
1545, 2239.00
1546, 2239.00
1547, 2241.00
1548, 2242.00
1549, 2245.00
1550, 2246.00
1551, 2247.00
1552, 2249.00
1553, 2249.00
1554, 2251.00
1555, 2254.00
1556, 2255.00
1557, 2258.00
1558, 2258.00
1559, 2260.00
1560, 2263.00
1561, 2263.00
1562, 2266.00
1563, 2266.00
1564, 2269.00
1565, 2271.00
1566, 2273.00
1567, 2274.00
1568, 2276.00
1569, 2277.00
1570, 2279.00
1571, 2281.00
1572, 2282.00
1573, 2284.00
1574, 2285.00
1575, 2288.00
1576, 2288.00
1577, 2290.00
1578, 2292.00
1579, 2294.00
1580, 2294.00
1581, 2294.00
1582, 2298.00
1583, 2299.00
1584, 2299.00
1585, 2302.00
1586, 2304.00
1587, 2304.00
1588, 2307.00
1589, 2307.00
1590, 2309.00
1591, 2310.00
1592, 2311.00
1593, 2312.00
1594, 2315.00
1595, 2315.00
1596, 2317.00
1597, 2319.00
1598, 2319.00
1599, 2321.00
1600, 2322.00
1601, 2324.00
1602, 2326.00
1603, 2328.00
1604, 2330.00
1605, 2331.00
1606, 2333.00
1607, 2334.00
1608, 2336.00
1609, 2339.00
1610, 2340.00
1611, 2341.00
1612, 2344.00
1613, 2346.00
1614, 2347.00
1615, 2348.00
1616, 2351.00
1617, 2351.00
1618, 2355.00
1619, 2356.00
1620, 2358.00
1621, 2360.00
1622, 2362.00
1623, 2364.00
1624, 2365.00
1625, 2368.00
1626, 2370.00
1627, 2371.00
1628, 2374.00
1629, 2375.00
1630, 2378.00
1631, 2378.00
1632, 2380.00
1633, 2382.00
1634, 2384.00
1635, 2385.00
1636, 2386.00
1637, 2388.00
1638, 2388.00
1639, 2391.00
1640, 2394.00
1641, 2394.00
1642, 2397.00
1643, 2397.00
1644, 2398.00
1645, 2399.00
1646, 2401.00
1647, 2404.00
1648, 2405.00
1649, 2407.00
1650, 2407.00

1750, 3001.00
1751, 3001.00
1752, 3001.00
1753, 3001.00
1754, 3003.00
1755, 3002.00
1756, 3004.00
1757, 3001.00
1758, 3002.00
1759, 3001.00
1760, 3000.00
1761, 3000.00
1762, 3001.00
1763, 3001.00
1764, 3000.00
1765, 2999.00
1766, 2999.00
1767, 2997.00
1768, 2999.00
1769, 2998.00
1770, 2997.00
1771, 2996.00
1772, 2995.00
1773, 2995.00
1774, 2996.00
1775, 2994.00
1776, 2996.00
1777, 2993.00
1778, 2995.00
1779, 2995.00
1780, 2993.00
1781, 2993.00
1782, 2991.00
1783, 2991.00
1784, 2991.00
1785, 2989.00
1786, 2988.00
1787, 2987.00
1788, 2986.00
1789, 2987.00
1790, 2988.00
1791, 2986.00
1792, 2986.00
1793, 2985.00
1794, 2983.00
1795, 2985.00
1796, 2983.00
1797, 2981.00
1798, 2984.00
1799, 2983.00
1800, 2981.00
1801, 2980.00
1802, 2980.00
1803, 2981.00
1804, 2981.00
1805, 2980.00
1806, 2979.00
1807, 2978.00
1808, 2981.00
1809, 2978.00
1810, 2975.00
1811, 2976.00
1812, 2975.00
1813, 2977.00
1814, 2977.00
1815, 2974.00
1816, 2975.00
1817, 2973.00
1818, 2973.00
1819, 2973.00
1820, 2969.00
1821, 2969.00
1822, 2971.00
1823, 2967.00
1824, 2968.00
1825, 2965.00
1826, 2966.00
1827, 2963.00
1828, 2962.00
1829, 2958.00
1830, 2958.00
1831, 2959.00
1832, 2955.00
1833, 2955.00
1834, 2953.00
1835, 2951.00
1836, 2949.00
1837, 2946.00
1838, 2946.00
1839, 2943.00
1840, 2942.00
1841, 2941.00
1842, 2935.00
1843, 2933.00
1844, 2931.00
1845, 2928.00
1846, 2925.00
1847, 2923.00
1848, 2921.00
1849, 2918.00
1850, 2917.00
1851, 2914.00
1852, 2908.00
1853, 2908.00
1854, 2904.00
1855, 2902.00
1856, 2900.00
1857, 2897.00
1858, 2892.00
1859, 2889.00
1860, 2889.00
1861, 2882.00
1862, 2883.00
1863, 2878.00
1864, 2877.00
1865, 2875.00
1866, 2873.00
1867, 2869.00
1868, 2870.00
1869, 2869.00
1870, 2865.00
1871, 2864.00
1872, 2861.00
1873, 2861.00
1874, 2859.00
1875, 2856.00
1876, 2857.00
1877, 2854.00
1878, 2854.00
1879, 2852.00
1880, 2849.00
1881, 2849.00
1882, 2851.00
1883, 2847.00
1884, 2846.00
1885, 2847.00
1886, 2844.00
1887, 2843.00
1888, 2841.00
1889, 2843.00
1890, 2841.00
1891, 2840.00
1892, 2842.00
1893, 2840.00
1894, 2840.00
1895, 2838.00
1896, 2837.00
1897, 2838.00
1898, 2838.00
1899, 2837.00
1900, 2836.00
1901, 2835.00
1902, 2836.00
1903, 2837.00
1904, 2837.00
1905, 2837.00
1906, 2834.00
1907, 2836.00
1908, 2836.00
1909, 2836.00
1910, 2836.00
1911, 2834.00
1912, 2834.00
1913, 2833.00
1914, 2835.00
1915, 2832.00
1916, 2833.00
1917, 2833.00
1918, 2831.00
1919, 2832.00
1920, 2833.00
1921, 2834.00
1922, 2832.00
1923, 2836.00
1924, 2834.00
1925, 2833.00
1926, 2832.00
1927, 2831.00
1928, 2836.00
1929, 2833.00
1930, 2834.00
1931, 2833.00
1932, 2833.00
1933, 2834.00
1934, 2834.00
1935, 2834.00
1936, 2838.00
1937, 2836.00
1938, 2834.00
1939, 2837.00
1940, 2837.00
1941, 2836.00
1942, 2837.00
1943, 2838.00
1944, 2838.00
1945, 2836.00
1946, 2837.00
1947, 2838.00
1948, 2839.00
1949, 2839.00
1950, 2841.00
1951, 2839.00
1952, 2843.00
1953, 2842.00
1954, 2842.00
1955, 2843.00
1956, 2843.00
1957, 2843.00
1958, 2847.00
1959, 2847.00
1960, 2848.00
1961, 2844.00
1962, 2848.00
1963, 2847.00
1964, 2849.00
1965, 2850.00
1966, 2850.00
1967, 2849.00
1968, 2851.00
1969, 2853.00
1970, 2853.00
1971, 2855.00
1972, 2855.00
1973, 2857.00
1974, 2855.00
1975, 2856.00
1976, 2859.00
1977, 2860.00
1978, 2859.00
1979, 2862.00
1980, 2863.00
1981, 2861.00
1982, 2863.00
1983, 2862.00
1984, 2863.00
1985, 2866.00
1986, 2866.00
1987, 2869.00
1988, 2867.00
1989, 2869.00
1990, 2871.00
1991, 2871.00
1992, 2871.00
1993, 2873.00
1994, 2873.00
1995, 2873.00
1996, 2875.00
1997, 2875.00
1998, 2876.00
1999, 2876.00
2000, 2875.00
2001, 2878.00
2002, 2881.00
2003, 2881.00
2004, 2880.00
2005, 2884.00
2006, 2883.00
2007, 2883.00
2008, 2883.00
2009, 2884.00
2010, 2885.00
2011, 2885.00
2012, 2887.00
2013, 2887.00
2014, 2888.00
2015, 2889.00
2016, 2890.00
2017, 2891.00
2018, 2890.00
2019, 2892.00
2020, 2893.00
2021, 2893.00
2022, 2895.00
2023, 2896.00
2024, 2896.00
2025, 2897.00
2026, 2896.00
2027, 2899.00
2028, 2898.00
2029, 2899.00
2030, 2902.00
2031, 2901.00
2032, 2903.00
2033, 2903.00
2034, 2903.00
2035, 2906.00
2036, 2907.00
2037, 2906.00
2038, 2907.00
2039, 2907.00
2040, 2909.00
2041, 2909.00
2042, 2910.00
2043, 2911.00
2044, 2914.00
2045, 2914.00
2046, 2915.00
2047, 2917.00
2048, 2919.00
2049, 2920.00
2050, 2919.00
2051, 2921.00
2052, 2922.00
2053, 2923.00
2054, 2923.00
2055, 2925.00
2056, 2927.00
2057, 2928.00
2058, 2928.00
2059, 2926.00
2060, 2931.00
2061, 2931.00
2062, 2932.00
2063, 2935.00
2064, 2935.00
2065, 2937.00
2066, 2935.00
2067, 2941.00
2068, 2939.00
2069, 2939.00
2070, 2941.00
2071, 2943.00
2072, 2945.00
2073, 2945.00
2074, 2945.00
2075, 2946.00
2076, 2948.00
2077, 2950.00
2078, 2949.00
2079, 2949.00
2080, 2951.00
2081, 2952.00
2082, 2952.00
2083, 2955.00
2084, 2956.00
2085, 2956.00
2086, 2957.00
2087, 2957.00
2088, 2959.00
2089, 2959.00
2090, 2958.00
2091, 2962.00
2092, 2960.00
2093, 2962.00
2094, 2965.00
2095, 2963.00
2096, 2961.00
2097, 2965.00
2098, 2965.00
2099, 2967.00
2100, 2966.00
2101, 2966.00
2102, 2968.00
2103, 2967.00
2104, 2967.00
2105, 2969.00
2106, 2969.00
2107, 2968.00
2108, 2970.00
2109, 2972.00
2110, 2970.00
2111, 2973.00
2112, 2972.00
2113, 2972.00
2114, 2971.00
2115, 2973.00
2116, 2973.00
2117, 2974.00
2118, 2975.00
2119, 2972.00
2120, 2974.00
2121, 2973.00
2122, 2974.00
2123, 2975.00
2124, 2976.00
2125, 2977.00
2126, 2978.00
2127, 2978.00
2128, 2976.00
2129, 2978.00
2130, 2976.00
2131, 2978.00
2132, 2979.00
2133, 2980.00
2134, 2978.00
2135, 2981.00
2136, 2980.00
2137, 2980.00
2138, 2979.00
2139, 2981.00
2140, 2982.00
2141, 2982.00
2142, 2983.00
2143, 2981.00
2144, 2983.00
2145, 2985.00
2146, 2985.00
2147, 2984.00
2148, 2984.00
2149, 2984.00
2150, 2985.00
