FW version: 24
Log Version: 3.0.3

General Info:
       Command/Macro Performed,            Timestamp,             Device ID, COM Port, UART/I2C, Test Name, Host Major, Host Minor, Host Revision, Host Git Commit
            Single_measurement,  2023_07_04_11_26_53,       Insight2_F4_xxx,    USB-C,      USB,          ,          0,          1,             1,      4031237645

Show Spectrometer Status:
l0_version, f4_version, battery_perc, battery_mVolt, accelerometer_temp, accelerometer_x, accelerometer_y, accelerometer_z, compass_temp, compass_x, compass_y, compass_z, lamp_0, lamp_1, gain_0, gain_1
        17,         24,           26,          1869,               6208,           64756,            2296,           19228,            0,     65524,     65533,     19324,   2047,   2047,      1,      1

Temperature Statistic Info:
NTC AVG [°C], NTC2 AVG [°C]
      38.623,        38.245

Statistic Info:
M1:  num,      min,      max,   median,      AVG,      STD,M2:  num,      min,      max,   median,      AVG,      STD
     301,   695.00,   804.00,   720.00,   732.40,  34.6483,     401,  1045.00,  1114.00,  1076.00,  1077.10,  22.4379,

Measurements:
Wavelength, Data Amplitude
1350, 711.00
1351, 711.00
1352, 710.00
1353, 710.00
1354, 709.00
1355, 710.00
1356, 710.00
1357, 709.00
1358, 709.00
1359, 709.00
1360, 708.00
1361, 707.00
1362, 708.00
1363, 707.00
1364, 706.00
1365, 706.00
1366, 705.00
1367, 706.00
1368, 705.00
1369, 703.00
1370, 704.00
1371, 703.00
1372, 702.00
1373, 703.00
1374, 702.00
1375, 702.00
1376, 701.00
1377, 701.00
1378, 700.00
1379, 700.00
1380, 699.00
1381, 700.00
1382, 699.00
1383, 699.00
1384, 699.00
1385, 698.00
1386, 697.00
1387, 697.00
1388, 699.00
1389, 698.00
1390, 697.00
1391, 697.00
1392, 697.00
1393, 697.00
1394, 697.00
1395, 696.00
1396, 697.00
1397, 697.00
1398, 697.00
1399, 696.00
1400, 696.00
1401, 697.00
1402, 696.00
1403, 696.00
1404, 696.00
1405, 696.00
1406, 697.00
1407, 696.00
1408, 695.00
1409, 696.00
1410, 695.00
1411, 695.00
1412, 695.00
1413, 695.00
1414, 695.00
1415, 696.00
1416, 696.00
1417, 696.00
1418, 696.00
1419, 696.00
1420, 696.00
1421, 696.00
1422, 696.00
1423, 696.00
1424, 697.00
1425, 696.00
1426, 697.00
1427, 696.00
1428, 696.00
1429, 696.00
1430, 697.00
1431, 697.00
1432, 697.00
1433, 697.00
1434, 698.00
1435, 698.00
1436, 698.00
1437, 697.00
1438, 698.00
1439, 698.00
1440, 699.00
1441, 698.00
1442, 699.00
1443, 698.00
1444, 699.00
1445, 698.00
1446, 699.00
1447, 699.00
1448, 700.00
1449, 700.00
1450, 700.00
1451, 701.00
1452, 701.00
1453, 702.00
1454, 701.00
1455, 702.00
1456, 702.00
1457, 703.00
1458, 703.00
1459, 704.00
1460, 704.00
1461, 703.00
1462, 705.00
1463, 705.00
1464, 704.00
1465, 704.00
1466, 705.00
1467, 705.00
1468, 706.00
1469, 706.00
1470, 706.00
1471, 708.00
1472, 708.00
1473, 708.00
1474, 708.00
1475, 709.00
1476, 709.00
1477, 710.00
1478, 710.00
1479, 710.00
1480, 711.00
1481, 711.00
1482, 711.00
1483, 713.00
1484, 713.00
1485, 713.00
1486, 713.00
1487, 715.00
1488, 715.00
1489, 715.00
1490, 715.00
1491, 717.00
1492, 716.00
1493, 717.00
1494, 718.00
1495, 717.00
1496, 719.00
1497, 719.00
1498, 719.00
1499, 720.00
1500, 720.00
1501, 722.00
1502, 722.00
1503, 722.00
1504, 722.00
1505, 723.00
1506, 723.00
1507, 723.00
1508, 724.00
1509, 725.00
1510, 725.00
1511, 726.00
1512, 726.00
1513, 727.00
1514, 727.00
1515, 728.00
1516, 728.00
1517, 730.00
1518, 729.00
1519, 729.00
1520, 730.00
1521, 731.00
1522, 732.00
1523, 731.00
1524, 733.00
1525, 733.00
1526, 734.00
1527, 734.00
1528, 735.00
1529, 736.00
1530, 737.00
1531, 738.00
1532, 738.00
1533, 738.00
1534, 739.00
1535, 739.00
1536, 740.00
1537, 741.00
1538, 741.00
1539, 741.00
1540, 742.00
1541, 743.00
1542, 743.00
1543, 744.00
1544, 744.00
1545, 745.00
1546, 745.00
1547, 746.00
1548, 746.00
1549, 746.00
1550, 747.00
1551, 749.00
1552, 748.00
1553, 749.00
1554, 749.00
1555, 750.00
1556, 751.00
1557, 751.00
1558, 752.00
1559, 753.00
1560, 753.00
1561, 753.00
1562, 754.00
1563, 754.00
1564, 754.00
1565, 756.00
1566, 756.00
1567, 757.00
1568, 757.00
1569, 758.00
1570, 759.00
1571, 760.00
1572, 761.00
1573, 759.00
1574, 761.00
1575, 762.00
1576, 762.00
1577, 763.00
1578, 763.00
1579, 763.00
1580, 765.00
1581, 765.00
1582, 764.00
1583, 766.00
1584, 765.00
1585, 766.00
1586, 768.00
1587, 767.00
1588, 767.00
1589, 769.00
1590, 770.00
1591, 770.00
1592, 771.00
1593, 771.00
1594, 772.00
1595, 772.00
1596, 772.00
1597, 773.00
1598, 774.00
1599, 774.00
1600, 775.00
1601, 776.00
1602, 776.00
1603, 776.00
1604, 777.00
1605, 778.00
1606, 778.00
1607, 779.00
1608, 781.00
1609, 780.00
1610, 781.00
1611, 781.00
1612, 783.00
1613, 782.00
1614, 784.00
1615, 784.00
1616, 784.00
1617, 786.00
1618, 786.00
1619, 787.00
1620, 788.00
1621, 788.00
1622, 789.00
1623, 790.00
1624, 790.00
1625, 791.00
1626, 793.00
1627, 793.00
1628, 793.00
1629, 793.00
1630, 794.00
1631, 794.00
1632, 796.00
1633, 796.00
1634, 797.00
1635, 798.00
1636, 797.00
1637, 798.00
1638, 799.00
1639, 799.00
1640, 799.00
1641, 800.00
1642, 801.00
1643, 801.00
1644, 801.00
1645, 802.00
1646, 802.00
1647, 802.00
1648, 804.00
1649, 804.00
1650, 804.00

1750, 1112.00
1751, 1111.00
1752, 1113.00
1753, 1112.00
1754, 1111.00
1755, 1112.00
1756, 1110.00
1757, 1110.00
1758, 1112.00
1759, 1113.00
1760, 1112.00
1761, 1111.00
1762, 1112.00
1763, 1113.00
1764, 1112.00
1765, 1112.00
1766, 1111.00
1767, 1112.00
1768, 1111.00
1769, 1114.00
1770, 1111.00
1771, 1112.00
1772, 1110.00
1773, 1110.00
1774, 1110.00
1775, 1110.00
1776, 1110.00
1777, 1111.00
1778, 1111.00
1779, 1110.00
1780, 1109.00
1781, 1109.00
1782, 1109.00
1783, 1109.00
1784, 1106.00
1785, 1108.00
1786, 1109.00
1787, 1108.00
1788, 1107.00
1789, 1107.00
1790, 1108.00
1791, 1108.00
1792, 1107.00
1793, 1106.00
1794, 1107.00
1795, 1105.00
1796, 1105.00
1797, 1107.00
1798, 1105.00
1799, 1105.00
1800, 1105.00
1801, 1106.00
1802, 1106.00
1803, 1106.00
1804, 1106.00
1805, 1105.00
1806, 1104.00
1807, 1104.00
1808, 1103.00
1809, 1102.00
1810, 1103.00
1811, 1102.00
1812, 1101.00
1813, 1103.00
1814, 1103.00
1815, 1103.00
1816, 1102.00
1817, 1101.00
1818, 1101.00
1819, 1101.00
1820, 1099.00
1821, 1100.00
1822, 1099.00
1823, 1100.00
1824, 1099.00
1825, 1097.00
1826, 1096.00
1827, 1097.00
1828, 1098.00
1829, 1096.00
1830, 1096.00
1831, 1094.00
1832, 1093.00
1833, 1092.00
1834, 1091.00
1835, 1091.00
1836, 1090.00
1837, 1089.00
1838, 1090.00
1839, 1089.00
1840, 1087.00
1841, 1086.00
1842, 1085.00
1843, 1083.00
1844, 1083.00
1845, 1081.00
1846, 1081.00
1847, 1080.00
1848, 1079.00
1849, 1078.00
1850, 1076.00
1851, 1077.00
1852, 1075.00
1853, 1075.00
1854, 1072.00
1855, 1070.00
1856, 1070.00
1857, 1069.00
1858, 1069.00
1859, 1067.00
1860, 1068.00
1861, 1065.00
1862, 1065.00
1863, 1065.00
1864, 1063.00
1865, 1061.00
1866, 1062.00
1867, 1061.00
1868, 1061.00
1869, 1060.00
1870, 1058.00
1871, 1059.00
1872, 1057.00
1873, 1057.00
1874, 1057.00
1875, 1056.00
1876, 1056.00
1877, 1055.00
1878, 1054.00
1879, 1055.00
1880, 1055.00
1881, 1054.00
1882, 1053.00
1883, 1053.00
1884, 1053.00
1885, 1052.00
1886, 1051.00
1887, 1052.00
1888, 1052.00
1889, 1052.00
1890, 1050.00
1891, 1050.00
1892, 1050.00
1893, 1051.00
1894, 1050.00
1895, 1050.00
1896, 1050.00
1897, 1049.00
1898, 1049.00
1899, 1049.00
1900, 1048.00
1901, 1048.00
1902, 1049.00
1903, 1049.00
1904, 1049.00
1905, 1047.00
1906, 1048.00
1907, 1047.00
1908, 1047.00
1909, 1047.00
1910, 1047.00
1911, 1047.00
1912, 1049.00
1913, 1046.00
1914, 1048.00
1915, 1046.00
1916, 1048.00
1917, 1045.00
1918, 1047.00
1919, 1047.00
1920, 1048.00
1921, 1046.00
1922, 1046.00
1923, 1046.00
1924, 1047.00
1925, 1047.00
1926, 1046.00
1927, 1046.00
1928, 1047.00
1929, 1047.00
1930, 1045.00
1931, 1046.00
1932, 1047.00
1933, 1047.00
1934, 1048.00
1935, 1047.00
1936, 1048.00
1937, 1049.00
1938, 1048.00
1939, 1047.00
1940, 1048.00
1941, 1048.00
1942, 1047.00
1943, 1048.00
1944, 1049.00
1945, 1049.00
1946, 1049.00
1947, 1049.00
1948, 1049.00
1949, 1049.00
1950, 1049.00
1951, 1051.00
1952, 1048.00
1953, 1051.00
1954, 1049.00
1955, 1049.00
1956, 1048.00
1957, 1048.00
1958, 1050.00
1959, 1049.00
1960, 1049.00
1961, 1050.00
1962, 1051.00
1963, 1051.00
1964, 1052.00
1965, 1051.00
1966, 1051.00
1967, 1052.00
1968, 1052.00
1969, 1053.00
1970, 1052.00
1971, 1054.00
1972, 1054.00
1973, 1055.00
1974, 1053.00
1975, 1054.00
1976, 1054.00
1977, 1054.00
1978, 1056.00
1979, 1056.00
1980, 1057.00
1981, 1054.00
1982, 1055.00
1983, 1056.00
1984, 1056.00
1985, 1056.00
1986, 1057.00
1987, 1057.00
1988, 1058.00
1989, 1060.00
1990, 1058.00
1991, 1056.00
1992, 1060.00
1993, 1058.00
1994, 1057.00
1995, 1057.00
1996, 1058.00
1997, 1059.00
1998, 1061.00
1999, 1060.00
2000, 1061.00
2001, 1060.00
2002, 1061.00
2003, 1060.00
2004, 1060.00
2005, 1064.00
2006, 1061.00
2007, 1063.00
2008, 1062.00
2009, 1062.00
2010, 1061.00
2011, 1063.00
2012, 1062.00
2013, 1064.00
2014, 1063.00
2015, 1065.00
2016, 1064.00
2017, 1065.00
2018, 1064.00
2019, 1065.00
2020, 1065.00
2021, 1066.00
2022, 1067.00
2023, 1065.00
2024, 1068.00
2025, 1068.00
2026, 1068.00
2027, 1068.00
2028, 1066.00
2029, 1067.00
2030, 1069.00
2031, 1068.00
2032, 1069.00
2033, 1070.00
2034, 1069.00
2035, 1068.00
2036, 1070.00
2037, 1069.00
2038, 1070.00
2039, 1069.00
2040, 1071.00
2041, 1072.00
2042, 1072.00
2043, 1074.00
2044, 1073.00
2045, 1073.00
2046, 1074.00
2047, 1073.00
2048, 1074.00
2049, 1075.00
2050, 1074.00
2051, 1076.00
2052, 1076.00
2053, 1077.00
2054, 1077.00
2055, 1078.00
2056, 1078.00
2057, 1077.00
2058, 1077.00
2059, 1080.00
2060, 1079.00
2061, 1078.00
2062, 1081.00
2063, 1082.00
2064, 1082.00
2065, 1082.00
2066, 1081.00
2067, 1082.00
2068, 1083.00
2069, 1082.00
2070, 1085.00
2071, 1085.00
2072, 1086.00
2073, 1085.00
2074, 1087.00
2075, 1083.00
2076, 1084.00
2077, 1088.00
2078, 1086.00
2079, 1088.00
2080, 1089.00
2081, 1088.00
2082, 1088.00
2083, 1089.00
2084, 1089.00
2085, 1088.00
2086, 1090.00
2087, 1091.00
2088, 1092.00
2089, 1092.00
2090, 1092.00
2091, 1092.00
2092, 1091.00
2093, 1090.00
2094, 1092.00
2095, 1093.00
2096, 1094.00
2097, 1094.00
2098, 1094.00
2099, 1093.00
2100, 1094.00
2101, 1094.00
2102, 1095.00
2103, 1097.00
2104, 1095.00
2105, 1096.00
2106, 1095.00
2107, 1095.00
2108, 1096.00
2109, 1095.00
2110, 1097.00
2111, 1096.00
2112, 1096.00
2113, 1098.00
2114, 1096.00
2115, 1098.00
2116, 1097.00
2117, 1098.00
2118, 1098.00
2119, 1098.00
2120, 1098.00
2121, 1098.00
2122, 1098.00
2123, 1099.00
2124, 1097.00
2125, 1098.00
2126, 1099.00
2127, 1099.00
2128, 1100.00
2129, 1099.00
2130, 1101.00
2131, 1101.00
2132, 1099.00
2133, 1100.00
2134, 1100.00
2135, 1102.00
2136, 1101.00
2137, 1100.00
2138, 1102.00
2139, 1101.00
2140, 1101.00
2141, 1102.00
2142, 1102.00
2143, 1101.00
2144, 1103.00
2145, 1102.00
2146, 1102.00
2147, 1103.00
2148, 1102.00
2149, 1102.00
2150, 1103.00
