FW version: 24
Log Version: 3.0.3

General Info:
       Command/Macro Performed,            Timestamp,             Device ID, COM Port, UART/I2C, Test Name, Host Major, Host Minor, Host Revision, Host Git Commit
            Single_measurement,  2023_07_04_11_27_47,       Insight2_F4_xxx,    USB-C,      USB,          ,          0,          1,             1,      4031237645

Show Spectrometer Status:
l0_version, f4_version, battery_perc, battery_mVolt, accelerometer_temp, accelerometer_x, accelerometer_y, accelerometer_z, compass_temp, compass_x, compass_y, compass_z, lamp_0, lamp_1, gain_0, gain_1
        17,         24,           26,          1865,               6256,           64804,            2272,           19280,            0,     65388,     65521,     19314,   3276,   3276,      1,      1

Temperature Statistic Info:
NTC AVG [°C], NTC2 AVG [°C]
      38.997,        38.652

Statistic Info:
M1:  num,      min,      max,   median,      AVG,      STD,M2:  num,      min,      max,   median,      AVG,      STD
     301,  1743.00,  1993.00,  1796.00,  1826.12,  77.6445,     401,  2309.00,  2457.00,  2371.00,  2374.19,  48.0277,

Measurements:
Wavelength, Data Amplitude
1350, 1789.00
1351, 1788.00
1352, 1787.00
1353, 1786.00
1354, 1785.00
1355, 1785.00
1356, 1784.00
1357, 1783.00
1358, 1784.00
1359, 1782.00
1360, 1780.00
1361, 1779.00
1362, 1778.00
1363, 1777.00
1364, 1775.00
1365, 1774.00
1366, 1773.00
1367, 1773.00
1368, 1770.00
1369, 1769.00
1370, 1769.00
1371, 1767.00
1372, 1766.00
1373, 1765.00
1374, 1764.00
1375, 1763.00
1376, 1761.00
1377, 1761.00
1378, 1759.00
1379, 1759.00
1380, 1758.00
1381, 1757.00
1382, 1756.00
1383, 1755.00
1384, 1754.00
1385, 1754.00
1386, 1753.00
1387, 1753.00
1388, 1752.00
1389, 1751.00
1390, 1751.00
1391, 1750.00
1392, 1751.00
1393, 1750.00
1394, 1749.00
1395, 1750.00
1396, 1749.00
1397, 1748.00
1398, 1748.00
1399, 1748.00
1400, 1747.00
1401, 1747.00
1402, 1746.00
1403, 1747.00
1404, 1747.00
1405, 1747.00
1406, 1746.00
1407, 1746.00
1408, 1745.00
1409, 1745.00
1410, 1745.00
1411, 1745.00
1412, 1745.00
1413, 1745.00
1414, 1746.00
1415, 1745.00
1416, 1743.00
1417, 1746.00
1418, 1744.00
1419, 1744.00
1420, 1744.00
1421, 1745.00
1422, 1744.00
1423, 1744.00
1424, 1745.00
1425, 1745.00
1426, 1745.00
1427, 1745.00
1428, 1745.00
1429, 1745.00
1430, 1745.00
1431, 1746.00
1432, 1746.00
1433, 1746.00
1434, 1747.00
1435, 1747.00
1436, 1747.00
1437, 1747.00
1438, 1748.00
1439, 1749.00
1440, 1749.00
1441, 1749.00
1442, 1751.00
1443, 1751.00
1444, 1750.00
1445, 1751.00
1446, 1751.00
1447, 1752.00
1448, 1753.00
1449, 1752.00
1450, 1754.00
1451, 1753.00
1452, 1754.00
1453, 1755.00
1454, 1755.00
1455, 1756.00
1456, 1757.00
1457, 1756.00
1458, 1758.00
1459, 1758.00
1460, 1758.00
1461, 1761.00
1462, 1761.00
1463, 1761.00
1464, 1761.00
1465, 1763.00
1466, 1763.00
1467, 1763.00
1468, 1764.00
1469, 1765.00
1470, 1766.00
1471, 1767.00
1472, 1767.00
1473, 1769.00
1474, 1771.00
1475, 1771.00
1476, 1772.00
1477, 1773.00
1478, 1773.00
1479, 1775.00
1480, 1775.00
1481, 1775.00
1482, 1776.00
1483, 1778.00
1484, 1778.00
1485, 1781.00
1486, 1780.00
1487, 1782.00
1488, 1783.00
1489, 1783.00
1490, 1786.00
1491, 1785.00
1492, 1787.00
1493, 1789.00
1494, 1790.00
1495, 1790.00
1496, 1791.00
1497, 1792.00
1498, 1793.00
1499, 1795.00
1500, 1796.00
1501, 1797.00
1502, 1797.00
1503, 1798.00
1504, 1799.00
1505, 1800.00
1506, 1803.00
1507, 1802.00
1508, 1805.00
1509, 1805.00
1510, 1807.00
1511, 1808.00
1512, 1808.00
1513, 1810.00
1514, 1810.00
1515, 1812.00
1516, 1813.00
1517, 1814.00
1518, 1816.00
1519, 1816.00
1520, 1817.00
1521, 1819.00
1522, 1820.00
1523, 1821.00
1524, 1822.00
1525, 1824.00
1526, 1826.00
1527, 1826.00
1528, 1828.00
1529, 1829.00
1530, 1830.00
1531, 1831.00
1532, 1833.00
1533, 1833.00
1534, 1836.00
1535, 1835.00
1536, 1838.00
1537, 1839.00
1538, 1840.00
1539, 1841.00
1540, 1843.00
1541, 1843.00
1542, 1845.00
1543, 1847.00
1544, 1847.00
1545, 1849.00
1546, 1850.00
1547, 1851.00
1548, 1853.00
1549, 1853.00
1550, 1855.00
1551, 1857.00
1552, 1859.00
1553, 1860.00
1554, 1861.00
1555, 1863.00
1556, 1863.00
1557, 1866.00
1558, 1866.00
1559, 1868.00
1560, 1869.00
1561, 1869.00
1562, 1871.00
1563, 1874.00
1564, 1876.00
1565, 1877.00
1566, 1877.00
1567, 1880.00
1568, 1881.00
1569, 1882.00
1570, 1884.00
1571, 1884.00
1572, 1886.00
1573, 1888.00
1574, 1888.00
1575, 1890.00
1576, 1891.00
1577, 1893.00
1578, 1895.00
1579, 1896.00
1580, 1897.00
1581, 1898.00
1582, 1900.00
1583, 1900.00
1584, 1901.00
1585, 1904.00
1586, 1903.00
1587, 1905.00
1588, 1906.00
1589, 1908.00
1590, 1909.00
1591, 1910.00
1592, 1911.00
1593, 1913.00
1594, 1914.00
1595, 1915.00
1596, 1916.00
1597, 1917.00
1598, 1919.00
1599, 1919.00
1600, 1921.00
1601, 1923.00
1602, 1925.00
1603, 1925.00
1604, 1927.00
1605, 1928.00
1606, 1929.00
1607, 1931.00
1608, 1932.00
1609, 1934.00
1610, 1935.00
1611, 1937.00
1612, 1939.00
1613, 1939.00
1614, 1942.00
1615, 1943.00
1616, 1944.00
1617, 1947.00
1618, 1948.00
1619, 1949.00
1620, 1951.00
1621, 1953.00
1622, 1955.00
1623, 1955.00
1624, 1958.00
1625, 1959.00
1626, 1961.00
1627, 1962.00
1628, 1964.00
1629, 1965.00
1630, 1966.00
1631, 1968.00
1632, 1970.00
1633, 1971.00
1634, 1972.00
1635, 1974.00
1636, 1975.00
1637, 1975.00
1638, 1979.00
1639, 1980.00
1640, 1981.00
1641, 1981.00
1642, 1982.00
1643, 1983.00
1644, 1986.00
1645, 1987.00
1646, 1988.00
1647, 1991.00
1648, 1991.00
1649, 1992.00
1650, 1993.00

1750, 2456.00
1751, 2457.00
1752, 2455.00
1753, 2455.00
1754, 2455.00
1755, 2453.00
1756, 2454.00
1757, 2455.00
1758, 2454.00
1759, 2456.00
1760, 2454.00
1761, 2455.00
1762, 2455.00
1763, 2454.00
1764, 2454.00
1765, 2455.00
1766, 2453.00
1767, 2453.00
1768, 2454.00
1769, 2453.00
1770, 2452.00
1771, 2451.00
1772, 2453.00
1773, 2451.00
1774, 2452.00
1775, 2451.00
1776, 2450.00
1777, 2450.00
1778, 2450.00
1779, 2448.00
1780, 2449.00
1781, 2447.00
1782, 2447.00
1783, 2447.00
1784, 2445.00
1785, 2446.00
1786, 2446.00
1787, 2446.00
1788, 2445.00
1789, 2445.00
1790, 2443.00
1791, 2443.00
1792, 2443.00
1793, 2439.00
1794, 2441.00
1795, 2442.00
1796, 2439.00
1797, 2440.00
1798, 2441.00
1799, 2440.00
1800, 2440.00
1801, 2440.00
1802, 2437.00
1803, 2437.00
1804, 2438.00
1805, 2437.00
1806, 2434.00
1807, 2434.00
1808, 2432.00
1809, 2432.00
1810, 2434.00
1811, 2431.00
1812, 2431.00
1813, 2432.00
1814, 2430.00
1815, 2429.00
1816, 2429.00
1817, 2430.00
1818, 2429.00
1819, 2429.00
1820, 2426.00
1821, 2427.00
1822, 2426.00
1823, 2426.00
1824, 2423.00
1825, 2421.00
1826, 2419.00
1827, 2419.00
1828, 2420.00
1829, 2415.00
1830, 2414.00
1831, 2413.00
1832, 2413.00
1833, 2413.00
1834, 2409.00
1835, 2409.00
1836, 2408.00
1837, 2406.00
1838, 2403.00
1839, 2400.00
1840, 2397.00
1841, 2399.00
1842, 2394.00
1843, 2390.00
1844, 2389.00
1845, 2388.00
1846, 2385.00
1847, 2382.00
1848, 2381.00
1849, 2377.00
1850, 2375.00
1851, 2373.00
1852, 2371.00
1853, 2369.00
1854, 2365.00
1855, 2364.00
1856, 2362.00
1857, 2361.00
1858, 2358.00
1859, 2356.00
1860, 2356.00
1861, 2353.00
1862, 2350.00
1863, 2348.00
1864, 2347.00
1865, 2344.00
1866, 2344.00
1867, 2341.00
1868, 2339.00
1869, 2340.00
1870, 2337.00
1871, 2337.00
1872, 2333.00
1873, 2330.00
1874, 2331.00
1875, 2330.00
1876, 2331.00
1877, 2329.00
1878, 2328.00
1879, 2327.00
1880, 2325.00
1881, 2325.00
1882, 2324.00
1883, 2323.00
1884, 2323.00
1885, 2323.00
1886, 2321.00
1887, 2322.00
1888, 2322.00
1889, 2320.00
1890, 2320.00
1891, 2320.00
1892, 2317.00
1893, 2319.00
1894, 2319.00
1895, 2317.00
1896, 2317.00
1897, 2316.00
1898, 2315.00
1899, 2315.00
1900, 2315.00
1901, 2313.00
1902, 2313.00
1903, 2315.00
1904, 2315.00
1905, 2313.00
1906, 2312.00
1907, 2313.00
1908, 2314.00
1909, 2313.00
1910, 2313.00
1911, 2313.00
1912, 2313.00
1913, 2311.00
1914, 2311.00
1915, 2312.00
1916, 2311.00
1917, 2309.00
1918, 2311.00
1919, 2311.00
1920, 2309.00
1921, 2309.00
1922, 2312.00
1923, 2311.00
1924, 2311.00
1925, 2311.00
1926, 2310.00
1927, 2312.00
1928, 2310.00
1929, 2311.00
1930, 2312.00
1931, 2312.00
1932, 2309.00
1933, 2310.00
1934, 2312.00
1935, 2312.00
1936, 2310.00
1937, 2310.00
1938, 2314.00
1939, 2313.00
1940, 2312.00
1941, 2312.00
1942, 2312.00
1943, 2312.00
1944, 2312.00
1945, 2313.00
1946, 2314.00
1947, 2314.00
1948, 2312.00
1949, 2313.00
1950, 2315.00
1951, 2315.00
1952, 2315.00
1953, 2315.00
1954, 2314.00
1955, 2316.00
1956, 2317.00
1957, 2317.00
1958, 2318.00
1959, 2318.00
1960, 2321.00
1961, 2320.00
1962, 2320.00
1963, 2318.00
1964, 2319.00
1965, 2319.00
1966, 2321.00
1967, 2320.00
1968, 2322.00
1969, 2323.00
1970, 2320.00
1971, 2322.00
1972, 2323.00
1973, 2323.00
1974, 2325.00
1975, 2324.00
1976, 2325.00
1977, 2325.00
1978, 2325.00
1979, 2327.00
1980, 2327.00
1981, 2325.00
1982, 2329.00
1983, 2328.00
1984, 2329.00
1985, 2329.00
1986, 2331.00
1987, 2331.00
1988, 2332.00
1989, 2334.00
1990, 2334.00
1991, 2333.00
1992, 2333.00
1993, 2333.00
1994, 2334.00
1995, 2335.00
1996, 2337.00
1997, 2338.00
1998, 2337.00
1999, 2337.00
2000, 2338.00
2001, 2340.00
2002, 2340.00
2003, 2339.00
2004, 2339.00
2005, 2340.00
2006, 2341.00
2007, 2340.00
2008, 2341.00
2009, 2343.00
2010, 2341.00
2011, 2344.00
2012, 2344.00
2013, 2343.00
2014, 2345.00
2015, 2347.00
2016, 2347.00
2017, 2347.00
2018, 2347.00
2019, 2348.00
2020, 2346.00
2021, 2350.00
2022, 2348.00
2023, 2349.00
2024, 2349.00
2025, 2351.00
2026, 2350.00
2027, 2352.00
2028, 2352.00
2029, 2353.00
2030, 2355.00
2031, 2354.00
2032, 2355.00
2033, 2357.00
2034, 2357.00
2035, 2358.00
2036, 2359.00
2037, 2357.00
2038, 2360.00
2039, 2359.00
2040, 2360.00
2041, 2361.00
2042, 2362.00
2043, 2362.00
2044, 2363.00
2045, 2365.00
2046, 2366.00
2047, 2366.00
2048, 2367.00
2049, 2367.00
2050, 2368.00
2051, 2370.00
2052, 2370.00
2053, 2372.00
2054, 2372.00
2055, 2372.00
2056, 2371.00
2057, 2373.00
2058, 2375.00
2059, 2375.00
2060, 2378.00
2061, 2377.00
2062, 2377.00
2063, 2380.00
2064, 2379.00
2065, 2379.00
2066, 2380.00
2067, 2383.00
2068, 2384.00
2069, 2384.00
2070, 2383.00
2071, 2386.00
2072, 2389.00
2073, 2386.00
2074, 2388.00
2075, 2388.00
2076, 2390.00
2077, 2391.00
2078, 2390.00
2079, 2395.00
2080, 2391.00
2081, 2391.00
2082, 2394.00
2083, 2395.00
2084, 2396.00
2085, 2395.00
2086, 2398.00
2087, 2397.00
2088, 2399.00
2089, 2399.00
2090, 2399.00
2091, 2399.00
2092, 2401.00
2093, 2402.00
2094, 2401.00
2095, 2402.00
2096, 2402.00
2097, 2402.00
2098, 2404.00
2099, 2404.00
2100, 2403.00
2101, 2405.00
2102, 2405.00
2103, 2406.00
2104, 2406.00
2105, 2405.00
2106, 2409.00
2107, 2407.00
2108, 2408.00
2109, 2409.00
2110, 2409.00
2111, 2408.00
2112, 2409.00
2113, 2410.00
2114, 2409.00
2115, 2410.00
2116, 2409.00
2117, 2412.00
2118, 2412.00
2119, 2413.00
2120, 2414.00
2121, 2413.00
2122, 2413.00
2123, 2414.00
2124, 2413.00
2125, 2415.00
2126, 2415.00
2127, 2415.00
2128, 2415.00
2129, 2415.00
2130, 2417.00
2131, 2417.00
2132, 2415.00
2133, 2417.00
2134, 2417.00
2135, 2418.00
2136, 2419.00
2137, 2419.00
2138, 2418.00
2139, 2419.00
2140, 2418.00
2141, 2418.00
2142, 2422.00
2143, 2420.00
2144, 2421.00
2145, 2421.00
2146, 2421.00
2147, 2420.00
2148, 2422.00
2149, 2422.00
2150, 2419.00
