FW version: 24
Log Version: 3.0.3

General Info:
       Command/Macro Performed,            Timestamp,             Device ID, COM Port, UART/I2C, Test Name, Host Major, Host Minor, Host Revision, Host Git Commit
            Single_measurement,  2023_07_04_11_27_24,       Insight2_F4_xxx,    USB-C,      USB,          ,          0,          1,             1,      4031237645

Show Spectrometer Status:
l0_version, f4_version, battery_perc, battery_mVolt, accelerometer_temp, accelerometer_x, accelerometer_y, accelerometer_z, compass_temp, compass_x, compass_y, compass_z, lamp_0, lamp_1, gain_0, gain_1
        17,         24,           26,          1865,               6240,           64812,            2296,           19304,            0,     65405,     65530,     19436,   2866,   2866,      1,      1

Temperature Statistic Info:
NTC AVG [°C], NTC2 AVG [°C]
      38.768,        38.479

Statistic Info:
M1:  num,      min,      max,   median,      AVG,      STD,M2:  num,      min,      max,   median,      AVG,      STD
     301,  1356.00,  1558.00,  1399.00,  1422.97,  62.4789,     401,  1860.00,  1979.00,  1910.00,  1913.08,  38.9317,

Measurements:
Wavelength, Data Amplitude
1350, 1390.00
1351, 1390.00
1352, 1390.00
1353, 1389.00
1354, 1388.00
1355, 1388.00
1356, 1387.00
1357, 1387.00
1358, 1386.00
1359, 1385.00
1360, 1384.00
1361, 1384.00
1362, 1382.00
1363, 1381.00
1364, 1382.00
1365, 1379.00
1366, 1379.00
1367, 1378.00
1368, 1377.00
1369, 1376.00
1370, 1376.00
1371, 1373.00
1372, 1374.00
1373, 1373.00
1374, 1372.00
1375, 1372.00
1376, 1370.00
1377, 1370.00
1378, 1368.00
1379, 1369.00
1380, 1367.00
1381, 1367.00
1382, 1366.00
1383, 1366.00
1384, 1365.00
1385, 1364.00
1386, 1363.00
1387, 1363.00
1388, 1363.00
1389, 1362.00
1390, 1362.00
1391, 1361.00
1392, 1361.00
1393, 1362.00
1394, 1361.00
1395, 1361.00
1396, 1360.00
1397, 1360.00
1398, 1360.00
1399, 1359.00
1400, 1359.00
1401, 1359.00
1402, 1359.00
1403, 1359.00
1404, 1359.00
1405, 1358.00
1406, 1359.00
1407, 1358.00
1408, 1358.00
1409, 1358.00
1410, 1357.00
1411, 1357.00
1412, 1358.00
1413, 1358.00
1414, 1357.00
1415, 1358.00
1416, 1358.00
1417, 1357.00
1418, 1357.00
1419, 1357.00
1420, 1357.00
1421, 1358.00
1422, 1358.00
1423, 1357.00
1424, 1357.00
1425, 1358.00
1426, 1356.00
1427, 1357.00
1428, 1358.00
1429, 1357.00
1430, 1359.00
1431, 1358.00
1432, 1359.00
1433, 1360.00
1434, 1359.00
1435, 1361.00
1436, 1360.00
1437, 1360.00
1438, 1361.00
1439, 1361.00
1440, 1361.00
1441, 1362.00
1442, 1362.00
1443, 1363.00
1444, 1363.00
1445, 1363.00
1446, 1363.00
1447, 1363.00
1448, 1364.00
1449, 1365.00
1450, 1365.00
1451, 1364.00
1452, 1365.00
1453, 1366.00
1454, 1366.00
1455, 1367.00
1456, 1367.00
1457, 1367.00
1458, 1369.00
1459, 1369.00
1460, 1369.00
1461, 1369.00
1462, 1370.00
1463, 1371.00
1464, 1372.00
1465, 1372.00
1466, 1373.00
1467, 1374.00
1468, 1374.00
1469, 1375.00
1470, 1375.00
1471, 1376.00
1472, 1377.00
1473, 1378.00
1474, 1377.00
1475, 1379.00
1476, 1379.00
1477, 1381.00
1478, 1382.00
1479, 1382.00
1480, 1383.00
1481, 1384.00
1482, 1383.00
1483, 1385.00
1484, 1386.00
1485, 1386.00
1486, 1388.00
1487, 1388.00
1488, 1389.00
1489, 1390.00
1490, 1391.00
1491, 1391.00
1492, 1392.00
1493, 1394.00
1494, 1395.00
1495, 1395.00
1496, 1396.00
1497, 1397.00
1498, 1398.00
1499, 1398.00
1500, 1400.00
1501, 1399.00
1502, 1401.00
1503, 1401.00
1504, 1402.00
1505, 1403.00
1506, 1404.00
1507, 1405.00
1508, 1405.00
1509, 1407.00
1510, 1408.00
1511, 1409.00
1512, 1409.00
1513, 1410.00
1514, 1411.00
1515, 1413.00
1516, 1413.00
1517, 1414.00
1518, 1414.00
1519, 1417.00
1520, 1417.00
1521, 1417.00
1522, 1419.00
1523, 1420.00
1524, 1421.00
1525, 1421.00
1526, 1423.00
1527, 1424.00
1528, 1425.00
1529, 1426.00
1530, 1427.00
1531, 1428.00
1532, 1429.00
1533, 1430.00
1534, 1430.00
1535, 1432.00
1536, 1433.00
1537, 1434.00
1538, 1435.00
1539, 1436.00
1540, 1437.00
1541, 1437.00
1542, 1438.00
1543, 1440.00
1544, 1441.00
1545, 1441.00
1546, 1443.00
1547, 1445.00
1548, 1445.00
1549, 1445.00
1550, 1446.00
1551, 1448.00
1552, 1449.00
1553, 1449.00
1554, 1451.00
1555, 1452.00
1556, 1453.00
1557, 1455.00
1558, 1455.00
1559, 1457.00
1560, 1457.00
1561, 1459.00
1562, 1460.00
1563, 1461.00
1564, 1463.00
1565, 1463.00
1566, 1465.00
1567, 1466.00
1568, 1466.00
1569, 1467.00
1570, 1468.00
1571, 1469.00
1572, 1471.00
1573, 1473.00
1574, 1473.00
1575, 1474.00
1576, 1475.00
1577, 1476.00
1578, 1477.00
1579, 1478.00
1580, 1479.00
1581, 1481.00
1582, 1481.00
1583, 1482.00
1584, 1483.00
1585, 1485.00
1586, 1485.00
1587, 1486.00
1588, 1488.00
1589, 1488.00
1590, 1488.00
1591, 1490.00
1592, 1491.00
1593, 1492.00
1594, 1494.00
1595, 1494.00
1596, 1495.00
1597, 1496.00
1598, 1497.00
1599, 1498.00
1600, 1500.00
1601, 1500.00
1602, 1502.00
1603, 1503.00
1604, 1503.00
1605, 1505.00
1606, 1507.00
1607, 1507.00
1608, 1508.00
1609, 1509.00
1610, 1510.00
1611, 1512.00
1612, 1513.00
1613, 1515.00
1614, 1516.00
1615, 1516.00
1616, 1517.00
1617, 1519.00
1618, 1521.00
1619, 1522.00
1620, 1523.00
1621, 1524.00
1622, 1526.00
1623, 1528.00
1624, 1529.00
1625, 1531.00
1626, 1531.00
1627, 1533.00
1628, 1534.00
1629, 1535.00
1630, 1537.00
1631, 1539.00
1632, 1538.00
1633, 1539.00
1634, 1541.00
1635, 1543.00
1636, 1543.00
1637, 1544.00
1638, 1545.00
1639, 1546.00
1640, 1547.00
1641, 1549.00
1642, 1550.00
1643, 1549.00
1644, 1551.00
1645, 1552.00
1646, 1553.00
1647, 1555.00
1648, 1556.00
1649, 1557.00
1650, 1558.00

1750, 1977.00
1751, 1977.00
1752, 1977.00
1753, 1977.00
1754, 1978.00
1755, 1978.00
1756, 1977.00
1757, 1976.00
1758, 1979.00
1759, 1977.00
1760, 1978.00
1761, 1977.00
1762, 1977.00
1763, 1975.00
1764, 1977.00
1765, 1976.00
1766, 1977.00
1767, 1977.00
1768, 1977.00
1769, 1974.00
1770, 1976.00
1771, 1973.00
1772, 1975.00
1773, 1974.00
1774, 1975.00
1775, 1975.00
1776, 1973.00
1777, 1973.00
1778, 1973.00
1779, 1972.00
1780, 1972.00
1781, 1973.00
1782, 1971.00
1783, 1970.00
1784, 1969.00
1785, 1971.00
1786, 1969.00
1787, 1971.00
1788, 1967.00
1789, 1968.00
1790, 1969.00
1791, 1967.00
1792, 1968.00
1793, 1967.00
1794, 1966.00
1795, 1967.00
1796, 1965.00
1797, 1964.00
1798, 1965.00
1799, 1966.00
1800, 1963.00
1801, 1965.00
1802, 1964.00
1803, 1965.00
1804, 1963.00
1805, 1963.00
1806, 1964.00
1807, 1960.00
1808, 1961.00
1809, 1962.00
1810, 1961.00
1811, 1959.00
1812, 1959.00
1813, 1959.00
1814, 1958.00
1815, 1958.00
1816, 1958.00
1817, 1959.00
1818, 1956.00
1819, 1957.00
1820, 1954.00
1821, 1955.00
1822, 1954.00
1823, 1951.00
1824, 1952.00
1825, 1950.00
1826, 1949.00
1827, 1949.00
1828, 1950.00
1829, 1947.00
1830, 1947.00
1831, 1945.00
1832, 1944.00
1833, 1942.00
1834, 1941.00
1835, 1940.00
1836, 1939.00
1837, 1938.00
1838, 1936.00
1839, 1934.00
1840, 1932.00
1841, 1931.00
1842, 1930.00
1843, 1926.00
1844, 1927.00
1845, 1923.00
1846, 1920.00
1847, 1919.00
1848, 1919.00
1849, 1915.00
1850, 1915.00
1851, 1913.00
1852, 1911.00
1853, 1909.00
1854, 1907.00
1855, 1906.00
1856, 1903.00
1857, 1901.00
1858, 1899.00
1859, 1899.00
1860, 1898.00
1861, 1895.00
1862, 1895.00
1863, 1893.00
1864, 1890.00
1865, 1889.00
1866, 1887.00
1867, 1885.00
1868, 1885.00
1869, 1883.00
1870, 1881.00
1871, 1882.00
1872, 1882.00
1873, 1879.00
1874, 1878.00
1875, 1879.00
1876, 1877.00
1877, 1877.00
1878, 1875.00
1879, 1872.00
1880, 1873.00
1881, 1874.00
1882, 1875.00
1883, 1872.00
1884, 1870.00
1885, 1870.00
1886, 1871.00
1887, 1870.00
1888, 1869.00
1889, 1869.00
1890, 1868.00
1891, 1867.00
1892, 1867.00
1893, 1866.00
1894, 1867.00
1895, 1866.00
1896, 1868.00
1897, 1865.00
1898, 1866.00
1899, 1865.00
1900, 1864.00
1901, 1865.00
1902, 1864.00
1903, 1863.00
1904, 1863.00
1905, 1863.00
1906, 1864.00
1907, 1863.00
1908, 1863.00
1909, 1863.00
1910, 1864.00
1911, 1862.00
1912, 1861.00
1913, 1861.00
1914, 1863.00
1915, 1861.00
1916, 1862.00
1917, 1862.00
1918, 1860.00
1919, 1861.00
1920, 1860.00
1921, 1862.00
1922, 1862.00
1923, 1861.00
1924, 1861.00
1925, 1862.00
1926, 1862.00
1927, 1861.00
1928, 1861.00
1929, 1862.00
1930, 1861.00
1931, 1862.00
1932, 1861.00
1933, 1861.00
1934, 1860.00
1935, 1862.00
1936, 1862.00
1937, 1864.00
1938, 1862.00
1939, 1862.00
1940, 1862.00
1941, 1862.00
1942, 1863.00
1943, 1862.00
1944, 1865.00
1945, 1863.00
1946, 1863.00
1947, 1865.00
1948, 1863.00
1949, 1865.00
1950, 1864.00
1951, 1864.00
1952, 1865.00
1953, 1865.00
1954, 1865.00
1955, 1864.00
1956, 1865.00
1957, 1866.00
1958, 1865.00
1959, 1867.00
1960, 1866.00
1961, 1868.00
1962, 1869.00
1963, 1868.00
1964, 1868.00
1965, 1870.00
1966, 1869.00
1967, 1869.00
1968, 1870.00
1969, 1869.00
1970, 1871.00
1971, 1871.00
1972, 1871.00
1973, 1870.00
1974, 1872.00
1975, 1874.00
1976, 1872.00
1977, 1874.00
1978, 1873.00
1979, 1875.00
1980, 1874.00
1981, 1875.00
1982, 1874.00
1983, 1877.00
1984, 1877.00
1985, 1878.00
1986, 1878.00
1987, 1879.00
1988, 1879.00
1989, 1880.00
1990, 1879.00
1991, 1880.00
1992, 1880.00
1993, 1882.00
1994, 1881.00
1995, 1882.00
1996, 1883.00
1997, 1883.00
1998, 1883.00
1999, 1884.00
2000, 1883.00
2001, 1885.00
2002, 1884.00
2003, 1885.00
2004, 1884.00
2005, 1885.00
2006, 1885.00
2007, 1887.00
2008, 1887.00
2009, 1886.00
2010, 1889.00
2011, 1889.00
2012, 1889.00
2013, 1889.00
2014, 1890.00
2015, 1890.00
2016, 1890.00
2017, 1890.00
2018, 1890.00
2019, 1893.00
2020, 1892.00
2021, 1893.00
2022, 1894.00
2023, 1893.00
2024, 1895.00
2025, 1897.00
2026, 1894.00
2027, 1896.00
2028, 1894.00
2029, 1896.00
2030, 1898.00
2031, 1898.00
2032, 1900.00
2033, 1898.00
2034, 1902.00
2035, 1899.00
2036, 1900.00
2037, 1901.00
2038, 1901.00
2039, 1900.00
2040, 1902.00
2041, 1902.00
2042, 1903.00
2043, 1903.00
2044, 1904.00
2045, 1906.00
2046, 1906.00
2047, 1906.00
2048, 1906.00
2049, 1908.00
2050, 1909.00
2051, 1909.00
2052, 1911.00
2053, 1909.00
2054, 1910.00
2055, 1911.00
2056, 1914.00
2057, 1913.00
2058, 1915.00
2059, 1916.00
2060, 1915.00
2061, 1916.00
2062, 1916.00
2063, 1919.00
2064, 1918.00
2065, 1918.00
2066, 1920.00
2067, 1919.00
2068, 1919.00
2069, 1922.00
2070, 1922.00
2071, 1923.00
2072, 1924.00
2073, 1923.00
2074, 1925.00
2075, 1925.00
2076, 1926.00
2077, 1927.00
2078, 1927.00
2079, 1927.00
2080, 1928.00
2081, 1930.00
2082, 1931.00
2083, 1933.00
2084, 1931.00
2085, 1931.00
2086, 1932.00
2087, 1934.00
2088, 1933.00
2089, 1935.00
2090, 1934.00
2091, 1936.00
2092, 1934.00
2093, 1934.00
2094, 1936.00
2095, 1935.00
2096, 1937.00
2097, 1938.00
2098, 1938.00
2099, 1939.00
2100, 1939.00
2101, 1939.00
2102, 1940.00
2103, 1940.00
2104, 1942.00
2105, 1942.00
2106, 1941.00
2107, 1943.00
2108, 1942.00
2109, 1942.00
2110, 1942.00
2111, 1941.00
2112, 1943.00
2113, 1944.00
2114, 1943.00
2115, 1943.00
2116, 1943.00
2117, 1945.00
2118, 1945.00
2119, 1947.00
2120, 1945.00
2121, 1945.00
2122, 1947.00
2123, 1947.00
2124, 1946.00
2125, 1946.00
2126, 1947.00
2127, 1945.00
2128, 1949.00
2129, 1949.00
2130, 1949.00
2131, 1948.00
2132, 1949.00
2133, 1947.00
2134, 1949.00
2135, 1947.00
2136, 1951.00
2137, 1950.00
2138, 1951.00
2139, 1949.00
2140, 1953.00
2141, 1951.00
2142, 1951.00
2143, 1952.00
2144, 1952.00
2145, 1954.00
2146, 1953.00
2147, 1953.00
2148, 1952.00
2149, 1953.00
2150, 1953.00
