FW version: 24
Log Version: 3.0.3

General Info:
       Command/Macro Performed,            Timestamp,             Device ID, COM Port, UART/I2C, Test Name, Host Major, Host Minor, Host Revision, Host Git Commit
            Single_measurement,  2023_07_04_11_26_34,       Insight2_F4_xxx,    USB-C,      USB,          ,          0,          1,             1,      4031237645

Show Spectrometer Status:
l0_version, f4_version, battery_perc, battery_mVolt, accelerometer_temp, accelerometer_x, accelerometer_y, accelerometer_z, compass_temp, compass_x, compass_y, compass_z, lamp_0, lamp_1, gain_0, gain_1
        17,         24,           26,          1866,               6176,           64792,            2228,           19180,            0,     65400,     65461,     19196,   3276,   3276,      0,      0

Temperature Statistic Info:
NTC AVG [°C], NTC2 AVG [°C]
      38.479,        38.158

Statistic Info:
M1:  num,      min,      max,   median,      AVG,      STD,M2:  num,      min,      max,   median,      AVG,      STD
     301,   602.00,   688.00,   619.00,   630.05,  26.6301,     401,   797.00,   849.00,   819.00,   820.03,  16.6998,

Measurements:
Wavelength, Data Amplitude
1350, 617.00
1351, 617.00
1352, 617.00
1353, 617.00
1354, 616.00
1355, 616.00
1356, 616.00
1357, 616.00
1358, 615.00
1359, 615.00
1360, 614.00
1361, 614.00
1362, 614.00
1363, 613.00
1364, 613.00
1365, 613.00
1366, 612.00
1367, 612.00
1368, 612.00
1369, 611.00
1370, 611.00
1371, 610.00
1372, 610.00
1373, 609.00
1374, 609.00
1375, 609.00
1376, 608.00
1377, 608.00
1378, 608.00
1379, 607.00
1380, 607.00
1381, 606.00
1382, 607.00
1383, 606.00
1384, 605.00
1385, 606.00
1386, 605.00
1387, 605.00
1388, 605.00
1389, 605.00
1390, 604.00
1391, 604.00
1392, 604.00
1393, 604.00
1394, 604.00
1395, 604.00
1396, 603.00
1397, 603.00
1398, 604.00
1399, 603.00
1400, 603.00
1401, 603.00
1402, 603.00
1403, 603.00
1404, 602.00
1405, 603.00
1406, 603.00
1407, 603.00
1408, 603.00
1409, 602.00
1410, 603.00
1411, 602.00
1412, 602.00
1413, 602.00
1414, 602.00
1415, 602.00
1416, 602.00
1417, 602.00
1418, 602.00
1419, 602.00
1420, 602.00
1421, 602.00
1422, 602.00
1423, 602.00
1424, 602.00
1425, 602.00
1426, 602.00
1427, 602.00
1428, 602.00
1429, 602.00
1430, 602.00
1431, 603.00
1432, 603.00
1433, 603.00
1434, 603.00
1435, 603.00
1436, 603.00
1437, 603.00
1438, 603.00
1439, 603.00
1440, 603.00
1441, 603.00
1442, 604.00
1443, 604.00
1444, 604.00
1445, 604.00
1446, 605.00
1447, 604.00
1448, 605.00
1449, 604.00
1450, 605.00
1451, 605.00
1452, 605.00
1453, 606.00
1454, 606.00
1455, 606.00
1456, 606.00
1457, 606.00
1458, 606.00
1459, 607.00
1460, 607.00
1461, 608.00
1462, 608.00
1463, 608.00
1464, 608.00
1465, 608.00
1466, 609.00
1467, 609.00
1468, 609.00
1469, 609.00
1470, 610.00
1471, 610.00
1472, 610.00
1473, 610.00
1474, 610.00
1475, 611.00
1476, 611.00
1477, 612.00
1478, 612.00
1479, 612.00
1480, 612.00
1481, 613.00
1482, 613.00
1483, 613.00
1484, 614.00
1485, 614.00
1486, 614.00
1487, 615.00
1488, 615.00
1489, 615.00
1490, 616.00
1491, 616.00
1492, 617.00
1493, 617.00
1494, 617.00
1495, 618.00
1496, 618.00
1497, 618.00
1498, 618.00
1499, 619.00
1500, 619.00
1501, 620.00
1502, 621.00
1503, 620.00
1504, 620.00
1505, 621.00
1506, 622.00
1507, 623.00
1508, 622.00
1509, 623.00
1510, 623.00
1511, 623.00
1512, 624.00
1513, 624.00
1514, 625.00
1515, 625.00
1516, 626.00
1517, 626.00
1518, 626.00
1519, 626.00
1520, 627.00
1521, 628.00
1522, 628.00
1523, 628.00
1524, 629.00
1525, 629.00
1526, 630.00
1527, 630.00
1528, 631.00
1529, 631.00
1530, 631.00
1531, 632.00
1532, 632.00
1533, 632.00
1534, 633.00
1535, 633.00
1536, 634.00
1537, 635.00
1538, 635.00
1539, 635.00
1540, 636.00
1541, 636.00
1542, 636.00
1543, 637.00
1544, 637.00
1545, 637.00
1546, 638.00
1547, 639.00
1548, 639.00
1549, 640.00
1550, 640.00
1551, 640.00
1552, 641.00
1553, 641.00
1554, 642.00
1555, 642.00
1556, 643.00
1557, 643.00
1558, 644.00
1559, 644.00
1560, 645.00
1561, 645.00
1562, 646.00
1563, 646.00
1564, 646.00
1565, 647.00
1566, 647.00
1567, 649.00
1568, 648.00
1569, 649.00
1570, 650.00
1571, 650.00
1572, 651.00
1573, 651.00
1574, 652.00
1575, 652.00
1576, 652.00
1577, 653.00
1578, 654.00
1579, 654.00
1580, 654.00
1581, 655.00
1582, 655.00
1583, 656.00
1584, 656.00
1585, 657.00
1586, 657.00
1587, 657.00
1588, 658.00
1589, 658.00
1590, 658.00
1591, 659.00
1592, 659.00
1593, 660.00
1594, 660.00
1595, 660.00
1596, 661.00
1597, 661.00
1598, 662.00
1599, 662.00
1600, 663.00
1601, 663.00
1602, 664.00
1603, 664.00
1604, 665.00
1605, 665.00
1606, 665.00
1607, 666.00
1608, 667.00
1609, 667.00
1610, 667.00
1611, 668.00
1612, 669.00
1613, 669.00
1614, 669.00
1615, 670.00
1616, 671.00
1617, 672.00
1618, 672.00
1619, 672.00
1620, 673.00
1621, 673.00
1622, 674.00
1623, 674.00
1624, 676.00
1625, 676.00
1626, 676.00
1627, 676.00
1628, 678.00
1629, 678.00
1630, 679.00
1631, 679.00
1632, 679.00
1633, 680.00
1634, 681.00
1635, 681.00
1636, 681.00
1637, 681.00
1638, 682.00
1639, 682.00
1640, 683.00
1641, 683.00
1642, 684.00
1643, 684.00
1644, 685.00
1645, 685.00
1646, 686.00
1647, 686.00
1648, 687.00
1649, 687.00
1650, 688.00

1750, 848.00
1751, 848.00
1752, 848.00
1753, 849.00
1754, 849.00
1755, 849.00
1756, 848.00
1757, 849.00
1758, 848.00
1759, 848.00
1760, 848.00
1761, 848.00
1762, 848.00
1763, 848.00
1764, 848.00
1765, 847.00
1766, 847.00
1767, 848.00
1768, 847.00
1769, 847.00
1770, 847.00
1771, 847.00
1772, 847.00
1773, 847.00
1774, 847.00
1775, 847.00
1776, 847.00
1777, 846.00
1778, 846.00
1779, 846.00
1780, 846.00
1781, 845.00
1782, 846.00
1783, 845.00
1784, 845.00
1785, 846.00
1786, 845.00
1787, 845.00
1788, 844.00
1789, 844.00
1790, 844.00
1791, 843.00
1792, 844.00
1793, 843.00
1794, 843.00
1795, 843.00
1796, 843.00
1797, 843.00
1798, 843.00
1799, 843.00
1800, 842.00
1801, 842.00
1802, 842.00
1803, 842.00
1804, 842.00
1805, 841.00
1806, 841.00
1807, 842.00
1808, 841.00
1809, 842.00
1810, 841.00
1811, 840.00
1812, 840.00
1813, 840.00
1814, 840.00
1815, 840.00
1816, 840.00
1817, 839.00
1818, 839.00
1819, 838.00
1820, 838.00
1821, 838.00
1822, 838.00
1823, 838.00
1824, 837.00
1825, 837.00
1826, 836.00
1827, 836.00
1828, 836.00
1829, 836.00
1830, 834.00
1831, 834.00
1832, 833.00
1833, 833.00
1834, 832.00
1835, 832.00
1836, 832.00
1837, 830.00
1838, 830.00
1839, 829.00
1840, 828.00
1841, 828.00
1842, 828.00
1843, 826.00
1844, 827.00
1845, 824.00
1846, 825.00
1847, 823.00
1848, 823.00
1849, 822.00
1850, 821.00
1851, 820.00
1852, 820.00
1853, 819.00
1854, 817.00
1855, 817.00
1856, 816.00
1857, 815.00
1858, 815.00
1859, 814.00
1860, 813.00
1861, 813.00
1862, 811.00
1863, 811.00
1864, 811.00
1865, 810.00
1866, 809.00
1867, 809.00
1868, 809.00
1869, 807.00
1870, 807.00
1871, 807.00
1872, 806.00
1873, 806.00
1874, 806.00
1875, 806.00
1876, 805.00
1877, 805.00
1878, 804.00
1879, 803.00
1880, 803.00
1881, 803.00
1882, 804.00
1883, 802.00
1884, 802.00
1885, 802.00
1886, 802.00
1887, 801.00
1888, 801.00
1889, 801.00
1890, 801.00
1891, 801.00
1892, 801.00
1893, 801.00
1894, 800.00
1895, 801.00
1896, 800.00
1897, 800.00
1898, 800.00
1899, 800.00
1900, 800.00
1901, 799.00
1902, 799.00
1903, 800.00
1904, 799.00
1905, 798.00
1906, 799.00
1907, 799.00
1908, 799.00
1909, 799.00
1910, 799.00
1911, 799.00
1912, 798.00
1913, 798.00
1914, 799.00
1915, 798.00
1916, 798.00
1917, 799.00
1918, 797.00
1919, 798.00
1920, 798.00
1921, 799.00
1922, 798.00
1923, 798.00
1924, 798.00
1925, 798.00
1926, 798.00
1927, 798.00
1928, 798.00
1929, 798.00
1930, 798.00
1931, 798.00
1932, 798.00
1933, 798.00
1934, 798.00
1935, 798.00
1936, 798.00
1937, 798.00
1938, 798.00
1939, 798.00
1940, 798.00
1941, 798.00
1942, 799.00
1943, 799.00
1944, 799.00
1945, 800.00
1946, 798.00
1947, 799.00
1948, 799.00
1949, 799.00
1950, 800.00
1951, 799.00
1952, 799.00
1953, 800.00
1954, 799.00
1955, 800.00
1956, 799.00
1957, 800.00
1958, 800.00
1959, 800.00
1960, 800.00
1961, 800.00
1962, 801.00
1963, 801.00
1964, 801.00
1965, 802.00
1966, 801.00
1967, 801.00
1968, 801.00
1969, 802.00
1970, 802.00
1971, 802.00
1972, 802.00
1973, 802.00
1974, 803.00
1975, 803.00
1976, 803.00
1977, 803.00
1978, 803.00
1979, 803.00
1980, 804.00
1981, 804.00
1982, 804.00
1983, 805.00
1984, 805.00
1985, 805.00
1986, 805.00
1987, 806.00
1988, 804.00
1989, 805.00
1990, 805.00
1991, 806.00
1992, 806.00
1993, 806.00
1994, 806.00
1995, 807.00
1996, 807.00
1997, 806.00
1998, 807.00
1999, 807.00
2000, 807.00
2001, 808.00
2002, 808.00
2003, 808.00
2004, 808.00
2005, 808.00
2006, 809.00
2007, 809.00
2008, 809.00
2009, 808.00
2010, 809.00
2011, 809.00
2012, 809.00
2013, 809.00
2014, 810.00
2015, 810.00
2016, 811.00
2017, 810.00
2018, 810.00
2019, 811.00
2020, 811.00
2021, 811.00
2022, 811.00
2023, 812.00
2024, 812.00
2025, 811.00
2026, 813.00
2027, 812.00
2028, 812.00
2029, 813.00
2030, 813.00
2031, 813.00
2032, 813.00
2033, 813.00
2034, 813.00
2035, 813.00
2036, 814.00
2037, 814.00
2038, 815.00
2039, 815.00
2040, 815.00
2041, 815.00
2042, 816.00
2043, 816.00
2044, 816.00
2045, 817.00
2046, 817.00
2047, 817.00
2048, 817.00
2049, 818.00
2050, 818.00
2051, 818.00
2052, 817.00
2053, 819.00
2054, 819.00
2055, 819.00
2056, 820.00
2057, 819.00
2058, 821.00
2059, 820.00
2060, 821.00
2061, 821.00
2062, 821.00
2063, 821.00
2064, 822.00
2065, 822.00
2066, 822.00
2067, 822.00
2068, 823.00
2069, 822.00
2070, 824.00
2071, 823.00
2072, 823.00
2073, 825.00
2074, 824.00
2075, 825.00
2076, 825.00
2077, 826.00
2078, 825.00
2079, 826.00
2080, 826.00
2081, 826.00
2082, 827.00
2083, 827.00
2084, 827.00
2085, 828.00
2086, 828.00
2087, 827.00
2088, 828.00
2089, 829.00
2090, 828.00
2091, 828.00
2092, 829.00
2093, 829.00
2094, 829.00
2095, 830.00
2096, 830.00
2097, 830.00
2098, 830.00
2099, 830.00
2100, 830.00
2101, 830.00
2102, 830.00
2103, 831.00
2104, 831.00
2105, 831.00
2106, 832.00
2107, 832.00
2108, 832.00
2109, 832.00
2110, 832.00
2111, 832.00
2112, 832.00
2113, 833.00
2114, 832.00
2115, 833.00
2116, 833.00
2117, 833.00
2118, 833.00
2119, 834.00
2120, 834.00
2121, 834.00
2122, 834.00
2123, 833.00
2124, 834.00
2125, 834.00
2126, 834.00
2127, 834.00
2128, 835.00
2129, 834.00
2130, 835.00
2131, 834.00
2132, 835.00
2133, 835.00
2134, 835.00
2135, 835.00
2136, 835.00
2137, 835.00
2138, 836.00
2139, 836.00
2140, 835.00
2141, 836.00
2142, 835.00
2143, 836.00
2144, 836.00
2145, 836.00
2146, 836.00
2147, 837.00
2148, 836.00
2149, 837.00
2150, 836.00
