FW version: 24
Log Version: 3.0.3

General Info:
       Command/Macro Performed,            Timestamp,             Device ID, COM Port, UART/I2C, Test Name, Host Major, Host Minor, Host Revision, Host Git Commit
            Single_measurement,  2023_07_04_11_27_28,       Insight2_F4_xxx,    USB-C,      USB,          ,          0,          1,             1,      4031237645

Show Spectrometer Status:
l0_version, f4_version, battery_perc, battery_mVolt, accelerometer_temp, accelerometer_x, accelerometer_y, accelerometer_z, compass_temp, compass_x, compass_y, compass_z, lamp_0, lamp_1, gain_0, gain_1
        17,         24,           26,          1875,               6224,           64764,            2316,           19260,            0,     65533,     65325,     19325,   2866,   2866,      1,      1

Temperature Statistic Info:
NTC AVG [°C], NTC2 AVG [°C]
      38.825,        38.508

Statistic Info:
M1:  num,      min,      max,   median,      AVG,      STD,M2:  num,      min,      max,   median,      AVG,      STD
     301,  1356.00,  1558.00,  1398.00,  1422.78,  62.5555,     401,  1860.00,  1979.00,  1910.00,  1913.04,  39.0329,

Measurements:
Wavelength, Data Amplitude
1350, 1390.00
1351, 1391.00
1352, 1389.00
1353, 1387.00
1354, 1388.00
1355, 1387.00
1356, 1387.00
1357, 1386.00
1358, 1387.00
1359, 1385.00
1360, 1385.00
1361, 1383.00
1362, 1383.00
1363, 1381.00
1364, 1381.00
1365, 1379.00
1366, 1379.00
1367, 1378.00
1368, 1378.00
1369, 1375.00
1370, 1375.00
1371, 1374.00
1372, 1374.00
1373, 1372.00
1374, 1371.00
1375, 1371.00
1376, 1370.00
1377, 1369.00
1378, 1368.00
1379, 1367.00
1380, 1367.00
1381, 1367.00
1382, 1366.00
1383, 1365.00
1384, 1364.00
1385, 1363.00
1386, 1363.00
1387, 1363.00
1388, 1363.00
1389, 1362.00
1390, 1363.00
1391, 1362.00
1392, 1361.00
1393, 1361.00
1394, 1360.00
1395, 1361.00
1396, 1360.00
1397, 1360.00
1398, 1360.00
1399, 1359.00
1400, 1359.00
1401, 1360.00
1402, 1359.00
1403, 1359.00
1404, 1358.00
1405, 1358.00
1406, 1358.00
1407, 1358.00
1408, 1357.00
1409, 1358.00
1410, 1358.00
1411, 1358.00
1412, 1358.00
1413, 1357.00
1414, 1358.00
1415, 1356.00
1416, 1357.00
1417, 1357.00
1418, 1358.00
1419, 1357.00
1420, 1357.00
1421, 1357.00
1422, 1357.00
1423, 1357.00
1424, 1358.00
1425, 1357.00
1426, 1358.00
1427, 1358.00
1428, 1358.00
1429, 1358.00
1430, 1359.00
1431, 1359.00
1432, 1359.00
1433, 1359.00
1434, 1359.00
1435, 1359.00
1436, 1359.00
1437, 1361.00
1438, 1360.00
1439, 1360.00
1440, 1361.00
1441, 1361.00
1442, 1362.00
1443, 1362.00
1444, 1363.00
1445, 1363.00
1446, 1364.00
1447, 1363.00
1448, 1363.00
1449, 1364.00
1450, 1365.00
1451, 1365.00
1452, 1366.00
1453, 1366.00
1454, 1367.00
1455, 1367.00
1456, 1367.00
1457, 1367.00
1458, 1367.00
1459, 1368.00
1460, 1368.00
1461, 1370.00
1462, 1371.00
1463, 1370.00
1464, 1372.00
1465, 1372.00
1466, 1372.00
1467, 1373.00
1468, 1373.00
1469, 1373.00
1470, 1376.00
1471, 1376.00
1472, 1376.00
1473, 1377.00
1474, 1378.00
1475, 1379.00
1476, 1380.00
1477, 1380.00
1478, 1380.00
1479, 1382.00
1480, 1381.00
1481, 1383.00
1482, 1384.00
1483, 1385.00
1484, 1385.00
1485, 1386.00
1486, 1387.00
1487, 1387.00
1488, 1389.00
1489, 1390.00
1490, 1390.00
1491, 1391.00
1492, 1392.00
1493, 1392.00
1494, 1394.00
1495, 1395.00
1496, 1396.00
1497, 1395.00
1498, 1398.00
1499, 1397.00
1500, 1398.00
1501, 1400.00
1502, 1399.00
1503, 1402.00
1504, 1401.00
1505, 1402.00
1506, 1404.00
1507, 1405.00
1508, 1404.00
1509, 1407.00
1510, 1407.00
1511, 1408.00
1512, 1408.00
1513, 1410.00
1514, 1411.00
1515, 1413.00
1516, 1414.00
1517, 1413.00
1518, 1415.00
1519, 1416.00
1520, 1417.00
1521, 1417.00
1522, 1418.00
1523, 1419.00
1524, 1421.00
1525, 1421.00
1526, 1422.00
1527, 1423.00
1528, 1425.00
1529, 1425.00
1530, 1427.00
1531, 1427.00
1532, 1429.00
1533, 1430.00
1534, 1430.00
1535, 1431.00
1536, 1433.00
1537, 1435.00
1538, 1434.00
1539, 1436.00
1540, 1436.00
1541, 1437.00
1542, 1438.00
1543, 1440.00
1544, 1441.00
1545, 1441.00
1546, 1443.00
1547, 1444.00
1548, 1445.00
1549, 1446.00
1550, 1447.00
1551, 1447.00
1552, 1448.00
1553, 1450.00
1554, 1451.00
1555, 1453.00
1556, 1453.00
1557, 1454.00
1558, 1456.00
1559, 1456.00
1560, 1457.00
1561, 1458.00
1562, 1459.00
1563, 1461.00
1564, 1462.00
1565, 1463.00
1566, 1465.00
1567, 1466.00
1568, 1467.00
1569, 1468.00
1570, 1468.00
1571, 1470.00
1572, 1471.00
1573, 1471.00
1574, 1473.00
1575, 1475.00
1576, 1475.00
1577, 1476.00
1578, 1477.00
1579, 1479.00
1580, 1478.00
1581, 1480.00
1582, 1481.00
1583, 1482.00
1584, 1484.00
1585, 1483.00
1586, 1485.00
1587, 1486.00
1588, 1487.00
1589, 1489.00
1590, 1489.00
1591, 1490.00
1592, 1491.00
1593, 1492.00
1594, 1493.00
1595, 1494.00
1596, 1496.00
1597, 1496.00
1598, 1497.00
1599, 1498.00
1600, 1499.00
1601, 1501.00
1602, 1501.00
1603, 1503.00
1604, 1503.00
1605, 1505.00
1606, 1506.00
1607, 1507.00
1608, 1509.00
1609, 1509.00
1610, 1511.00
1611, 1512.00
1612, 1513.00
1613, 1515.00
1614, 1515.00
1615, 1517.00
1616, 1519.00
1617, 1519.00
1618, 1520.00
1619, 1522.00
1620, 1523.00
1621, 1525.00
1622, 1526.00
1623, 1527.00
1624, 1529.00
1625, 1531.00
1626, 1531.00
1627, 1532.00
1628, 1533.00
1629, 1535.00
1630, 1536.00
1631, 1538.00
1632, 1539.00
1633, 1539.00
1634, 1541.00
1635, 1542.00
1636, 1542.00
1637, 1545.00
1638, 1545.00
1639, 1546.00
1640, 1548.00
1641, 1548.00
1642, 1550.00
1643, 1550.00
1644, 1551.00
1645, 1553.00
1646, 1553.00
1647, 1554.00
1648, 1556.00
1649, 1556.00
1650, 1558.00

1750, 1979.00
1751, 1976.00
1752, 1977.00
1753, 1977.00
1754, 1978.00
1755, 1979.00
1756, 1976.00
1757, 1976.00
1758, 1976.00
1759, 1978.00
1760, 1977.00
1761, 1977.00
1762, 1978.00
1763, 1977.00
1764, 1977.00
1765, 1976.00
1766, 1976.00
1767, 1975.00
1768, 1976.00
1769, 1975.00
1770, 1976.00
1771, 1975.00
1772, 1975.00
1773, 1974.00
1774, 1974.00
1775, 1974.00
1776, 1973.00
1777, 1972.00
1778, 1973.00
1779, 1973.00
1780, 1972.00
1781, 1973.00
1782, 1971.00
1783, 1972.00
1784, 1972.00
1785, 1971.00
1786, 1970.00
1787, 1969.00
1788, 1969.00
1789, 1968.00
1790, 1971.00
1791, 1967.00
1792, 1969.00
1793, 1968.00
1794, 1968.00
1795, 1967.00
1796, 1965.00
1797, 1967.00
1798, 1965.00
1799, 1965.00
1800, 1963.00
1801, 1965.00
1802, 1966.00
1803, 1964.00
1804, 1964.00
1805, 1963.00
1806, 1963.00
1807, 1961.00
1808, 1962.00
1809, 1961.00
1810, 1960.00
1811, 1959.00
1812, 1961.00
1813, 1957.00
1814, 1960.00
1815, 1957.00
1816, 1958.00
1817, 1958.00
1818, 1956.00
1819, 1958.00
1820, 1957.00
1821, 1954.00
1822, 1953.00
1823, 1953.00
1824, 1951.00
1825, 1951.00
1826, 1950.00
1827, 1950.00
1828, 1946.00
1829, 1947.00
1830, 1947.00
1831, 1946.00
1832, 1944.00
1833, 1941.00
1834, 1940.00
1835, 1939.00
1836, 1939.00
1837, 1937.00
1838, 1937.00
1839, 1934.00
1840, 1932.00
1841, 1931.00
1842, 1931.00
1843, 1928.00
1844, 1927.00
1845, 1923.00
1846, 1924.00
1847, 1921.00
1848, 1919.00
1849, 1916.00
1850, 1915.00
1851, 1913.00
1852, 1911.00
1853, 1908.00
1854, 1908.00
1855, 1905.00
1856, 1903.00
1857, 1902.00
1858, 1898.00
1859, 1899.00
1860, 1896.00
1861, 1893.00
1862, 1893.00
1863, 1891.00
1864, 1888.00
1865, 1887.00
1866, 1889.00
1867, 1885.00
1868, 1885.00
1869, 1883.00
1870, 1882.00
1871, 1882.00
1872, 1880.00
1873, 1879.00
1874, 1879.00
1875, 1878.00
1876, 1876.00
1877, 1875.00
1878, 1874.00
1879, 1875.00
1880, 1875.00
1881, 1875.00
1882, 1873.00
1883, 1871.00
1884, 1871.00
1885, 1871.00
1886, 1870.00
1887, 1870.00
1888, 1869.00
1889, 1868.00
1890, 1869.00
1891, 1869.00
1892, 1867.00
1893, 1866.00
1894, 1866.00
1895, 1867.00
1896, 1867.00
1897, 1866.00
1898, 1865.00
1899, 1865.00
1900, 1865.00
1901, 1865.00
1902, 1863.00
1903, 1865.00
1904, 1863.00
1905, 1864.00
1906, 1862.00
1907, 1864.00
1908, 1862.00
1909, 1864.00
1910, 1862.00
1911, 1863.00
1912, 1863.00
1913, 1862.00
1914, 1862.00
1915, 1860.00
1916, 1863.00
1917, 1860.00
1918, 1861.00
1919, 1862.00
1920, 1861.00
1921, 1861.00
1922, 1861.00
1923, 1863.00
1924, 1861.00
1925, 1861.00
1926, 1860.00
1927, 1862.00
1928, 1860.00
1929, 1862.00
1930, 1862.00
1931, 1862.00
1932, 1861.00
1933, 1863.00
1934, 1860.00
1935, 1862.00
1936, 1861.00
1937, 1861.00
1938, 1861.00
1939, 1863.00
1940, 1861.00
1941, 1861.00
1942, 1863.00
1943, 1863.00
1944, 1863.00
1945, 1862.00
1946, 1864.00
1947, 1864.00
1948, 1861.00
1949, 1864.00
1950, 1865.00
1951, 1864.00
1952, 1865.00
1953, 1865.00
1954, 1865.00
1955, 1865.00
1956, 1866.00
1957, 1865.00
1958, 1866.00
1959, 1868.00
1960, 1866.00
1961, 1867.00
1962, 1868.00
1963, 1867.00
1964, 1870.00
1965, 1868.00
1966, 1869.00
1967, 1869.00
1968, 1871.00
1969, 1869.00
1970, 1872.00
1971, 1870.00
1972, 1871.00
1973, 1873.00
1974, 1873.00
1975, 1873.00
1976, 1873.00
1977, 1873.00
1978, 1874.00
1979, 1874.00
1980, 1876.00
1981, 1875.00
1982, 1876.00
1983, 1875.00
1984, 1876.00
1985, 1878.00
1986, 1877.00
1987, 1878.00
1988, 1877.00
1989, 1879.00
1990, 1879.00
1991, 1881.00
1992, 1879.00
1993, 1879.00
1994, 1881.00
1995, 1882.00
1996, 1881.00
1997, 1881.00
1998, 1884.00
1999, 1881.00
2000, 1883.00
2001, 1884.00
2002, 1883.00
2003, 1885.00
2004, 1886.00
2005, 1885.00
2006, 1886.00
2007, 1886.00
2008, 1887.00
2009, 1888.00
2010, 1889.00
2011, 1886.00
2012, 1887.00
2013, 1889.00
2014, 1890.00
2015, 1890.00
2016, 1890.00
2017, 1893.00
2018, 1892.00
2019, 1891.00
2020, 1893.00
2021, 1893.00
2022, 1894.00
2023, 1893.00
2024, 1895.00
2025, 1894.00
2026, 1895.00
2027, 1895.00
2028, 1896.00
2029, 1897.00
2030, 1898.00
2031, 1896.00
2032, 1897.00
2033, 1899.00
2034, 1902.00
2035, 1901.00
2036, 1900.00
2037, 1901.00
2038, 1901.00
2039, 1899.00
2040, 1903.00
2041, 1901.00
2042, 1905.00
2043, 1905.00
2044, 1905.00
2045, 1905.00
2046, 1904.00
2047, 1905.00
2048, 1906.00
2049, 1908.00
2050, 1909.00
2051, 1909.00
2052, 1909.00
2053, 1911.00
2054, 1911.00
2055, 1910.00
2056, 1914.00
2057, 1912.00
2058, 1913.00
2059, 1914.00
2060, 1915.00
2061, 1916.00
2062, 1917.00
2063, 1919.00
2064, 1917.00
2065, 1919.00
2066, 1919.00
2067, 1919.00
2068, 1922.00
2069, 1920.00
2070, 1923.00
2071, 1921.00
2072, 1923.00
2073, 1925.00
2074, 1926.00
2075, 1924.00
2076, 1926.00
2077, 1928.00
2078, 1927.00
2079, 1928.00
2080, 1928.00
2081, 1927.00
2082, 1928.00
2083, 1929.00
2084, 1930.00
2085, 1932.00
2086, 1931.00
2087, 1933.00
2088, 1932.00
2089, 1933.00
2090, 1934.00
2091, 1935.00
2092, 1935.00
2093, 1934.00
2094, 1937.00
2095, 1937.00
2096, 1938.00
2097, 1938.00
2098, 1938.00
2099, 1938.00
2100, 1939.00
2101, 1939.00
2102, 1937.00
2103, 1939.00
2104, 1942.00
2105, 1940.00
2106, 1941.00
2107, 1942.00
2108, 1942.00
2109, 1941.00
2110, 1943.00
2111, 1944.00
2112, 1944.00
2113, 1942.00
2114, 1943.00
2115, 1945.00
2116, 1943.00
2117, 1945.00
2118, 1946.00
2119, 1944.00
2120, 1945.00
2121, 1945.00
2122, 1946.00
2123, 1947.00
2124, 1946.00
2125, 1947.00
2126, 1948.00
2127, 1947.00
2128, 1948.00
2129, 1949.00
2130, 1949.00
2131, 1947.00
2132, 1948.00
2133, 1949.00
2134, 1949.00
2135, 1949.00
2136, 1952.00
2137, 1951.00
2138, 1952.00
2139, 1948.00
2140, 1953.00
2141, 1950.00
2142, 1951.00
2143, 1952.00
2144, 1953.00
2145, 1953.00
2146, 1952.00
2147, 1954.00
2148, 1954.00
2149, 1952.00
2150, 1954.00
