FW version: 24
Log Version: 3.0.3

General Info:
       Command/Macro Performed,            Timestamp,             Device ID, COM Port, UART/I2C, Test Name, Host Major, Host Minor, Host Revision, Host Git Commit
            Single_measurement,  2023_07_18_10_54_32,       Insight2_F4_xxx,    USB-C,      USB,          ,          0,          1,             1,      4031237645

Show Spectrometer Status:
l0_version, f4_version, battery_perc, battery_mVolt, accelerometer_temp, accelerometer_x, accelerometer_y, accelerometer_z, compass_temp, compass_x, compass_y, compass_z, lamp_0, lamp_1, gain_0, gain_1
        17,         24,           72,          1984,               6032,           65276,            1068,           18880,            0,     65532,     65279,     18914,   2866,   2866,      1,      1

Temperature Statistic Info:
NTC AVG [°C], NTC2 AVG [°C]
      38.128,        37.812

Statistic Info:
M1:  num,      min,      max,   median,      AVG,      STD,M2:  num,      min,      max,   median,      AVG,      STD
     301,  1939.00,  2240.00,  2000.00,  2037.56,  93.7462,     401,  2589.00,  2770.00,  2664.00,  2669.11,  59.4142,

Measurements:
Wavelength, Data Amplitude
1350, 1993.00
1351, 1992.00
1352, 1990.00
1353, 1990.00
1354, 1988.00
1355, 1987.00
1356, 1987.00
1357, 1985.00
1358, 1985.00
1359, 1983.00
1360, 1982.00
1361, 1981.00
1362, 1980.00
1363, 1978.00
1364, 1977.00
1365, 1976.00
1366, 1974.00
1367, 1973.00
1368, 1972.00
1369, 1970.00
1370, 1969.00
1371, 1966.00
1372, 1965.00
1373, 1963.00
1374, 1963.00
1375, 1962.00
1376, 1960.00
1377, 1959.00
1378, 1957.00
1379, 1957.00
1380, 1956.00
1381, 1954.00
1382, 1954.00
1383, 1952.00
1384, 1952.00
1385, 1951.00
1386, 1951.00
1387, 1949.00
1388, 1948.00
1389, 1948.00
1390, 1947.00
1391, 1947.00
1392, 1945.00
1393, 1946.00
1394, 1945.00
1395, 1944.00
1396, 1945.00
1397, 1945.00
1398, 1944.00
1399, 1943.00
1400, 1942.00
1401, 1943.00
1402, 1943.00
1403, 1941.00
1404, 1941.00
1405, 1942.00
1406, 1940.00
1407, 1942.00
1408, 1940.00
1409, 1940.00
1410, 1940.00
1411, 1939.00
1412, 1940.00
1413, 1939.00
1414, 1940.00
1415, 1940.00
1416, 1939.00
1417, 1939.00
1418, 1939.00
1419, 1940.00
1420, 1941.00
1421, 1940.00
1422, 1940.00
1423, 1941.00
1424, 1940.00
1425, 1939.00
1426, 1940.00
1427, 1940.00
1428, 1940.00
1429, 1942.00
1430, 1941.00
1431, 1940.00
1432, 1941.00
1433, 1942.00
1434, 1943.00
1435, 1943.00
1436, 1943.00
1437, 1944.00
1438, 1944.00
1439, 1944.00
1440, 1944.00
1441, 1945.00
1442, 1946.00
1443, 1945.00
1444, 1946.00
1445, 1947.00
1446, 1946.00
1447, 1947.00
1448, 1949.00
1449, 1949.00
1450, 1949.00
1451, 1949.00
1452, 1950.00
1453, 1952.00
1454, 1952.00
1455, 1953.00
1456, 1953.00
1457, 1955.00
1458, 1954.00
1459, 1956.00
1460, 1957.00
1461, 1958.00
1462, 1958.00
1463, 1959.00
1464, 1960.00
1465, 1961.00
1466, 1961.00
1467, 1962.00
1468, 1964.00
1469, 1964.00
1470, 1965.00
1471, 1967.00
1472, 1967.00
1473, 1969.00
1474, 1970.00
1475, 1970.00
1476, 1972.00
1477, 1972.00
1478, 1974.00
1479, 1974.00
1480, 1977.00
1481, 1978.00
1482, 1978.00
1483, 1979.00
1484, 1981.00
1485, 1981.00
1486, 1983.00
1487, 1983.00
1488, 1985.00
1489, 1986.00
1490, 1988.00
1491, 1989.00
1492, 1990.00
1493, 1991.00
1494, 1993.00
1495, 1995.00
1496, 1994.00
1497, 1996.00
1498, 1998.00
1499, 1998.00
1500, 2000.00
1501, 2000.00
1502, 2003.00
1503, 2003.00
1504, 2006.00
1505, 2007.00
1506, 2007.00
1507, 2008.00
1508, 2009.00
1509, 2011.00
1510, 2012.00
1511, 2013.00
1512, 2016.00
1513, 2017.00
1514, 2019.00
1515, 2019.00
1516, 2021.00
1517, 2022.00
1518, 2023.00
1519, 2026.00
1520, 2027.00
1521, 2028.00
1522, 2030.00
1523, 2030.00
1524, 2033.00
1525, 2033.00
1526, 2035.00
1527, 2037.00
1528, 2038.00
1529, 2040.00
1530, 2041.00
1531, 2042.00
1532, 2043.00
1533, 2046.00
1534, 2047.00
1535, 2049.00
1536, 2051.00
1537, 2053.00
1538, 2053.00
1539, 2056.00
1540, 2057.00
1541, 2058.00
1542, 2060.00
1543, 2062.00
1544, 2064.00
1545, 2065.00
1546, 2065.00
1547, 2068.00
1548, 2070.00
1549, 2071.00
1550, 2073.00
1551, 2074.00
1552, 2076.00
1553, 2077.00
1554, 2080.00
1555, 2081.00
1556, 2083.00
1557, 2084.00
1558, 2086.00
1559, 2088.00
1560, 2089.00
1561, 2091.00
1562, 2092.00
1563, 2094.00
1564, 2096.00
1565, 2098.00
1566, 2099.00
1567, 2100.00
1568, 2103.00
1569, 2106.00
1570, 2106.00
1571, 2109.00
1572, 2110.00
1573, 2112.00
1574, 2114.00
1575, 2115.00
1576, 2116.00
1577, 2119.00
1578, 2119.00
1579, 2121.00
1580, 2122.00
1581, 2124.00
1582, 2125.00
1583, 2127.00
1584, 2129.00
1585, 2131.00
1586, 2131.00
1587, 2133.00
1588, 2135.00
1589, 2137.00
1590, 2137.00
1591, 2140.00
1592, 2141.00
1593, 2143.00
1594, 2143.00
1595, 2144.00
1596, 2146.00
1597, 2148.00
1598, 2149.00
1599, 2152.00
1600, 2152.00
1601, 2154.00
1602, 2158.00
1603, 2158.00
1604, 2159.00
1605, 2161.00
1606, 2162.00
1607, 2165.00
1608, 2167.00
1609, 2168.00
1610, 2170.00
1611, 2172.00
1612, 2173.00
1613, 2176.00
1614, 2178.00
1615, 2180.00
1616, 2181.00
1617, 2183.00
1618, 2185.00
1619, 2187.00
1620, 2189.00
1621, 2193.00
1622, 2192.00
1623, 2195.00
1624, 2196.00
1625, 2199.00
1626, 2200.00
1627, 2203.00
1628, 2204.00
1629, 2205.00
1630, 2208.00
1631, 2209.00
1632, 2210.00
1633, 2212.00
1634, 2214.00
1635, 2217.00
1636, 2218.00
1637, 2220.00
1638, 2220.00
1639, 2223.00
1640, 2223.00
1641, 2225.00
1642, 2227.00
1643, 2228.00
1644, 2230.00
1645, 2233.00
1646, 2233.00
1647, 2235.00
1648, 2236.00
1649, 2238.00
1650, 2240.00

1750, 2768.00
1751, 2770.00
1752, 2770.00
1753, 2770.00
1754, 2769.00
1755, 2770.00
1756, 2769.00
1757, 2770.00
1758, 2770.00
1759, 2769.00
1760, 2768.00
1761, 2768.00
1762, 2769.00
1763, 2769.00
1764, 2770.00
1765, 2769.00
1766, 2768.00
1767, 2768.00
1768, 2768.00
1769, 2767.00
1770, 2767.00
1771, 2765.00
1772, 2767.00
1773, 2767.00
1774, 2765.00
1775, 2767.00
1776, 2764.00
1777, 2763.00
1778, 2763.00
1779, 2762.00
1780, 2762.00
1781, 2763.00
1782, 2760.00
1783, 2760.00
1784, 2761.00
1785, 2759.00
1786, 2759.00
1787, 2760.00
1788, 2758.00
1789, 2757.00
1790, 2756.00
1791, 2755.00
1792, 2756.00
1793, 2753.00
1794, 2754.00
1795, 2755.00
1796, 2753.00
1797, 2752.00
1798, 2752.00
1799, 2749.00
1800, 2750.00
1801, 2749.00
1802, 2748.00
1803, 2750.00
1804, 2750.00
1805, 2747.00
1806, 2747.00
1807, 2745.00
1808, 2746.00
1809, 2746.00
1810, 2746.00
1811, 2745.00
1812, 2743.00
1813, 2741.00
1814, 2741.00
1815, 2742.00
1816, 2742.00
1817, 2739.00
1818, 2738.00
1819, 2738.00
1820, 2738.00
1821, 2736.00
1822, 2734.00
1823, 2732.00
1824, 2731.00
1825, 2732.00
1826, 2730.00
1827, 2728.00
1828, 2724.00
1829, 2725.00
1830, 2722.00
1831, 2722.00
1832, 2720.00
1833, 2717.00
1834, 2715.00
1835, 2713.00
1836, 2711.00
1837, 2708.00
1838, 2706.00
1839, 2703.00
1840, 2701.00
1841, 2698.00
1842, 2696.00
1843, 2693.00
1844, 2689.00
1845, 2687.00
1846, 2685.00
1847, 2682.00
1848, 2681.00
1849, 2677.00
1850, 2674.00
1851, 2671.00
1852, 2668.00
1853, 2664.00
1854, 2662.00
1855, 2660.00
1856, 2658.00
1857, 2655.00
1858, 2651.00
1859, 2647.00
1860, 2647.00
1861, 2644.00
1862, 2642.00
1863, 2641.00
1864, 2635.00
1865, 2635.00
1866, 2633.00
1867, 2631.00
1868, 2629.00
1869, 2626.00
1870, 2624.00
1871, 2624.00
1872, 2621.00
1873, 2619.00
1874, 2619.00
1875, 2618.00
1876, 2615.00
1877, 2613.00
1878, 2614.00
1879, 2612.00
1880, 2612.00
1881, 2610.00
1882, 2610.00
1883, 2608.00
1884, 2608.00
1885, 2608.00
1886, 2605.00
1887, 2605.00
1888, 2604.00
1889, 2602.00
1890, 2602.00
1891, 2603.00
1892, 2602.00
1893, 2599.00
1894, 2600.00
1895, 2597.00
1896, 2601.00
1897, 2598.00
1898, 2597.00
1899, 2596.00
1900, 2595.00
1901, 2596.00
1902, 2595.00
1903, 2597.00
1904, 2594.00
1905, 2595.00
1906, 2595.00
1907, 2594.00
1908, 2593.00
1909, 2592.00
1910, 2595.00
1911, 2593.00
1912, 2593.00
1913, 2594.00
1914, 2593.00
1915, 2595.00
1916, 2594.00
1917, 2592.00
1918, 2593.00
1919, 2589.00
1920, 2593.00
1921, 2592.00
1922, 2592.00
1923, 2591.00
1924, 2592.00
1925, 2590.00
1926, 2593.00
1927, 2592.00
1928, 2590.00
1929, 2590.00
1930, 2593.00
1931, 2591.00
1932, 2589.00
1933, 2591.00
1934, 2593.00
1935, 2590.00
1936, 2592.00
1937, 2593.00
1938, 2592.00
1939, 2592.00
1940, 2592.00
1941, 2593.00
1942, 2593.00
1943, 2592.00
1944, 2593.00
1945, 2593.00
1946, 2594.00
1947, 2591.00
1948, 2596.00
1949, 2593.00
1950, 2595.00
1951, 2596.00
1952, 2595.00
1953, 2597.00
1954, 2596.00
1955, 2595.00
1956, 2597.00
1957, 2597.00
1958, 2599.00
1959, 2599.00
1960, 2600.00
1961, 2600.00
1962, 2600.00
1963, 2602.00
1964, 2603.00
1965, 2603.00
1966, 2601.00
1967, 2603.00
1968, 2604.00
1969, 2604.00
1970, 2604.00
1971, 2604.00
1972, 2607.00
1973, 2607.00
1974, 2607.00
1975, 2607.00
1976, 2607.00
1977, 2608.00
1978, 2610.00
1979, 2611.00
1980, 2610.00
1981, 2612.00
1982, 2613.00
1983, 2611.00
1984, 2614.00
1985, 2612.00
1986, 2614.00
1987, 2616.00
1988, 2616.00
1989, 2615.00
1990, 2617.00
1991, 2618.00
1992, 2618.00
1993, 2619.00
1994, 2618.00
1995, 2620.00
1996, 2620.00
1997, 2619.00
1998, 2623.00
1999, 2623.00
2000, 2624.00
2001, 2624.00
2002, 2624.00
2003, 2624.00
2004, 2626.00
2005, 2627.00
2006, 2626.00
2007, 2629.00
2008, 2627.00
2009, 2629.00
2010, 2631.00
2011, 2632.00
2012, 2632.00
2013, 2633.00
2014, 2630.00
2015, 2632.00
2016, 2635.00
2017, 2635.00
2018, 2635.00
2019, 2635.00
2020, 2636.00
2021, 2636.00
2022, 2639.00
2023, 2638.00
2024, 2638.00
2025, 2637.00
2026, 2640.00
2027, 2643.00
2028, 2642.00
2029, 2645.00
2030, 2642.00
2031, 2644.00
2032, 2646.00
2033, 2645.00
2034, 2646.00
2035, 2647.00
2036, 2649.00
2037, 2649.00
2038, 2650.00
2039, 2649.00
2040, 2651.00
2041, 2653.00
2042, 2654.00
2043, 2652.00
2044, 2655.00
2045, 2657.00
2046, 2656.00
2047, 2658.00
2048, 2659.00
2049, 2658.00
2050, 2659.00
2051, 2659.00
2052, 2663.00
2053, 2665.00
2054, 2664.00
2055, 2665.00
2056, 2669.00
2057, 2667.00
2058, 2667.00
2059, 2670.00
2060, 2669.00
2061, 2671.00
2062, 2673.00
2063, 2673.00
2064, 2672.00
2065, 2676.00
2066, 2675.00
2067, 2676.00
2068, 2679.00
2069, 2679.00
2070, 2680.00
2071, 2679.00
2072, 2683.00
2073, 2681.00
2074, 2684.00
2075, 2686.00
2076, 2685.00
2077, 2685.00
2078, 2687.00
2079, 2688.00
2080, 2689.00
2081, 2688.00
2082, 2692.00
2083, 2691.00
2084, 2692.00
2085, 2694.00
2086, 2694.00
2087, 2696.00
2088, 2695.00
2089, 2696.00
2090, 2699.00
2091, 2698.00
2092, 2698.00
2093, 2699.00
2094, 2701.00
2095, 2701.00
2096, 2703.00
2097, 2702.00
2098, 2703.00
2099, 2704.00
2100, 2705.00
2101, 2704.00
2102, 2705.00
2103, 2705.00
2104, 2706.00
2105, 2707.00
2106, 2706.00
2107, 2707.00
2108, 2709.00
2109, 2710.00
2110, 2709.00
2111, 2711.00
2112, 2709.00
2113, 2711.00
2114, 2711.00
2115, 2710.00
2116, 2712.00
2117, 2714.00
2118, 2712.00
2119, 2714.00
2120, 2715.00
2121, 2713.00
2122, 2717.00
2123, 2716.00
2124, 2716.00
2125, 2717.00
2126, 2717.00
2127, 2717.00
2128, 2718.00
2129, 2719.00
2130, 2718.00
2131, 2719.00
2132, 2719.00
2133, 2720.00
2134, 2719.00
2135, 2721.00
2136, 2721.00
2137, 2721.00
2138, 2723.00
2139, 2721.00
2140, 2723.00
2141, 2724.00
2142, 2722.00
2143, 2725.00
2144, 2725.00
2145, 2724.00
2146, 2726.00
2147, 2725.00
2148, 2724.00
2149, 2724.00
2150, 2723.00
