FW version: 24
Log Version: 3.0.3

General Info:
       Command/Macro Performed,            Timestamp,             Device ID, COM Port, UART/I2C, Test Name, Host Major, Host Minor, Host Revision, Host Git Commit
            Single_measurement,  2023_07_18_10_53_54,       Insight2_F4_xxx,    USB-C,      USB,          ,          0,          1,             1,      4031237645

Show Spectrometer Status:
l0_version, f4_version, battery_perc, battery_mVolt, accelerometer_temp, accelerometer_x, accelerometer_y, accelerometer_z, compass_temp, compass_x, compass_y, compass_z, lamp_0, lamp_1, gain_0, gain_1
        17,         24,           72,          1984,               6000,           65304,             996,           18824,            0,     65436,     65534,     18925,   2047,   2047,      1,      1

Temperature Statistic Info:
NTC AVG [°C], NTC2 AVG [°C]
      37.783,        37.497

Statistic Info:
M1:  num,      min,      max,   median,      AVG,      STD,M2:  num,      min,      max,   median,      AVG,      STD
     301,   993.00,  1156.00,  1028.00,  1047.81,  52.1748,     401,  1454.00,  1556.00,  1499.00,  1500.64,  34.0575,

Measurements:
Wavelength, Data Amplitude
1350, 1017.00
1351, 1017.00
1352, 1017.00
1353, 1017.00
1354, 1016.00
1355, 1015.00
1356, 1016.00
1357, 1014.00
1358, 1014.00
1359, 1014.00
1360, 1013.00
1361, 1012.00
1362, 1012.00
1363, 1011.00
1364, 1010.00
1365, 1010.00
1366, 1009.00
1367, 1009.00
1368, 1007.00
1369, 1006.00
1370, 1007.00
1371, 1006.00
1372, 1005.00
1373, 1004.00
1374, 1003.00
1375, 1004.00
1376, 1001.00
1377, 1001.00
1378, 1002.00
1379, 1001.00
1380, 1000.00
1381, 1000.00
1382, 999.00
1383, 999.00
1384, 999.00
1385, 997.00
1386, 998.00
1387, 998.00
1388, 997.00
1389, 997.00
1390, 997.00
1391, 996.00
1392, 996.00
1393, 995.00
1394, 995.00
1395, 994.00
1396, 994.00
1397, 995.00
1398, 996.00
1399, 994.00
1400, 994.00
1401, 995.00
1402, 994.00
1403, 993.00
1404, 994.00
1405, 994.00
1406, 994.00
1407, 994.00
1408, 994.00
1409, 994.00
1410, 993.00
1411, 993.00
1412, 993.00
1413, 993.00
1414, 994.00
1415, 993.00
1416, 993.00
1417, 993.00
1418, 994.00
1419, 993.00
1420, 993.00
1421, 993.00
1422, 993.00
1423, 993.00
1424, 994.00
1425, 994.00
1426, 994.00
1427, 994.00
1428, 994.00
1429, 996.00
1430, 995.00
1431, 995.00
1432, 995.00
1433, 995.00
1434, 995.00
1435, 995.00
1436, 995.00
1437, 996.00
1438, 996.00
1439, 996.00
1440, 995.00
1441, 996.00
1442, 997.00
1443, 997.00
1444, 997.00
1445, 998.00
1446, 998.00
1447, 998.00
1448, 999.00
1449, 999.00
1450, 999.00
1451, 999.00
1452, 1001.00
1453, 1001.00
1454, 1001.00
1455, 1001.00
1456, 1001.00
1457, 1002.00
1458, 1002.00
1459, 1003.00
1460, 1003.00
1461, 1005.00
1462, 1004.00
1463, 1004.00
1464, 1005.00
1465, 1006.00
1466, 1006.00
1467, 1006.00
1468, 1007.00
1469, 1007.00
1470, 1009.00
1471, 1009.00
1472, 1009.00
1473, 1010.00
1474, 1010.00
1475, 1011.00
1476, 1012.00
1477, 1012.00
1478, 1013.00
1479, 1013.00
1480, 1015.00
1481, 1015.00
1482, 1016.00
1483, 1016.00
1484, 1017.00
1485, 1017.00
1486, 1018.00
1487, 1019.00
1488, 1020.00
1489, 1020.00
1490, 1021.00
1491, 1021.00
1492, 1022.00
1493, 1024.00
1494, 1024.00
1495, 1025.00
1496, 1026.00
1497, 1026.00
1498, 1027.00
1499, 1027.00
1500, 1028.00
1501, 1029.00
1502, 1030.00
1503, 1031.00
1504, 1030.00
1505, 1031.00
1506, 1033.00
1507, 1033.00
1508, 1034.00
1509, 1034.00
1510, 1035.00
1511, 1037.00
1512, 1038.00
1513, 1038.00
1514, 1039.00
1515, 1040.00
1516, 1041.00
1517, 1041.00
1518, 1043.00
1519, 1042.00
1520, 1043.00
1521, 1044.00
1522, 1045.00
1523, 1046.00
1524, 1047.00
1525, 1048.00
1526, 1049.00
1527, 1049.00
1528, 1051.00
1529, 1051.00
1530, 1052.00
1531, 1053.00
1532, 1054.00
1533, 1054.00
1534, 1056.00
1535, 1058.00
1536, 1058.00
1537, 1059.00
1538, 1059.00
1539, 1059.00
1540, 1061.00
1541, 1061.00
1542, 1063.00
1543, 1062.00
1544, 1064.00
1545, 1065.00
1546, 1066.00
1547, 1067.00
1548, 1067.00
1549, 1069.00
1550, 1069.00
1551, 1070.00
1552, 1071.00
1553, 1072.00
1554, 1073.00
1555, 1073.00
1556, 1074.00
1557, 1074.00
1558, 1076.00
1559, 1077.00
1560, 1078.00
1561, 1079.00
1562, 1079.00
1563, 1080.00
1564, 1082.00
1565, 1082.00
1566, 1083.00
1567, 1085.00
1568, 1086.00
1569, 1086.00
1570, 1087.00
1571, 1088.00
1572, 1090.00
1573, 1090.00
1574, 1091.00
1575, 1091.00
1576, 1093.00
1577, 1094.00
1578, 1094.00
1579, 1094.00
1580, 1096.00
1581, 1096.00
1582, 1098.00
1583, 1098.00
1584, 1099.00
1585, 1100.00
1586, 1101.00
1587, 1101.00
1588, 1102.00
1589, 1103.00
1590, 1104.00
1591, 1104.00
1592, 1106.00
1593, 1106.00
1594, 1108.00
1595, 1108.00
1596, 1109.00
1597, 1110.00
1598, 1110.00
1599, 1111.00
1600, 1112.00
1601, 1113.00
1602, 1114.00
1603, 1115.00
1604, 1116.00
1605, 1117.00
1606, 1118.00
1607, 1119.00
1608, 1120.00
1609, 1120.00
1610, 1121.00
1611, 1122.00
1612, 1123.00
1613, 1123.00
1614, 1126.00
1615, 1126.00
1616, 1127.00
1617, 1129.00
1618, 1129.00
1619, 1131.00
1620, 1132.00
1621, 1133.00
1622, 1134.00
1623, 1135.00
1624, 1136.00
1625, 1136.00
1626, 1138.00
1627, 1139.00
1628, 1140.00
1629, 1140.00
1630, 1142.00
1631, 1143.00
1632, 1143.00
1633, 1144.00
1634, 1146.00
1635, 1146.00
1636, 1147.00
1637, 1147.00
1638, 1148.00
1639, 1149.00
1640, 1150.00
1641, 1150.00
1642, 1151.00
1643, 1153.00
1644, 1152.00
1645, 1153.00
1646, 1154.00
1647, 1154.00
1648, 1155.00
1649, 1156.00
1650, 1156.00

1750, 1556.00
1751, 1555.00
1752, 1555.00
1753, 1556.00
1754, 1555.00
1755, 1555.00
1756, 1555.00
1757, 1553.00
1758, 1554.00
1759, 1554.00
1760, 1555.00
1761, 1555.00
1762, 1555.00
1763, 1554.00
1764, 1556.00
1765, 1554.00
1766, 1554.00
1767, 1553.00
1768, 1555.00
1769, 1553.00
1770, 1553.00
1771, 1555.00
1772, 1552.00
1773, 1553.00
1774, 1553.00
1775, 1552.00
1776, 1553.00
1777, 1554.00
1778, 1552.00
1779, 1552.00
1780, 1550.00
1781, 1553.00
1782, 1551.00
1783, 1550.00
1784, 1550.00
1785, 1551.00
1786, 1549.00
1787, 1550.00
1788, 1548.00
1789, 1549.00
1790, 1550.00
1791, 1548.00
1792, 1548.00
1793, 1546.00
1794, 1549.00
1795, 1546.00
1796, 1547.00
1797, 1545.00
1798, 1545.00
1799, 1545.00
1800, 1546.00
1801, 1544.00
1802, 1545.00
1803, 1544.00
1804, 1544.00
1805, 1544.00
1806, 1545.00
1807, 1543.00
1808, 1542.00
1809, 1545.00
1810, 1542.00
1811, 1544.00
1812, 1542.00
1813, 1542.00
1814, 1540.00
1815, 1541.00
1816, 1541.00
1817, 1540.00
1818, 1541.00
1819, 1539.00
1820, 1539.00
1821, 1538.00
1822, 1537.00
1823, 1537.00
1824, 1536.00
1825, 1534.00
1826, 1535.00
1827, 1533.00
1828, 1532.00
1829, 1532.00
1830, 1530.00
1831, 1529.00
1832, 1528.00
1833, 1527.00
1834, 1524.00
1835, 1525.00
1836, 1524.00
1837, 1522.00
1838, 1521.00
1839, 1520.00
1840, 1517.00
1841, 1516.00
1842, 1515.00
1843, 1513.00
1844, 1511.00
1845, 1510.00
1846, 1511.00
1847, 1507.00
1848, 1505.00
1849, 1504.00
1850, 1501.00
1851, 1501.00
1852, 1499.00
1853, 1499.00
1854, 1496.00
1855, 1494.00
1856, 1494.00
1857, 1492.00
1858, 1490.00
1859, 1487.00
1860, 1487.00
1861, 1484.00
1862, 1485.00
1863, 1482.00
1864, 1482.00
1865, 1480.00
1866, 1480.00
1867, 1477.00
1868, 1476.00
1869, 1476.00
1870, 1474.00
1871, 1474.00
1872, 1472.00
1873, 1471.00
1874, 1470.00
1875, 1469.00
1876, 1470.00
1877, 1470.00
1878, 1468.00
1879, 1466.00
1880, 1468.00
1881, 1466.00
1882, 1465.00
1883, 1465.00
1884, 1464.00
1885, 1464.00
1886, 1463.00
1887, 1464.00
1888, 1462.00
1889, 1461.00
1890, 1461.00
1891, 1463.00
1892, 1461.00
1893, 1460.00
1894, 1461.00
1895, 1460.00
1896, 1459.00
1897, 1459.00
1898, 1459.00
1899, 1459.00
1900, 1458.00
1901, 1458.00
1902, 1459.00
1903, 1458.00
1904, 1457.00
1905, 1457.00
1906, 1458.00
1907, 1456.00
1908, 1455.00
1909, 1457.00
1910, 1456.00
1911, 1457.00
1912, 1457.00
1913, 1454.00
1914, 1455.00
1915, 1457.00
1916, 1455.00
1917, 1456.00
1918, 1455.00
1919, 1457.00
1920, 1455.00
1921, 1456.00
1922, 1455.00
1923, 1455.00
1924, 1455.00
1925, 1457.00
1926, 1456.00
1927, 1454.00
1928, 1455.00
1929, 1454.00
1930, 1456.00
1931, 1456.00
1932, 1455.00
1933, 1457.00
1934, 1455.00
1935, 1456.00
1936, 1457.00
1937, 1456.00
1938, 1457.00
1939, 1455.00
1940, 1456.00
1941, 1457.00
1942, 1456.00
1943, 1457.00
1944, 1455.00
1945, 1456.00
1946, 1456.00
1947, 1455.00
1948, 1457.00
1949, 1459.00
1950, 1459.00
1951, 1457.00
1952, 1459.00
1953, 1458.00
1954, 1460.00
1955, 1458.00
1956, 1459.00
1957, 1459.00
1958, 1461.00
1959, 1459.00
1960, 1460.00
1961, 1460.00
1962, 1460.00
1963, 1461.00
1964, 1461.00
1965, 1462.00
1966, 1462.00
1967, 1462.00
1968, 1464.00
1969, 1463.00
1970, 1461.00
1971, 1463.00
1972, 1465.00
1973, 1463.00
1974, 1463.00
1975, 1466.00
1976, 1467.00
1977, 1465.00
1978, 1465.00
1979, 1467.00
1980, 1467.00
1981, 1466.00
1982, 1468.00
1983, 1469.00
1984, 1468.00
1985, 1468.00
1986, 1467.00
1987, 1471.00
1988, 1470.00
1989, 1471.00
1990, 1471.00
1991, 1471.00
1992, 1471.00
1993, 1472.00
1994, 1472.00
1995, 1472.00
1996, 1473.00
1997, 1473.00
1998, 1474.00
1999, 1474.00
2000, 1474.00
2001, 1475.00
2002, 1476.00
2003, 1476.00
2004, 1476.00
2005, 1476.00
2006, 1476.00
2007, 1475.00
2008, 1478.00
2009, 1477.00
2010, 1477.00
2011, 1480.00
2012, 1479.00
2013, 1479.00
2014, 1480.00
2015, 1480.00
2016, 1480.00
2017, 1480.00
2018, 1482.00
2019, 1482.00
2020, 1482.00
2021, 1484.00
2022, 1483.00
2023, 1483.00
2024, 1483.00
2025, 1485.00
2026, 1484.00
2027, 1486.00
2028, 1487.00
2029, 1486.00
2030, 1487.00
2031, 1486.00
2032, 1486.00
2033, 1487.00
2034, 1488.00
2035, 1487.00
2036, 1490.00
2037, 1491.00
2038, 1489.00
2039, 1490.00
2040, 1492.00
2041, 1491.00
2042, 1493.00
2043, 1494.00
2044, 1492.00
2045, 1493.00
2046, 1494.00
2047, 1495.00
2048, 1494.00
2049, 1497.00
2050, 1496.00
2051, 1498.00
2052, 1498.00
2053, 1497.00
2054, 1500.00
2055, 1500.00
2056, 1499.00
2057, 1500.00
2058, 1502.00
2059, 1503.00
2060, 1501.00
2061, 1503.00
2062, 1504.00
2063, 1506.00
2064, 1505.00
2065, 1505.00
2066, 1506.00
2067, 1509.00
2068, 1507.00
2069, 1508.00
2070, 1507.00
2071, 1509.00
2072, 1509.00
2073, 1511.00
2074, 1511.00
2075, 1512.00
2076, 1512.00
2077, 1513.00
2078, 1513.00
2079, 1514.00
2080, 1513.00
2081, 1515.00
2082, 1515.00
2083, 1514.00
2084, 1516.00
2085, 1518.00
2086, 1517.00
2087, 1518.00
2088, 1519.00
2089, 1519.00
2090, 1520.00
2091, 1520.00
2092, 1522.00
2093, 1520.00
2094, 1520.00
2095, 1521.00
2096, 1522.00
2097, 1521.00
2098, 1524.00
2099, 1521.00
2100, 1524.00
2101, 1524.00
2102, 1524.00
2103, 1526.00
2104, 1524.00
2105, 1525.00
2106, 1525.00
2107, 1525.00
2108, 1527.00
2109, 1527.00
2110, 1527.00
2111, 1527.00
2112, 1528.00
2113, 1528.00
2114, 1527.00
2115, 1529.00
2116, 1528.00
2117, 1530.00
2118, 1530.00
2119, 1531.00
2120, 1530.00
2121, 1530.00
2122, 1528.00
2123, 1532.00
2124, 1531.00
2125, 1531.00
2126, 1532.00
2127, 1530.00
2128, 1531.00
2129, 1531.00
2130, 1532.00
2131, 1534.00
2132, 1532.00
2133, 1533.00
2134, 1533.00
2135, 1534.00
2136, 1534.00
2137, 1534.00
2138, 1535.00
2139, 1535.00
2140, 1536.00
2141, 1535.00
2142, 1537.00
2143, 1536.00
2144, 1537.00
2145, 1535.00
2146, 1536.00
2147, 1535.00
2148, 1537.00
2149, 1537.00
2150, 1537.00
