FW version: 24
Log Version: 3.0.3

General Info:
       Command/Macro Performed,            Timestamp,             Device ID, COM Port, UART/I2C, Test Name, Host Major, Host Minor, Host Revision, Host Git Commit
            Single_measurement,  2023_06_29_12_01_34,       Insight2_F4_xxx,    USB-C,      USB,          ,          0,          1,             1,      4031237645

Show Spectrometer Status:
l0_version, f4_version, battery_perc, battery_mVolt, accelerometer_temp, accelerometer_x, accelerometer_y, accelerometer_z, compass_temp, compass_x, compass_y, compass_z, lamp_0, lamp_1, gain_0, gain_1
        17,         24,           95,          2078,               5856,             196,           65020,           18424,            0,     65519,     65534,     65535,   2047,   2047,      1,      1

Temperature Statistic Info:
NTC AVG [°C], NTC2 AVG [°C]
      37.812,        37.526

Statistic Info:
M1:  num,      min,      max,   median,      AVG,      STD,M2:  num,      min,      max,   median,      AVG,      STD
     301,   597.00,   672.00,   617.00,   623.43,  23.7807,     401,   952.00,   996.00,   976.00,   975.21,  15.0056,

Measurements:
Wavelength, Data Amplitude
1350, 605.00
1351, 604.00
1352, 604.00
1353, 604.00
1354, 604.00
1355, 603.00
1356, 604.00
1357, 603.00
1358, 603.00
1359, 603.00
1360, 603.00
1361, 602.00
1362, 602.00
1363, 603.00
1364, 602.00
1365, 602.00
1366, 601.00
1367, 602.00
1368, 601.00
1369, 601.00
1370, 602.00
1371, 601.00
1372, 601.00
1373, 600.00
1374, 600.00
1375, 600.00
1376, 600.00
1377, 599.00
1378, 599.00
1379, 599.00
1380, 599.00
1381, 599.00
1382, 599.00
1383, 599.00
1384, 598.00
1385, 598.00
1386, 598.00
1387, 598.00
1388, 599.00
1389, 598.00
1390, 598.00
1391, 598.00
1392, 599.00
1393, 599.00
1394, 598.00
1395, 598.00
1396, 598.00
1397, 598.00
1398, 598.00
1399, 597.00
1400, 598.00
1401, 597.00
1402, 598.00
1403, 597.00
1404, 599.00
1405, 597.00
1406, 597.00
1407, 598.00
1408, 598.00
1409, 599.00
1410, 598.00
1411, 598.00
1412, 598.00
1413, 598.00
1414, 598.00
1415, 598.00
1416, 598.00
1417, 599.00
1418, 598.00
1419, 598.00
1420, 598.00
1421, 599.00
1422, 599.00
1423, 597.00
1424, 598.00
1425, 599.00
1426, 598.00
1427, 599.00
1428, 598.00
1429, 599.00
1430, 599.00
1431, 599.00
1432, 600.00
1433, 600.00
1434, 600.00
1435, 600.00
1436, 601.00
1437, 600.00
1438, 600.00
1439, 600.00
1440, 601.00
1441, 600.00
1442, 600.00
1443, 601.00
1444, 601.00
1445, 601.00
1446, 601.00
1447, 601.00
1448, 603.00
1449, 602.00
1450, 602.00
1451, 602.00
1452, 602.00
1453, 603.00
1454, 603.00
1455, 603.00
1456, 604.00
1457, 604.00
1458, 604.00
1459, 604.00
1460, 604.00
1461, 604.00
1462, 605.00
1463, 605.00
1464, 605.00
1465, 606.00
1466, 606.00
1467, 607.00
1468, 606.00
1469, 607.00
1470, 607.00
1471, 607.00
1472, 607.00
1473, 608.00
1474, 609.00
1475, 608.00
1476, 609.00
1477, 609.00
1478, 609.00
1479, 610.00
1480, 610.00
1481, 610.00
1482, 611.00
1483, 612.00
1484, 611.00
1485, 613.00
1486, 612.00
1487, 613.00
1488, 612.00
1489, 613.00
1490, 614.00
1491, 614.00
1492, 614.00
1493, 615.00
1494, 615.00
1495, 615.00
1496, 615.00
1497, 616.00
1498, 616.00
1499, 617.00
1500, 617.00
1501, 618.00
1502, 618.00
1503, 618.00
1504, 618.00
1505, 619.00
1506, 619.00
1507, 620.00
1508, 620.00
1509, 621.00
1510, 621.00
1511, 621.00
1512, 621.00
1513, 622.00
1514, 622.00
1515, 623.00
1516, 623.00
1517, 624.00
1518, 624.00
1519, 624.00
1520, 624.00
1521, 625.00
1522, 625.00
1523, 626.00
1524, 626.00
1525, 626.00
1526, 627.00
1527, 628.00
1528, 627.00
1529, 629.00
1530, 628.00
1531, 628.00
1532, 629.00
1533, 629.00
1534, 629.00
1535, 630.00
1536, 629.00
1537, 631.00
1538, 631.00
1539, 631.00
1540, 632.00
1541, 632.00
1542, 632.00
1543, 633.00
1544, 632.00
1545, 633.00
1546, 633.00
1547, 633.00
1548, 634.00
1549, 635.00
1550, 635.00
1551, 636.00
1552, 636.00
1553, 636.00
1554, 636.00
1555, 637.00
1556, 636.00
1557, 637.00
1558, 637.00
1559, 638.00
1560, 638.00
1561, 639.00
1562, 640.00
1563, 639.00
1564, 640.00
1565, 640.00
1566, 640.00
1567, 641.00
1568, 641.00
1569, 641.00
1570, 641.00
1571, 643.00
1572, 642.00
1573, 643.00
1574, 643.00
1575, 643.00
1576, 644.00
1577, 643.00
1578, 644.00
1579, 645.00
1580, 645.00
1581, 645.00
1582, 646.00
1583, 646.00
1584, 647.00
1585, 647.00
1586, 646.00
1587, 649.00
1588, 648.00
1589, 648.00
1590, 648.00
1591, 649.00
1592, 649.00
1593, 649.00
1594, 649.00
1595, 650.00
1596, 651.00
1597, 651.00
1598, 650.00
1599, 653.00
1600, 652.00
1601, 653.00
1602, 653.00
1603, 653.00
1604, 653.00
1605, 653.00
1606, 654.00
1607, 655.00
1608, 656.00
1609, 656.00
1610, 656.00
1611, 657.00
1612, 656.00
1613, 658.00
1614, 658.00
1615, 658.00
1616, 659.00
1617, 659.00
1618, 659.00
1619, 660.00
1620, 661.00
1621, 661.00
1622, 662.00
1623, 662.00
1624, 662.00
1625, 663.00
1626, 663.00
1627, 664.00
1628, 663.00
1629, 665.00
1630, 665.00
1631, 666.00
1632, 665.00
1633, 666.00
1634, 666.00
1635, 666.00
1636, 667.00
1637, 667.00
1638, 668.00
1639, 668.00
1640, 669.00
1641, 670.00
1642, 669.00
1643, 669.00
1644, 670.00
1645, 670.00
1646, 670.00
1647, 671.00
1648, 672.00
1649, 670.00
1650, 672.00

1750, 993.00
1751, 993.00
1752, 994.00
1753, 994.00
1754, 996.00
1755, 995.00
1756, 995.00
1757, 995.00
1758, 995.00
1759, 994.00
1760, 994.00
1761, 994.00
1762, 994.00
1763, 995.00
1764, 995.00
1765, 993.00
1766, 995.00
1767, 996.00
1768, 995.00
1769, 993.00
1770, 995.00
1771, 993.00
1772, 994.00
1773, 994.00
1774, 993.00
1775, 994.00
1776, 994.00
1777, 993.00
1778, 992.00
1779, 991.00
1780, 995.00
1781, 991.00
1782, 992.00
1783, 993.00
1784, 993.00
1785, 993.00
1786, 993.00
1787, 991.00
1788, 992.00
1789, 993.00
1790, 991.00
1791, 991.00
1792, 993.00
1793, 991.00
1794, 990.00
1795, 991.00
1796, 991.00
1797, 991.00
1798, 989.00
1799, 991.00
1800, 991.00
1801, 990.00
1802, 990.00
1803, 989.00
1804, 989.00
1805, 990.00
1806, 988.00
1807, 989.00
1808, 989.00
1809, 988.00
1810, 989.00
1811, 989.00
1812, 989.00
1813, 989.00
1814, 990.00
1815, 987.00
1816, 990.00
1817, 988.00
1818, 989.00
1819, 989.00
1820, 986.00
1821, 987.00
1822, 987.00
1823, 987.00
1824, 987.00
1825, 987.00
1826, 987.00
1827, 986.00
1828, 985.00
1829, 985.00
1830, 985.00
1831, 985.00
1832, 986.00
1833, 983.00
1834, 986.00
1835, 983.00
1836, 982.00
1837, 983.00
1838, 982.00
1839, 981.00
1840, 982.00
1841, 980.00
1842, 979.00
1843, 980.00
1844, 979.00
1845, 979.00
1846, 979.00
1847, 977.00
1848, 977.00
1849, 974.00
1850, 974.00
1851, 975.00
1852, 974.00
1853, 973.00
1854, 973.00
1855, 971.00
1856, 972.00
1857, 971.00
1858, 970.00
1859, 970.00
1860, 970.00
1861, 968.00
1862, 967.00
1863, 969.00
1864, 965.00
1865, 964.00
1866, 965.00
1867, 964.00
1868, 961.00
1869, 963.00
1870, 960.00
1871, 961.00
1872, 962.00
1873, 960.00
1874, 960.00
1875, 960.00
1876, 960.00
1877, 959.00
1878, 960.00
1879, 959.00
1880, 959.00
1881, 958.00
1882, 959.00
1883, 958.00
1884, 957.00
1885, 955.00
1886, 958.00
1887, 958.00
1888, 956.00
1889, 955.00
1890, 956.00
1891, 955.00
1892, 958.00
1893, 957.00
1894, 955.00
1895, 955.00
1896, 954.00
1897, 955.00
1898, 956.00
1899, 955.00
1900, 956.00
1901, 956.00
1902, 954.00
1903, 954.00
1904, 954.00
1905, 953.00
1906, 953.00
1907, 955.00
1908, 953.00
1909, 955.00
1910, 954.00
1911, 953.00
1912, 954.00
1913, 954.00
1914, 956.00
1915, 953.00
1916, 955.00
1917, 953.00
1918, 953.00
1919, 954.00
1920, 952.00
1921, 954.00
1922, 954.00
1923, 954.00
1924, 953.00
1925, 954.00
1926, 954.00
1927, 953.00
1928, 954.00
1929, 952.00
1930, 954.00
1931, 953.00
1932, 955.00
1933, 955.00
1934, 953.00
1935, 954.00
1936, 953.00
1937, 953.00
1938, 954.00
1939, 954.00
1940, 954.00
1941, 954.00
1942, 955.00
1943, 954.00
1944, 954.00
1945, 955.00
1946, 955.00
1947, 955.00
1948, 954.00
1949, 955.00
1950, 955.00
1951, 955.00
1952, 956.00
1953, 955.00
1954, 957.00
1955, 954.00
1956, 956.00
1957, 957.00
1958, 956.00
1959, 957.00
1960, 957.00
1961, 957.00
1962, 957.00
1963, 958.00
1964, 959.00
1965, 958.00
1966, 959.00
1967, 959.00
1968, 957.00
1969, 958.00
1970, 959.00
1971, 958.00
1972, 958.00
1973, 958.00
1974, 960.00
1975, 959.00
1976, 959.00
1977, 959.00
1978, 960.00
1979, 961.00
1980, 961.00
1981, 961.00
1982, 962.00
1983, 961.00
1984, 961.00
1985, 963.00
1986, 963.00
1987, 962.00
1988, 962.00
1989, 963.00
1990, 962.00
1991, 964.00
1992, 964.00
1993, 963.00
1994, 963.00
1995, 964.00
1996, 965.00
1997, 964.00
1998, 964.00
1999, 966.00
2000, 965.00
2001, 965.00
2002, 965.00
2003, 965.00
2004, 965.00
2005, 966.00
2006, 965.00
2007, 965.00
2008, 967.00
2009, 966.00
2010, 968.00
2011, 969.00
2012, 969.00
2013, 969.00
2014, 967.00
2015, 969.00
2016, 969.00
2017, 968.00
2018, 969.00
2019, 971.00
2020, 971.00
2021, 970.00
2022, 970.00
2023, 970.00
2024, 971.00
2025, 971.00
2026, 971.00
2027, 971.00
2028, 970.00
2029, 970.00
2030, 970.00
2031, 972.00
2032, 971.00
2033, 971.00
2034, 973.00
2035, 971.00
2036, 971.00
2037, 973.00
2038, 973.00
2039, 973.00
2040, 972.00
2041, 973.00
2042, 974.00
2043, 975.00
2044, 974.00
2045, 977.00
2046, 976.00
2047, 975.00
2048, 975.00
2049, 976.00
2050, 976.00
2051, 977.00
2052, 976.00
2053, 978.00
2054, 978.00
2055, 979.00
2056, 978.00
2057, 980.00
2058, 979.00
2059, 980.00
2060, 980.00
2061, 982.00
2062, 980.00
2063, 980.00
2064, 981.00
2065, 980.00
2066, 981.00
2067, 981.00
2068, 983.00
2069, 982.00
2070, 985.00
2071, 983.00
2072, 984.00
2073, 986.00
2074, 985.00
2075, 985.00
2076, 985.00
2077, 985.00
2078, 985.00
2079, 986.00
2080, 987.00
2081, 984.00
2082, 986.00
2083, 987.00
2084, 987.00
2085, 988.00
2086, 987.00
2087, 986.00
2088, 988.00
2089, 988.00
2090, 988.00
2091, 989.00
2092, 989.00
2093, 987.00
2094, 989.00
2095, 989.00
2096, 989.00
2097, 990.00
2098, 991.00
2099, 991.00
2100, 991.00
2101, 991.00
2102, 990.00
2103, 990.00
2104, 991.00
2105, 990.00
2106, 991.00
2107, 992.00
2108, 991.00
2109, 991.00
2110, 991.00
2111, 993.00
2112, 991.00
2113, 991.00
2114, 991.00
2115, 992.00
2116, 991.00
2117, 993.00
2118, 993.00
2119, 992.00
2120, 993.00
2121, 991.00
2122, 991.00
2123, 993.00
2124, 992.00
2125, 991.00
2126, 993.00
2127, 993.00
2128, 992.00
2129, 992.00
2130, 994.00
2131, 993.00
2132, 992.00
2133, 994.00
2134, 994.00
2135, 994.00
2136, 994.00
2137, 995.00
2138, 996.00
2139, 994.00
2140, 995.00
2141, 993.00
2142, 995.00
2143, 994.00
2144, 995.00
2145, 996.00
2146, 994.00
2147, 995.00
2148, 996.00
2149, 996.00
2150, 995.00
