FW version: 24
Log Version: 3.0.3

General Info:
       Command/Macro Performed,            Timestamp,             Device ID, COM Port, UART/I2C, Test Name, Host Major, Host Minor, Host Revision, Host Git Commit
            Single_measurement,  2023_06_29_12_01_42,       Insight2_F4_xxx,    USB-C,      USB,          ,          0,          1,             1,      4031237645

Show Spectrometer Status:
l0_version, f4_version, battery_perc, battery_mVolt, accelerometer_temp, accelerometer_x, accelerometer_y, accelerometer_z, compass_temp, compass_x, compass_y, compass_z, lamp_0, lamp_1, gain_0, gain_1
        17,         24,           95,          2077,               5856,             244,           65048,           18404,            0,     65524,     65406,     65519,   2047,   2047,      1,      1

Temperature Statistic Info:
NTC AVG [°C], NTC2 AVG [°C]
      37.840,        37.583

Statistic Info:
M1:  num,      min,      max,   median,      AVG,      STD,M2:  num,      min,      max,   median,      AVG,      STD
     301,   597.00,   673.00,   617.00,   623.60,  23.7497,     401,   953.00,   997.00,   976.00,   975.67,  15.0212,

Measurements:
Wavelength, Data Amplitude
1350, 604.00
1351, 604.00
1352, 604.00
1353, 604.00
1354, 603.00
1355, 603.00
1356, 603.00
1357, 603.00
1358, 604.00
1359, 604.00
1360, 604.00
1361, 603.00
1362, 603.00
1363, 603.00
1364, 602.00
1365, 602.00
1366, 602.00
1367, 602.00
1368, 602.00
1369, 602.00
1370, 601.00
1371, 601.00
1372, 601.00
1373, 600.00
1374, 601.00
1375, 600.00
1376, 600.00
1377, 600.00
1378, 599.00
1379, 600.00
1380, 600.00
1381, 599.00
1382, 599.00
1383, 599.00
1384, 599.00
1385, 598.00
1386, 599.00
1387, 598.00
1388, 598.00
1389, 598.00
1390, 598.00
1391, 598.00
1392, 598.00
1393, 599.00
1394, 598.00
1395, 599.00
1396, 598.00
1397, 598.00
1398, 598.00
1399, 598.00
1400, 598.00
1401, 598.00
1402, 598.00
1403, 597.00
1404, 598.00
1405, 598.00
1406, 598.00
1407, 599.00
1408, 598.00
1409, 598.00
1410, 598.00
1411, 598.00
1412, 599.00
1413, 598.00
1414, 598.00
1415, 598.00
1416, 598.00
1417, 599.00
1418, 599.00
1419, 598.00
1420, 599.00
1421, 598.00
1422, 598.00
1423, 598.00
1424, 599.00
1425, 599.00
1426, 599.00
1427, 599.00
1428, 599.00
1429, 599.00
1430, 600.00
1431, 599.00
1432, 600.00
1433, 599.00
1434, 600.00
1435, 600.00
1436, 600.00
1437, 601.00
1438, 600.00
1439, 600.00
1440, 601.00
1441, 601.00
1442, 602.00
1443, 601.00
1444, 601.00
1445, 602.00
1446, 601.00
1447, 603.00
1448, 602.00
1449, 602.00
1450, 603.00
1451, 602.00
1452, 603.00
1453, 603.00
1454, 603.00
1455, 603.00
1456, 603.00
1457, 603.00
1458, 604.00
1459, 604.00
1460, 604.00
1461, 605.00
1462, 605.00
1463, 605.00
1464, 606.00
1465, 606.00
1466, 607.00
1467, 606.00
1468, 607.00
1469, 607.00
1470, 607.00
1471, 607.00
1472, 608.00
1473, 608.00
1474, 609.00
1475, 608.00
1476, 610.00
1477, 610.00
1478, 609.00
1479, 610.00
1480, 610.00
1481, 611.00
1482, 611.00
1483, 612.00
1484, 612.00
1485, 612.00
1486, 613.00
1487, 613.00
1488, 613.00
1489, 613.00
1490, 614.00
1491, 614.00
1492, 615.00
1493, 614.00
1494, 616.00
1495, 616.00
1496, 615.00
1497, 616.00
1498, 617.00
1499, 616.00
1500, 617.00
1501, 618.00
1502, 618.00
1503, 618.00
1504, 619.00
1505, 619.00
1506, 619.00
1507, 620.00
1508, 621.00
1509, 620.00
1510, 620.00
1511, 621.00
1512, 622.00
1513, 621.00
1514, 622.00
1515, 623.00
1516, 623.00
1517, 623.00
1518, 625.00
1519, 624.00
1520, 625.00
1521, 625.00
1522, 626.00
1523, 626.00
1524, 626.00
1525, 626.00
1526, 627.00
1527, 627.00
1528, 628.00
1529, 628.00
1530, 628.00
1531, 628.00
1532, 629.00
1533, 629.00
1534, 630.00
1535, 630.00
1536, 630.00
1537, 630.00
1538, 632.00
1539, 632.00
1540, 632.00
1541, 632.00
1542, 633.00
1543, 633.00
1544, 633.00
1545, 634.00
1546, 635.00
1547, 634.00
1548, 635.00
1549, 635.00
1550, 635.00
1551, 635.00
1552, 636.00
1553, 637.00
1554, 636.00
1555, 636.00
1556, 636.00
1557, 638.00
1558, 638.00
1559, 638.00
1560, 638.00
1561, 639.00
1562, 639.00
1563, 640.00
1564, 640.00
1565, 640.00
1566, 640.00
1567, 641.00
1568, 641.00
1569, 641.00
1570, 642.00
1571, 642.00
1572, 642.00
1573, 642.00
1574, 643.00
1575, 643.00
1576, 644.00
1577, 644.00
1578, 645.00
1579, 644.00
1580, 645.00
1581, 644.00
1582, 645.00
1583, 646.00
1584, 647.00
1585, 646.00
1586, 647.00
1587, 647.00
1588, 648.00
1589, 648.00
1590, 649.00
1591, 648.00
1592, 650.00
1593, 650.00
1594, 650.00
1595, 650.00
1596, 651.00
1597, 651.00
1598, 651.00
1599, 652.00
1600, 652.00
1601, 653.00
1602, 652.00
1603, 653.00
1604, 653.00
1605, 654.00
1606, 654.00
1607, 655.00
1608, 655.00
1609, 656.00
1610, 656.00
1611, 656.00
1612, 656.00
1613, 657.00
1614, 657.00
1615, 659.00
1616, 659.00
1617, 660.00
1618, 660.00
1619, 661.00
1620, 661.00
1621, 661.00
1622, 662.00
1623, 662.00
1624, 663.00
1625, 662.00
1626, 664.00
1627, 664.00
1628, 664.00
1629, 665.00
1630, 665.00
1631, 666.00
1632, 665.00
1633, 666.00
1634, 666.00
1635, 667.00
1636, 668.00
1637, 667.00
1638, 668.00
1639, 669.00
1640, 668.00
1641, 669.00
1642, 670.00
1643, 670.00
1644, 670.00
1645, 671.00
1646, 670.00
1647, 671.00
1648, 672.00
1649, 671.00
1650, 673.00

1750, 994.00
1751, 994.00
1752, 995.00
1753, 994.00
1754, 995.00
1755, 995.00
1756, 996.00
1757, 994.00
1758, 995.00
1759, 994.00
1760, 995.00
1761, 994.00
1762, 995.00
1763, 994.00
1764, 995.00
1765, 995.00
1766, 996.00
1767, 995.00
1768, 991.00
1769, 995.00
1770, 995.00
1771, 995.00
1772, 993.00
1773, 995.00
1774, 994.00
1775, 995.00
1776, 992.00
1777, 995.00
1778, 992.00
1779, 994.00
1780, 993.00
1781, 993.00
1782, 994.00
1783, 993.00
1784, 993.00
1785, 992.00
1786, 995.00
1787, 991.00
1788, 993.00
1789, 992.00
1790, 991.00
1791, 992.00
1792, 991.00
1793, 990.00
1794, 992.00
1795, 990.00
1796, 990.00
1797, 990.00
1798, 990.00
1799, 990.00
1800, 990.00
1801, 992.00
1802, 991.00
1803, 991.00
1804, 991.00
1805, 990.00
1806, 990.00
1807, 989.00
1808, 991.00
1809, 990.00
1810, 990.00
1811, 988.00
1812, 989.00
1813, 988.00
1814, 989.00
1815, 989.00
1816, 990.00
1817, 989.00
1818, 989.00
1819, 987.00
1820, 989.00
1821, 988.00
1822, 989.00
1823, 989.00
1824, 989.00
1825, 987.00
1826, 988.00
1827, 986.00
1828, 987.00
1829, 987.00
1830, 985.00
1831, 985.00
1832, 984.00
1833, 986.00
1834, 984.00
1835, 984.00
1836, 983.00
1837, 982.00
1838, 983.00
1839, 982.00
1840, 983.00
1841, 981.00
1842, 981.00
1843, 980.00
1844, 980.00
1845, 978.00
1846, 980.00
1847, 979.00
1848, 976.00
1849, 975.00
1850, 977.00
1851, 976.00
1852, 974.00
1853, 975.00
1854, 973.00
1855, 972.00
1856, 970.00
1857, 970.00
1858, 970.00
1859, 970.00
1860, 968.00
1861, 969.00
1862, 967.00
1863, 967.00
1864, 967.00
1865, 966.00
1866, 964.00
1867, 963.00
1868, 962.00
1869, 963.00
1870, 962.00
1871, 962.00
1872, 961.00
1873, 962.00
1874, 961.00
1875, 960.00
1876, 959.00
1877, 961.00
1878, 959.00
1879, 961.00
1880, 960.00
1881, 959.00
1882, 958.00
1883, 957.00
1884, 957.00
1885, 958.00
1886, 957.00
1887, 957.00
1888, 955.00
1889, 957.00
1890, 959.00
1891, 957.00
1892, 956.00
1893, 957.00
1894, 957.00
1895, 957.00
1896, 957.00
1897, 956.00
1898, 955.00
1899, 955.00
1900, 956.00
1901, 955.00
1902, 955.00
1903, 954.00
1904, 954.00
1905, 954.00
1906, 954.00
1907, 956.00
1908, 955.00
1909, 954.00
1910, 954.00
1911, 955.00
1912, 955.00
1913, 955.00
1914, 954.00
1915, 954.00
1916, 955.00
1917, 954.00
1918, 954.00
1919, 954.00
1920, 954.00
1921, 954.00
1922, 953.00
1923, 954.00
1924, 954.00
1925, 953.00
1926, 955.00
1927, 955.00
1928, 954.00
1929, 953.00
1930, 953.00
1931, 953.00
1932, 955.00
1933, 955.00
1934, 955.00
1935, 955.00
1936, 955.00
1937, 955.00
1938, 956.00
1939, 955.00
1940, 954.00
1941, 955.00
1942, 955.00
1943, 954.00
1944, 955.00
1945, 956.00
1946, 955.00
1947, 954.00
1948, 956.00
1949, 956.00
1950, 957.00
1951, 955.00
1952, 955.00
1953, 955.00
1954, 957.00
1955, 957.00
1956, 957.00
1957, 957.00
1958, 957.00
1959, 956.00
1960, 954.00
1961, 958.00
1962, 958.00
1963, 958.00
1964, 959.00
1965, 959.00
1966, 960.00
1967, 959.00
1968, 958.00
1969, 960.00
1970, 960.00
1971, 959.00
1972, 960.00
1973, 959.00
1974, 960.00
1975, 960.00
1976, 960.00
1977, 961.00
1978, 959.00
1979, 961.00
1980, 961.00
1981, 962.00
1982, 961.00
1983, 962.00
1984, 961.00
1985, 963.00
1986, 963.00
1987, 964.00
1988, 963.00
1989, 963.00
1990, 963.00
1991, 964.00
1992, 963.00
1993, 964.00
1994, 962.00
1995, 964.00
1996, 965.00
1997, 966.00
1998, 965.00
1999, 965.00
2000, 964.00
2001, 966.00
2002, 965.00
2003, 966.00
2004, 966.00
2005, 966.00
2006, 966.00
2007, 967.00
2008, 968.00
2009, 967.00
2010, 967.00
2011, 967.00
2012, 967.00
2013, 967.00
2014, 967.00
2015, 969.00
2016, 970.00
2017, 970.00
2018, 970.00
2019, 968.00
2020, 968.00
2021, 970.00
2022, 969.00
2023, 970.00
2024, 971.00
2025, 971.00
2026, 971.00
2027, 972.00
2028, 970.00
2029, 972.00
2030, 971.00
2031, 972.00
2032, 971.00
2033, 973.00
2034, 973.00
2035, 973.00
2036, 974.00
2037, 974.00
2038, 974.00
2039, 972.00
2040, 973.00
2041, 973.00
2042, 974.00
2043, 976.00
2044, 975.00
2045, 976.00
2046, 974.00
2047, 976.00
2048, 975.00
2049, 977.00
2050, 978.00
2051, 977.00
2052, 976.00
2053, 978.00
2054, 978.00
2055, 978.00
2056, 978.00
2057, 978.00
2058, 979.00
2059, 980.00
2060, 980.00
2061, 981.00
2062, 979.00
2063, 980.00
2064, 983.00
2065, 981.00
2066, 981.00
2067, 984.00
2068, 982.00
2069, 983.00
2070, 982.00
2071, 985.00
2072, 985.00
2073, 985.00
2074, 985.00
2075, 985.00
2076, 984.00
2077, 985.00
2078, 986.00
2079, 985.00
2080, 987.00
2081, 987.00
2082, 985.00
2083, 987.00
2084, 987.00
2085, 988.00
2086, 988.00
2087, 989.00
2088, 987.00
2089, 989.00
2090, 988.00
2091, 989.00
2092, 989.00
2093, 990.00
2094, 989.00
2095, 989.00
2096, 989.00
2097, 990.00
2098, 990.00
2099, 991.00
2100, 990.00
2101, 990.00
2102, 991.00
2103, 989.00
2104, 992.00
2105, 990.00
2106, 990.00
2107, 993.00
2108, 993.00
2109, 993.00
2110, 994.00
2111, 991.00
2112, 993.00
2113, 991.00
2114, 993.00
2115, 993.00
2116, 992.00
2117, 992.00
2118, 993.00
2119, 995.00
2120, 993.00
2121, 993.00
2122, 995.00
2123, 993.00
2124, 993.00
2125, 994.00
2126, 993.00
2127, 993.00
2128, 995.00
2129, 995.00
2130, 993.00
2131, 995.00
2132, 994.00
2133, 996.00
2134, 995.00
2135, 993.00
2136, 995.00
2137, 995.00
2138, 995.00
2139, 996.00
2140, 995.00
2141, 994.00
2142, 995.00
2143, 995.00
2144, 997.00
2145, 995.00
2146, 995.00
2147, 996.00
2148, 997.00
2149, 996.00
2150, 996.00
