FW version: 24
Log Version: 3.0.3

General Info:
       Command/Macro Performed,            Timestamp,             Device ID, COM Port, UART/I2C, Test Name, Host Major, Host Minor, Host Revision, Host Git Commit
            Single_measurement,  2023_06_29_12_02_13,       Insight2_F4_xxx,    USB-C,      USB,          ,          0,          1,             1,      4031237645

Show Spectrometer Status:
l0_version, f4_version, battery_perc, battery_mVolt, accelerometer_temp, accelerometer_x, accelerometer_y, accelerometer_z, compass_temp, compass_x, compass_y, compass_z, lamp_0, lamp_1, gain_0, gain_1
        17,         24,           95,          2079,               5936,             212,           65088,           18436,            0,     65534,     65397,     65509,   2866,   2866,      1,      1

Temperature Statistic Info:
NTC AVG [°C], NTC2 AVG [°C]
      38.070,        37.755

Statistic Info:
M1:  num,      min,      max,   median,      AVG,      STD,M2:  num,      min,      max,   median,      AVG,      STD
     301,  1163.00,  1300.00,  1195.00,  1208.65,  42.6740,     401,  1691.00,  1768.00,  1732.00,  1730.92,  25.7640,

Measurements:
Wavelength, Data Amplitude
1350, 1178.00
1351, 1178.00
1352, 1177.00
1353, 1178.00
1354, 1177.00
1355, 1177.00
1356, 1176.00
1357, 1175.00
1358, 1176.00
1359, 1175.00
1360, 1177.00
1361, 1176.00
1362, 1175.00
1363, 1174.00
1364, 1174.00
1365, 1175.00
1366, 1173.00
1367, 1173.00
1368, 1173.00
1369, 1172.00
1370, 1173.00
1371, 1173.00
1372, 1172.00
1373, 1171.00
1374, 1171.00
1375, 1169.00
1376, 1169.00
1377, 1168.00
1378, 1168.00
1379, 1168.00
1380, 1168.00
1381, 1167.00
1382, 1168.00
1383, 1168.00
1384, 1167.00
1385, 1165.00
1386, 1166.00
1387, 1166.00
1388, 1165.00
1389, 1165.00
1390, 1165.00
1391, 1165.00
1392, 1165.00
1393, 1165.00
1394, 1164.00
1395, 1165.00
1396, 1165.00
1397, 1165.00
1398, 1165.00
1399, 1164.00
1400, 1164.00
1401, 1164.00
1402, 1164.00
1403, 1164.00
1404, 1164.00
1405, 1163.00
1406, 1164.00
1407, 1164.00
1408, 1164.00
1409, 1163.00
1410, 1164.00
1411, 1164.00
1412, 1164.00
1413, 1164.00
1414, 1164.00
1415, 1163.00
1416, 1164.00
1417, 1164.00
1418, 1164.00
1419, 1163.00
1420, 1164.00
1421, 1164.00
1422, 1163.00
1423, 1164.00
1424, 1164.00
1425, 1164.00
1426, 1164.00
1427, 1165.00
1428, 1165.00
1429, 1165.00
1430, 1166.00
1431, 1164.00
1432, 1165.00
1433, 1166.00
1434, 1166.00
1435, 1168.00
1436, 1166.00
1437, 1166.00
1438, 1167.00
1439, 1167.00
1440, 1167.00
1441, 1168.00
1442, 1167.00
1443, 1168.00
1444, 1168.00
1445, 1168.00
1446, 1169.00
1447, 1169.00
1448, 1170.00
1449, 1170.00
1450, 1170.00
1451, 1170.00
1452, 1171.00
1453, 1172.00
1454, 1171.00
1455, 1172.00
1456, 1171.00
1457, 1173.00
1458, 1172.00
1459, 1173.00
1460, 1175.00
1461, 1174.00
1462, 1174.00
1463, 1175.00
1464, 1175.00
1465, 1177.00
1466, 1177.00
1467, 1178.00
1468, 1177.00
1469, 1177.00
1470, 1178.00
1471, 1179.00
1472, 1179.00
1473, 1179.00
1474, 1180.00
1475, 1181.00
1476, 1181.00
1477, 1182.00
1478, 1183.00
1479, 1183.00
1480, 1183.00
1481, 1184.00
1482, 1184.00
1483, 1185.00
1484, 1186.00
1485, 1186.00
1486, 1188.00
1487, 1188.00
1488, 1189.00
1489, 1190.00
1490, 1189.00
1491, 1191.00
1492, 1191.00
1493, 1191.00
1494, 1192.00
1495, 1193.00
1496, 1193.00
1497, 1194.00
1498, 1194.00
1499, 1195.00
1500, 1195.00
1501, 1196.00
1502, 1196.00
1503, 1196.00
1504, 1197.00
1505, 1198.00
1506, 1198.00
1507, 1199.00
1508, 1200.00
1509, 1200.00
1510, 1200.00
1511, 1202.00
1512, 1202.00
1513, 1203.00
1514, 1203.00
1515, 1204.00
1516, 1204.00
1517, 1205.00
1518, 1206.00
1519, 1207.00
1520, 1207.00
1521, 1207.00
1522, 1209.00
1523, 1209.00
1524, 1210.00
1525, 1211.00
1526, 1211.00
1527, 1211.00
1528, 1211.00
1529, 1213.00
1530, 1213.00
1531, 1214.00
1532, 1215.00
1533, 1216.00
1534, 1217.00
1535, 1215.00
1536, 1218.00
1537, 1219.00
1538, 1219.00
1539, 1219.00
1540, 1221.00
1541, 1221.00
1542, 1221.00
1543, 1222.00
1544, 1222.00
1545, 1223.00
1546, 1225.00
1547, 1225.00
1548, 1224.00
1549, 1225.00
1550, 1226.00
1551, 1226.00
1552, 1226.00
1553, 1228.00
1554, 1229.00
1555, 1230.00
1556, 1230.00
1557, 1231.00
1558, 1232.00
1559, 1233.00
1560, 1234.00
1561, 1233.00
1562, 1234.00
1563, 1235.00
1564, 1235.00
1565, 1237.00
1566, 1237.00
1567, 1239.00
1568, 1239.00
1569, 1240.00
1570, 1240.00
1571, 1241.00
1572, 1241.00
1573, 1243.00
1574, 1242.00
1575, 1244.00
1576, 1245.00
1577, 1245.00
1578, 1247.00
1579, 1247.00
1580, 1248.00
1581, 1247.00
1582, 1249.00
1583, 1249.00
1584, 1249.00
1585, 1251.00
1586, 1251.00
1587, 1251.00
1588, 1252.00
1589, 1253.00
1590, 1253.00
1591, 1253.00
1592, 1256.00
1593, 1255.00
1594, 1256.00
1595, 1256.00
1596, 1257.00
1597, 1257.00
1598, 1259.00
1599, 1260.00
1600, 1260.00
1601, 1262.00
1602, 1261.00
1603, 1263.00
1604, 1263.00
1605, 1263.00
1606, 1265.00
1607, 1265.00
1608, 1265.00
1609, 1267.00
1610, 1268.00
1611, 1269.00
1612, 1269.00
1613, 1271.00
1614, 1270.00
1615, 1272.00
1616, 1273.00
1617, 1273.00
1618, 1274.00
1619, 1276.00
1620, 1276.00
1621, 1277.00
1622, 1278.00
1623, 1279.00
1624, 1280.00
1625, 1280.00
1626, 1283.00
1627, 1281.00
1628, 1283.00
1629, 1284.00
1630, 1285.00
1631, 1286.00
1632, 1287.00
1633, 1287.00
1634, 1287.00
1635, 1289.00
1636, 1289.00
1637, 1292.00
1638, 1292.00
1639, 1292.00
1640, 1293.00
1641, 1293.00
1642, 1294.00
1643, 1296.00
1644, 1296.00
1645, 1296.00
1646, 1297.00
1647, 1299.00
1648, 1298.00
1649, 1299.00
1650, 1300.00

1750, 1767.00
1751, 1767.00
1752, 1767.00
1753, 1767.00
1754, 1768.00
1755, 1766.00
1756, 1768.00
1757, 1767.00
1758, 1766.00
1759, 1766.00
1760, 1767.00
1761, 1767.00
1762, 1764.00
1763, 1767.00
1764, 1767.00
1765, 1768.00
1766, 1766.00
1767, 1768.00
1768, 1765.00
1769, 1765.00
1770, 1766.00
1771, 1767.00
1772, 1766.00
1773, 1765.00
1774, 1766.00
1775, 1766.00
1776, 1766.00
1777, 1766.00
1778, 1763.00
1779, 1763.00
1780, 1763.00
1781, 1763.00
1782, 1764.00
1783, 1763.00
1784, 1762.00
1785, 1760.00
1786, 1762.00
1787, 1763.00
1788, 1762.00
1789, 1761.00
1790, 1762.00
1791, 1761.00
1792, 1760.00
1793, 1761.00
1794, 1760.00
1795, 1760.00
1796, 1758.00
1797, 1760.00
1798, 1760.00
1799, 1759.00
1800, 1758.00
1801, 1759.00
1802, 1760.00
1803, 1758.00
1804, 1759.00
1805, 1758.00
1806, 1757.00
1807, 1757.00
1808, 1759.00
1809, 1756.00
1810, 1757.00
1811, 1757.00
1812, 1756.00
1813, 1757.00
1814, 1757.00
1815, 1755.00
1816, 1755.00
1817, 1756.00
1818, 1756.00
1819, 1755.00
1820, 1755.00
1821, 1753.00
1822, 1754.00
1823, 1754.00
1824, 1753.00
1825, 1752.00
1826, 1751.00
1827, 1753.00
1828, 1752.00
1829, 1751.00
1830, 1749.00
1831, 1749.00
1832, 1750.00
1833, 1748.00
1834, 1746.00
1835, 1747.00
1836, 1747.00
1837, 1744.00
1838, 1744.00
1839, 1744.00
1840, 1741.00
1841, 1741.00
1842, 1740.00
1843, 1739.00
1844, 1737.00
1845, 1735.00
1846, 1737.00
1847, 1735.00
1848, 1735.00
1849, 1732.00
1850, 1732.00
1851, 1731.00
1852, 1731.00
1853, 1729.00
1854, 1729.00
1855, 1726.00
1856, 1725.00
1857, 1722.00
1858, 1721.00
1859, 1719.00
1860, 1719.00
1861, 1718.00
1862, 1718.00
1863, 1718.00
1864, 1715.00
1865, 1715.00
1866, 1715.00
1867, 1711.00
1868, 1712.00
1869, 1710.00
1870, 1709.00
1871, 1707.00
1872, 1707.00
1873, 1709.00
1874, 1708.00
1875, 1707.00
1876, 1704.00
1877, 1705.00
1878, 1704.00
1879, 1704.00
1880, 1703.00
1881, 1703.00
1882, 1699.00
1883, 1700.00
1884, 1701.00
1885, 1700.00
1886, 1700.00
1887, 1699.00
1888, 1700.00
1889, 1700.00
1890, 1699.00
1891, 1697.00
1892, 1701.00
1893, 1697.00
1894, 1698.00
1895, 1697.00
1896, 1696.00
1897, 1696.00
1898, 1698.00
1899, 1694.00
1900, 1696.00
1901, 1696.00
1902, 1696.00
1903, 1694.00
1904, 1694.00
1905, 1697.00
1906, 1695.00
1907, 1696.00
1908, 1693.00
1909, 1695.00
1910, 1695.00
1911, 1696.00
1912, 1694.00
1913, 1694.00
1914, 1694.00
1915, 1694.00
1916, 1695.00
1917, 1694.00
1918, 1696.00
1919, 1695.00
1920, 1694.00
1921, 1694.00
1922, 1693.00
1923, 1695.00
1924, 1695.00
1925, 1693.00
1926, 1694.00
1927, 1693.00
1928, 1693.00
1929, 1694.00
1930, 1691.00
1931, 1694.00
1932, 1693.00
1933, 1695.00
1934, 1694.00
1935, 1695.00
1936, 1694.00
1937, 1694.00
1938, 1694.00
1939, 1695.00
1940, 1695.00
1941, 1695.00
1942, 1696.00
1943, 1694.00
1944, 1697.00
1945, 1697.00
1946, 1697.00
1947, 1696.00
1948, 1697.00
1949, 1696.00
1950, 1695.00
1951, 1699.00
1952, 1697.00
1953, 1697.00
1954, 1698.00
1955, 1697.00
1956, 1698.00
1957, 1699.00
1958, 1698.00
1959, 1700.00
1960, 1699.00
1961, 1701.00
1962, 1700.00
1963, 1701.00
1964, 1701.00
1965, 1700.00
1966, 1701.00
1967, 1702.00
1968, 1703.00
1969, 1705.00
1970, 1702.00
1971, 1704.00
1972, 1704.00
1973, 1705.00
1974, 1704.00
1975, 1705.00
1976, 1706.00
1977, 1705.00
1978, 1705.00
1979, 1705.00
1980, 1708.00
1981, 1706.00
1982, 1706.00
1983, 1707.00
1984, 1707.00
1985, 1708.00
1986, 1709.00
1987, 1710.00
1988, 1709.00
1989, 1711.00
1990, 1710.00
1991, 1710.00
1992, 1710.00
1993, 1710.00
1994, 1710.00
1995, 1710.00
1996, 1711.00
1997, 1712.00
1998, 1712.00
1999, 1712.00
2000, 1713.00
2001, 1713.00
2002, 1713.00
2003, 1713.00
2004, 1714.00
2005, 1714.00
2006, 1714.00
2007, 1715.00
2008, 1715.00
2009, 1715.00
2010, 1719.00
2011, 1717.00
2012, 1717.00
2013, 1717.00
2014, 1717.00
2015, 1718.00
2016, 1720.00
2017, 1719.00
2018, 1718.00
2019, 1718.00
2020, 1719.00
2021, 1719.00
2022, 1719.00
2023, 1721.00
2024, 1720.00
2025, 1722.00
2026, 1720.00
2027, 1723.00
2028, 1723.00
2029, 1722.00
2030, 1724.00
2031, 1723.00
2032, 1724.00
2033, 1723.00
2034, 1725.00
2035, 1725.00
2036, 1725.00
2037, 1725.00
2038, 1727.00
2039, 1727.00
2040, 1726.00
2041, 1728.00
2042, 1728.00
2043, 1729.00
2044, 1729.00
2045, 1727.00
2046, 1731.00
2047, 1731.00
2048, 1732.00
2049, 1731.00
2050, 1733.00
2051, 1733.00
2052, 1733.00
2053, 1733.00
2054, 1734.00
2055, 1733.00
2056, 1735.00
2057, 1736.00
2058, 1736.00
2059, 1737.00
2060, 1736.00
2061, 1737.00
2062, 1739.00
2063, 1739.00
2064, 1740.00
2065, 1740.00
2066, 1740.00
2067, 1741.00
2068, 1742.00
2069, 1742.00
2070, 1743.00
2071, 1743.00
2072, 1743.00
2073, 1743.00
2074, 1743.00
2075, 1746.00
2076, 1747.00
2077, 1746.00
2078, 1745.00
2079, 1747.00
2080, 1745.00
2081, 1747.00
2082, 1748.00
2083, 1746.00
2084, 1749.00
2085, 1750.00
2086, 1749.00
2087, 1751.00
2088, 1751.00
2089, 1750.00
2090, 1751.00
2091, 1751.00
2092, 1752.00
2093, 1751.00
2094, 1753.00
2095, 1752.00
2096, 1753.00
2097, 1755.00
2098, 1754.00
2099, 1753.00
2100, 1754.00
2101, 1752.00
2102, 1755.00
2103, 1755.00
2104, 1756.00
2105, 1755.00
2106, 1756.00
2107, 1755.00
2108, 1757.00
2109, 1756.00
2110, 1756.00
2111, 1756.00
2112, 1759.00
2113, 1757.00
2114, 1757.00
2115, 1755.00
2116, 1757.00
2117, 1757.00
2118, 1757.00
2119, 1758.00
2120, 1758.00
2121, 1757.00
2122, 1760.00
2123, 1759.00
2124, 1760.00
2125, 1759.00
2126, 1759.00
2127, 1758.00
2128, 1761.00
2129, 1759.00
2130, 1759.00
2131, 1760.00
2132, 1761.00
2133, 1760.00
2134, 1761.00
2135, 1761.00
2136, 1761.00
2137, 1760.00
2138, 1761.00
2139, 1762.00
2140, 1760.00
2141, 1761.00
2142, 1763.00
2143, 1762.00
2144, 1761.00
2145, 1763.00
2146, 1763.00
2147, 1761.00
2148, 1762.00
2149, 1763.00
2150, 1763.00
