FW version: 24
Log Version: 3.0.3

General Info:
       Command/Macro Performed,            Timestamp,             Device ID, COM Port, UART/I2C, Test Name, Host Major, Host Minor, Host Revision, Host Git Commit
            Single_measurement,  2023_06_30_11_04_52,       Insight2_F4_xxx,    USB-C,      USB,          ,          0,          1,             1,      4031237645

Show Spectrometer Status:
l0_version, f4_version, battery_perc, battery_mVolt, accelerometer_temp, accelerometer_x, accelerometer_y, accelerometer_z, compass_temp, compass_x, compass_y, compass_z, lamp_0, lamp_1, gain_0, gain_1
        17,         24,           94,          2069,               6048,           65312,             324,           18480,            0,     65383,     65375,     65531,   2047,   2047,      1,      1

Temperature Statistic Info:
NTC AVG [°C], NTC2 AVG [°C]
      38.304,        38.011

Statistic Info:
M1:  num,      min,      max,   median,      AVG,      STD,M2:  num,      min,      max,   median,      AVG,      STD
     301,   718.00,   836.00,   744.00,   757.83,  37.3235,     401,  1052.00,  1125.00,  1084.00,  1085.64,  24.3593,

Measurements:
Wavelength, Data Amplitude
1350, 737.00
1351, 736.00
1352, 736.00
1353, 736.00
1354, 734.00
1355, 735.00
1356, 735.00
1357, 734.00
1358, 734.00
1359, 734.00
1360, 733.00
1361, 733.00
1362, 732.00
1363, 732.00
1364, 730.00
1365, 730.00
1366, 730.00
1367, 730.00
1368, 729.00
1369, 729.00
1370, 728.00
1371, 728.00
1372, 726.00
1373, 727.00
1374, 726.00
1375, 725.00
1376, 725.00
1377, 725.00
1378, 724.00
1379, 725.00
1380, 724.00
1381, 723.00
1382, 723.00
1383, 722.00
1384, 723.00
1385, 722.00
1386, 720.00
1387, 722.00
1388, 721.00
1389, 721.00
1390, 721.00
1391, 721.00
1392, 720.00
1393, 720.00
1394, 720.00
1395, 720.00
1396, 720.00
1397, 719.00
1398, 719.00
1399, 719.00
1400, 719.00
1401, 719.00
1402, 719.00
1403, 719.00
1404, 719.00
1405, 719.00
1406, 719.00
1407, 719.00
1408, 718.00
1409, 719.00
1410, 719.00
1411, 718.00
1412, 718.00
1413, 719.00
1414, 718.00
1415, 719.00
1416, 718.00
1417, 719.00
1418, 718.00
1419, 718.00
1420, 718.00
1421, 719.00
1422, 719.00
1423, 719.00
1424, 719.00
1425, 718.00
1426, 718.00
1427, 719.00
1428, 719.00
1429, 719.00
1430, 719.00
1431, 719.00
1432, 720.00
1433, 720.00
1434, 720.00
1435, 720.00
1436, 720.00
1437, 721.00
1438, 721.00
1439, 721.00
1440, 721.00
1441, 721.00
1442, 722.00
1443, 722.00
1444, 722.00
1445, 722.00
1446, 723.00
1447, 723.00
1448, 723.00
1449, 723.00
1450, 723.00
1451, 723.00
1452, 724.00
1453, 724.00
1454, 724.00
1455, 725.00
1456, 724.00
1457, 725.00
1458, 725.00
1459, 726.00
1460, 726.00
1461, 727.00
1462, 727.00
1463, 728.00
1464, 727.00
1465, 727.00
1466, 727.00
1467, 728.00
1468, 729.00
1469, 729.00
1470, 729.00
1471, 730.00
1472, 731.00
1473, 731.00
1474, 731.00
1475, 732.00
1476, 733.00
1477, 732.00
1478, 733.00
1479, 733.00
1480, 734.00
1481, 735.00
1482, 736.00
1483, 735.00
1484, 737.00
1485, 736.00
1486, 737.00
1487, 738.00
1488, 738.00
1489, 738.00
1490, 739.00
1491, 740.00
1492, 739.00
1493, 741.00
1494, 741.00
1495, 741.00
1496, 742.00
1497, 742.00
1498, 743.00
1499, 743.00
1500, 744.00
1501, 744.00
1502, 745.00
1503, 746.00
1504, 747.00
1505, 747.00
1506, 748.00
1507, 748.00
1508, 749.00
1509, 750.00
1510, 749.00
1511, 751.00
1512, 751.00
1513, 751.00
1514, 752.00
1515, 752.00
1516, 752.00
1517, 753.00
1518, 754.00
1519, 755.00
1520, 755.00
1521, 756.00
1522, 756.00
1523, 758.00
1524, 758.00
1525, 758.00
1526, 759.00
1527, 760.00
1528, 761.00
1529, 761.00
1530, 761.00
1531, 762.00
1532, 763.00
1533, 763.00
1534, 763.00
1535, 765.00
1536, 765.00
1537, 766.00
1538, 767.00
1539, 767.00
1540, 767.00
1541, 769.00
1542, 770.00
1543, 769.00
1544, 769.00
1545, 770.00
1546, 771.00
1547, 772.00
1548, 772.00
1549, 772.00
1550, 773.00
1551, 773.00
1552, 775.00
1553, 775.00
1554, 776.00
1555, 776.00
1556, 776.00
1557, 777.00
1558, 778.00
1559, 778.00
1560, 780.00
1561, 780.00
1562, 780.00
1563, 781.00
1564, 781.00
1565, 782.00
1566, 784.00
1567, 784.00
1568, 784.00
1569, 785.00
1570, 786.00
1571, 787.00
1572, 787.00
1573, 788.00
1574, 789.00
1575, 789.00
1576, 790.00
1577, 790.00
1578, 791.00
1579, 791.00
1580, 791.00
1581, 792.00
1582, 793.00
1583, 794.00
1584, 794.00
1585, 794.00
1586, 795.00
1587, 796.00
1588, 795.00
1589, 797.00
1590, 798.00
1591, 798.00
1592, 799.00
1593, 799.00
1594, 800.00
1595, 801.00
1596, 801.00
1597, 802.00
1598, 802.00
1599, 802.00
1600, 803.00
1601, 804.00
1602, 805.00
1603, 805.00
1604, 805.00
1605, 807.00
1606, 807.00
1607, 808.00
1608, 808.00
1609, 809.00
1610, 811.00
1611, 811.00
1612, 812.00
1613, 813.00
1614, 813.00
1615, 815.00
1616, 815.00
1617, 816.00
1618, 816.00
1619, 818.00
1620, 818.00
1621, 818.00
1622, 819.00
1623, 820.00
1624, 820.00
1625, 822.00
1626, 823.00
1627, 823.00
1628, 824.00
1629, 824.00
1630, 825.00
1631, 826.00
1632, 826.00
1633, 826.00
1634, 827.00
1635, 828.00
1636, 829.00
1637, 829.00
1638, 830.00
1639, 831.00
1640, 831.00
1641, 831.00
1642, 832.00
1643, 833.00
1644, 832.00
1645, 833.00
1646, 833.00
1647, 835.00
1648, 836.00
1649, 835.00
1650, 836.00

1750, 1125.00
1751, 1125.00
1752, 1125.00
1753, 1124.00
1754, 1124.00
1755, 1124.00
1756, 1124.00
1757, 1125.00
1758, 1125.00
1759, 1124.00
1760, 1124.00
1761, 1122.00
1762, 1124.00
1763, 1124.00
1764, 1124.00
1765, 1124.00
1766, 1124.00
1767, 1124.00
1768, 1123.00
1769, 1124.00
1770, 1124.00
1771, 1123.00
1772, 1124.00
1773, 1125.00
1774, 1123.00
1775, 1123.00
1776, 1122.00
1777, 1123.00
1778, 1124.00
1779, 1122.00
1780, 1123.00
1781, 1121.00
1782, 1122.00
1783, 1121.00
1784, 1121.00
1785, 1121.00
1786, 1123.00
1787, 1120.00
1788, 1122.00
1789, 1120.00
1790, 1118.00
1791, 1120.00
1792, 1121.00
1793, 1119.00
1794, 1118.00
1795, 1120.00
1796, 1118.00
1797, 1118.00
1798, 1118.00
1799, 1117.00
1800, 1118.00
1801, 1118.00
1802, 1119.00
1803, 1116.00
1804, 1118.00
1805, 1115.00
1806, 1117.00
1807, 1115.00
1808, 1117.00
1809, 1116.00
1810, 1115.00
1811, 1116.00
1812, 1115.00
1813, 1114.00
1814, 1114.00
1815, 1113.00
1816, 1112.00
1817, 1113.00
1818, 1112.00
1819, 1112.00
1820, 1113.00
1821, 1111.00
1822, 1109.00
1823, 1110.00
1824, 1110.00
1825, 1109.00
1826, 1109.00
1827, 1109.00
1828, 1107.00
1829, 1108.00
1830, 1107.00
1831, 1106.00
1832, 1104.00
1833, 1104.00
1834, 1102.00
1835, 1102.00
1836, 1100.00
1837, 1100.00
1838, 1101.00
1839, 1097.00
1840, 1098.00
1841, 1094.00
1842, 1094.00
1843, 1093.00
1844, 1092.00
1845, 1091.00
1846, 1091.00
1847, 1089.00
1848, 1088.00
1849, 1087.00
1850, 1087.00
1851, 1084.00
1852, 1084.00
1853, 1083.00
1854, 1081.00
1855, 1079.00
1856, 1080.00
1857, 1078.00
1858, 1078.00
1859, 1077.00
1860, 1075.00
1861, 1074.00
1862, 1073.00
1863, 1071.00
1864, 1070.00
1865, 1070.00
1866, 1069.00
1867, 1068.00
1868, 1068.00
1869, 1067.00
1870, 1065.00
1871, 1066.00
1872, 1067.00
1873, 1065.00
1874, 1064.00
1875, 1063.00
1876, 1062.00
1877, 1063.00
1878, 1062.00
1879, 1062.00
1880, 1061.00
1881, 1059.00
1882, 1060.00
1883, 1059.00
1884, 1059.00
1885, 1061.00
1886, 1058.00
1887, 1059.00
1888, 1060.00
1889, 1058.00
1890, 1059.00
1891, 1058.00
1892, 1057.00
1893, 1056.00
1894, 1055.00
1895, 1058.00
1896, 1055.00
1897, 1058.00
1898, 1057.00
1899, 1057.00
1900, 1056.00
1901, 1056.00
1902, 1055.00
1903, 1055.00
1904, 1056.00
1905, 1055.00
1906, 1055.00
1907, 1055.00
1908, 1054.00
1909, 1056.00
1910, 1054.00
1911, 1053.00
1912, 1054.00
1913, 1053.00
1914, 1054.00
1915, 1053.00
1916, 1055.00
1917, 1053.00
1918, 1054.00
1919, 1054.00
1920, 1053.00
1921, 1053.00
1922, 1054.00
1923, 1053.00
1924, 1052.00
1925, 1053.00
1926, 1052.00
1927, 1053.00
1928, 1052.00
1929, 1052.00
1930, 1055.00
1931, 1053.00
1932, 1054.00
1933, 1052.00
1934, 1054.00
1935, 1054.00
1936, 1056.00
1937, 1053.00
1938, 1054.00
1939, 1054.00
1940, 1053.00
1941, 1054.00
1942, 1056.00
1943, 1055.00
1944, 1055.00
1945, 1054.00
1946, 1054.00
1947, 1056.00
1948, 1055.00
1949, 1056.00
1950, 1055.00
1951, 1056.00
1952, 1057.00
1953, 1055.00
1954, 1055.00
1955, 1057.00
1956, 1055.00
1957, 1056.00
1958, 1056.00
1959, 1056.00
1960, 1058.00
1961, 1058.00
1962, 1057.00
1963, 1056.00
1964, 1057.00
1965, 1058.00
1966, 1059.00
1967, 1059.00
1968, 1058.00
1969, 1059.00
1970, 1060.00
1971, 1058.00
1972, 1061.00
1973, 1061.00
1974, 1061.00
1975, 1059.00
1976, 1060.00
1977, 1060.00
1978, 1062.00
1979, 1062.00
1980, 1063.00
1981, 1061.00
1982, 1063.00
1983, 1064.00
1984, 1062.00
1985, 1065.00
1986, 1062.00
1987, 1063.00
1988, 1063.00
1989, 1064.00
1990, 1065.00
1991, 1065.00
1992, 1065.00
1993, 1066.00
1994, 1066.00
1995, 1064.00
1996, 1066.00
1997, 1067.00
1998, 1065.00
1999, 1067.00
2000, 1068.00
2001, 1066.00
2002, 1068.00
2003, 1068.00
2004, 1068.00
2005, 1068.00
2006, 1067.00
2007, 1067.00
2008, 1070.00
2009, 1069.00
2010, 1069.00
2011, 1068.00
2012, 1070.00
2013, 1071.00
2014, 1071.00
2015, 1072.00
2016, 1071.00
2017, 1070.00
2018, 1071.00
2019, 1071.00
2020, 1071.00
2021, 1073.00
2022, 1072.00
2023, 1071.00
2024, 1074.00
2025, 1073.00
2026, 1072.00
2027, 1074.00
2028, 1076.00
2029, 1076.00
2030, 1075.00
2031, 1076.00
2032, 1074.00
2033, 1077.00
2034, 1077.00
2035, 1076.00
2036, 1076.00
2037, 1077.00
2038, 1077.00
2039, 1079.00
2040, 1077.00
2041, 1080.00
2042, 1079.00
2043, 1079.00
2044, 1079.00
2045, 1082.00
2046, 1080.00
2047, 1081.00
2048, 1081.00
2049, 1084.00
2050, 1082.00
2051, 1082.00
2052, 1082.00
2053, 1084.00
2054, 1084.00
2055, 1086.00
2056, 1085.00
2057, 1085.00
2058, 1086.00
2059, 1087.00
2060, 1087.00
2061, 1087.00
2062, 1087.00
2063, 1088.00
2064, 1088.00
2065, 1090.00
2066, 1090.00
2067, 1089.00
2068, 1091.00
2069, 1092.00
2070, 1092.00
2071, 1093.00
2072, 1093.00
2073, 1092.00
2074, 1093.00
2075, 1094.00
2076, 1094.00
2077, 1096.00
2078, 1095.00
2079, 1095.00
2080, 1095.00
2081, 1096.00
2082, 1096.00
2083, 1097.00
2084, 1097.00
2085, 1099.00
2086, 1097.00
2087, 1097.00
2088, 1098.00
2089, 1098.00
2090, 1099.00
2091, 1101.00
2092, 1099.00
2093, 1101.00
2094, 1101.00
2095, 1099.00
2096, 1100.00
2097, 1101.00
2098, 1101.00
2099, 1103.00
2100, 1103.00
2101, 1103.00
2102, 1104.00
2103, 1104.00
2104, 1104.00
2105, 1106.00
2106, 1105.00
2107, 1103.00
2108, 1104.00
2109, 1106.00
2110, 1104.00
2111, 1106.00
2112, 1106.00
2113, 1106.00
2114, 1105.00
2115, 1106.00
2116, 1106.00
2117, 1107.00
2118, 1106.00
2119, 1108.00
2120, 1108.00
2121, 1108.00
2122, 1109.00
2123, 1108.00
2124, 1107.00
2125, 1107.00
2126, 1109.00
2127, 1108.00
2128, 1109.00
2129, 1109.00
2130, 1109.00
2131, 1109.00
2132, 1109.00
2133, 1110.00
2134, 1109.00
2135, 1110.00
2136, 1109.00
2137, 1111.00
2138, 1110.00
2139, 1110.00
2140, 1110.00
2141, 1111.00
2142, 1112.00
2143, 1112.00
2144, 1110.00
2145, 1112.00
2146, 1113.00
2147, 1112.00
2148, 1111.00
2149, 1113.00
2150, 1113.00
