FW version: 24
Log Version: 3.0.3

General Info:
       Command/Macro Performed,            Timestamp,             Device ID, COM Port, UART/I2C, Test Name, Host Major, Host Minor, Host Revision, Host Git Commit
            Single_measurement,  2023_07_04_11_18_19,       Insight2_F4_xxx,    USB-C,      USB,          ,          0,          1,             1,      4031237645

Show Spectrometer Status:
l0_version, f4_version, battery_perc, battery_mVolt, accelerometer_temp, accelerometer_x, accelerometer_y, accelerometer_z, compass_temp, compass_x, compass_y, compass_z, lamp_0, lamp_1, gain_0, gain_1
        17,         24,           24,          1861,               6096,           64812,            2332,           19312,            0,     65390,     65341,     19323,   3276,   3276,      0,      0

Temperature Statistic Info:
NTC AVG [°C], NTC2 AVG [°C]
      38.040,        37.755

Statistic Info:
M1:  num,      min,      max,   median,      AVG,      STD,M2:  num,      min,      max,   median,      AVG,      STD
     301,   708.00,   817.00,   730.00,   744.04,  33.8149,     401,   906.00,   973.00,   933.00,   935.13,  22.0042,

Measurements:
Wavelength, Data Amplitude
1350, 729.00
1351, 729.00
1352, 728.00
1353, 729.00
1354, 727.00
1355, 727.00
1356, 727.00
1357, 726.00
1358, 726.00
1359, 725.00
1360, 725.00
1361, 724.00
1362, 724.00
1363, 723.00
1364, 723.00
1365, 723.00
1366, 722.00
1367, 722.00
1368, 721.00
1369, 720.00
1370, 720.00
1371, 720.00
1372, 718.00
1373, 718.00
1374, 718.00
1375, 717.00
1376, 716.00
1377, 716.00
1378, 716.00
1379, 716.00
1380, 715.00
1381, 715.00
1382, 714.00
1383, 714.00
1384, 714.00
1385, 713.00
1386, 713.00
1387, 713.00
1388, 712.00
1389, 712.00
1390, 712.00
1391, 711.00
1392, 712.00
1393, 711.00
1394, 711.00
1395, 710.00
1396, 711.00
1397, 710.00
1398, 710.00
1399, 710.00
1400, 710.00
1401, 710.00
1402, 710.00
1403, 710.00
1404, 710.00
1405, 710.00
1406, 710.00
1407, 709.00
1408, 709.00
1409, 709.00
1410, 709.00
1411, 709.00
1412, 709.00
1413, 709.00
1414, 709.00
1415, 709.00
1416, 708.00
1417, 708.00
1418, 709.00
1419, 709.00
1420, 709.00
1421, 709.00
1422, 709.00
1423, 709.00
1424, 709.00
1425, 708.00
1426, 709.00
1427, 709.00
1428, 708.00
1429, 708.00
1430, 709.00
1431, 709.00
1432, 709.00
1433, 709.00
1434, 709.00
1435, 709.00
1436, 709.00
1437, 710.00
1438, 710.00
1439, 710.00
1440, 710.00
1441, 710.00
1442, 711.00
1443, 711.00
1444, 711.00
1445, 711.00
1446, 711.00
1447, 711.00
1448, 711.00
1449, 712.00
1450, 712.00
1451, 712.00
1452, 712.00
1453, 713.00
1454, 713.00
1455, 713.00
1456, 714.00
1457, 714.00
1458, 714.00
1459, 714.00
1460, 714.00
1461, 715.00
1462, 715.00
1463, 715.00
1464, 716.00
1465, 716.00
1466, 716.00
1467, 716.00
1468, 717.00
1469, 717.00
1470, 718.00
1471, 718.00
1472, 719.00
1473, 719.00
1474, 719.00
1475, 719.00
1476, 720.00
1477, 720.00
1478, 720.00
1479, 721.00
1480, 721.00
1481, 722.00
1482, 722.00
1483, 723.00
1484, 723.00
1485, 724.00
1486, 724.00
1487, 724.00
1488, 725.00
1489, 725.00
1490, 725.00
1491, 726.00
1492, 727.00
1493, 727.00
1494, 728.00
1495, 728.00
1496, 728.00
1497, 729.00
1498, 729.00
1499, 729.00
1500, 730.00
1501, 731.00
1502, 731.00
1503, 732.00
1504, 732.00
1505, 732.00
1506, 733.00
1507, 733.00
1508, 734.00
1509, 734.00
1510, 735.00
1511, 735.00
1512, 736.00
1513, 736.00
1514, 737.00
1515, 737.00
1516, 738.00
1517, 738.00
1518, 739.00
1519, 739.00
1520, 740.00
1521, 740.00
1522, 741.00
1523, 741.00
1524, 742.00
1525, 743.00
1526, 743.00
1527, 744.00
1528, 744.00
1529, 745.00
1530, 746.00
1531, 746.00
1532, 747.00
1533, 747.00
1534, 747.00
1535, 748.00
1536, 749.00
1537, 749.00
1538, 750.00
1539, 750.00
1540, 751.00
1541, 752.00
1542, 752.00
1543, 753.00
1544, 753.00
1545, 754.00
1546, 754.00
1547, 755.00
1548, 755.00
1549, 756.00
1550, 756.00
1551, 757.00
1552, 757.00
1553, 758.00
1554, 758.00
1555, 760.00
1556, 760.00
1557, 761.00
1558, 761.00
1559, 762.00
1560, 762.00
1561, 763.00
1562, 764.00
1563, 764.00
1564, 765.00
1565, 766.00
1566, 767.00
1567, 767.00
1568, 768.00
1569, 768.00
1570, 769.00
1571, 769.00
1572, 770.00
1573, 771.00
1574, 771.00
1575, 772.00
1576, 773.00
1577, 773.00
1578, 774.00
1579, 774.00
1580, 775.00
1581, 775.00
1582, 776.00
1583, 776.00
1584, 777.00
1585, 777.00
1586, 778.00
1587, 778.00
1588, 779.00
1589, 780.00
1590, 780.00
1591, 780.00
1592, 781.00
1593, 781.00
1594, 782.00
1595, 783.00
1596, 783.00
1597, 784.00
1598, 785.00
1599, 785.00
1600, 786.00
1601, 786.00
1602, 787.00
1603, 787.00
1604, 788.00
1605, 789.00
1606, 789.00
1607, 790.00
1608, 791.00
1609, 792.00
1610, 792.00
1611, 792.00
1612, 793.00
1613, 794.00
1614, 794.00
1615, 795.00
1616, 796.00
1617, 797.00
1618, 797.00
1619, 798.00
1620, 799.00
1621, 800.00
1622, 800.00
1623, 801.00
1624, 801.00
1625, 802.00
1626, 803.00
1627, 804.00
1628, 804.00
1629, 805.00
1630, 806.00
1631, 806.00
1632, 807.00
1633, 807.00
1634, 808.00
1635, 808.00
1636, 809.00
1637, 809.00
1638, 810.00
1639, 811.00
1640, 811.00
1641, 812.00
1642, 812.00
1643, 813.00
1644, 814.00
1645, 814.00
1646, 815.00
1647, 816.00
1648, 816.00
1649, 816.00
1650, 817.00

1750, 973.00
1751, 973.00
1752, 973.00
1753, 973.00
1754, 972.00
1755, 973.00
1756, 973.00
1757, 973.00
1758, 973.00
1759, 973.00
1760, 973.00
1761, 972.00
1762, 973.00
1763, 972.00
1764, 972.00
1765, 972.00
1766, 972.00
1767, 972.00
1768, 972.00
1769, 971.00
1770, 971.00
1771, 971.00
1772, 972.00
1773, 971.00
1774, 971.00
1775, 970.00
1776, 971.00
1777, 971.00
1778, 971.00
1779, 970.00
1780, 969.00
1781, 970.00
1782, 970.00
1783, 970.00
1784, 969.00
1785, 968.00
1786, 969.00
1787, 968.00
1788, 968.00
1789, 968.00
1790, 967.00
1791, 968.00
1792, 967.00
1793, 967.00
1794, 966.00
1795, 967.00
1796, 966.00
1797, 966.00
1798, 966.00
1799, 966.00
1800, 965.00
1801, 966.00
1802, 965.00
1803, 965.00
1804, 965.00
1805, 964.00
1806, 964.00
1807, 964.00
1808, 964.00
1809, 963.00
1810, 963.00
1811, 963.00
1812, 963.00
1813, 963.00
1814, 962.00
1815, 961.00
1816, 962.00
1817, 961.00
1818, 961.00
1819, 961.00
1820, 960.00
1821, 960.00
1822, 959.00
1823, 959.00
1824, 959.00
1825, 958.00
1826, 957.00
1827, 957.00
1828, 956.00
1829, 956.00
1830, 955.00
1831, 955.00
1832, 954.00
1833, 953.00
1834, 952.00
1835, 952.00
1836, 950.00
1837, 950.00
1838, 949.00
1839, 948.00
1840, 947.00
1841, 946.00
1842, 945.00
1843, 944.00
1844, 943.00
1845, 942.00
1846, 941.00
1847, 940.00
1848, 939.00
1849, 938.00
1850, 937.00
1851, 936.00
1852, 934.00
1853, 933.00
1854, 932.00
1855, 931.00
1856, 931.00
1857, 930.00
1858, 928.00
1859, 927.00
1860, 927.00
1861, 926.00
1862, 925.00
1863, 924.00
1864, 923.00
1865, 922.00
1866, 921.00
1867, 920.00
1868, 920.00
1869, 919.00
1870, 918.00
1871, 918.00
1872, 918.00
1873, 917.00
1874, 916.00
1875, 916.00
1876, 916.00
1877, 915.00
1878, 914.00
1879, 914.00
1880, 914.00
1881, 913.00
1882, 914.00
1883, 912.00
1884, 913.00
1885, 912.00
1886, 912.00
1887, 912.00
1888, 912.00
1889, 911.00
1890, 911.00
1891, 911.00
1892, 910.00
1893, 910.00
1894, 910.00
1895, 910.00
1896, 909.00
1897, 909.00
1898, 909.00
1899, 908.00
1900, 909.00
1901, 908.00
1902, 909.00
1903, 908.00
1904, 908.00
1905, 908.00
1906, 908.00
1907, 907.00
1908, 907.00
1909, 907.00
1910, 907.00
1911, 907.00
1912, 907.00
1913, 907.00
1914, 907.00
1915, 907.00
1916, 907.00
1917, 907.00
1918, 907.00
1919, 907.00
1920, 907.00
1921, 906.00
1922, 906.00
1923, 906.00
1924, 906.00
1925, 906.00
1926, 906.00
1927, 907.00
1928, 906.00
1929, 906.00
1930, 907.00
1931, 907.00
1932, 907.00
1933, 906.00
1934, 906.00
1935, 907.00
1936, 907.00
1937, 907.00
1938, 906.00
1939, 907.00
1940, 906.00
1941, 907.00
1942, 907.00
1943, 907.00
1944, 907.00
1945, 907.00
1946, 907.00
1947, 908.00
1948, 908.00
1949, 908.00
1950, 908.00
1951, 908.00
1952, 908.00
1953, 909.00
1954, 908.00
1955, 909.00
1956, 909.00
1957, 909.00
1958, 909.00
1959, 909.00
1960, 909.00
1961, 910.00
1962, 910.00
1963, 910.00
1964, 909.00
1965, 909.00
1966, 911.00
1967, 911.00
1968, 911.00
1969, 911.00
1970, 911.00
1971, 912.00
1972, 912.00
1973, 912.00
1974, 912.00
1975, 912.00
1976, 913.00
1977, 913.00
1978, 913.00
1979, 913.00
1980, 914.00
1981, 914.00
1982, 914.00
1983, 914.00
1984, 914.00
1985, 914.00
1986, 915.00
1987, 915.00
1988, 916.00
1989, 915.00
1990, 915.00
1991, 915.00
1992, 916.00
1993, 917.00
1994, 917.00
1995, 917.00
1996, 917.00
1997, 918.00
1998, 917.00
1999, 918.00
2000, 919.00
2001, 918.00
2002, 918.00
2003, 919.00
2004, 919.00
2005, 920.00
2006, 920.00
2007, 919.00
2008, 919.00
2009, 920.00
2010, 921.00
2011, 921.00
2012, 921.00
2013, 921.00
2014, 922.00
2015, 922.00
2016, 922.00
2017, 922.00
2018, 922.00
2019, 922.00
2020, 923.00
2021, 923.00
2022, 923.00
2023, 924.00
2024, 924.00
2025, 924.00
2026, 924.00
2027, 925.00
2028, 924.00
2029, 925.00
2030, 925.00
2031, 925.00
2032, 926.00
2033, 927.00
2034, 927.00
2035, 927.00
2036, 928.00
2037, 927.00
2038, 928.00
2039, 928.00
2040, 928.00
2041, 929.00
2042, 929.00
2043, 929.00
2044, 930.00
2045, 930.00
2046, 930.00
2047, 930.00
2048, 931.00
2049, 931.00
2050, 931.00
2051, 932.00
2052, 933.00
2053, 933.00
2054, 933.00
2055, 933.00
2056, 934.00
2057, 935.00
2058, 934.00
2059, 935.00
2060, 936.00
2061, 936.00
2062, 936.00
2063, 936.00
2064, 937.00
2065, 937.00
2066, 937.00
2067, 939.00
2068, 938.00
2069, 939.00
2070, 939.00
2071, 940.00
2072, 939.00
2073, 940.00
2074, 940.00
2075, 941.00
2076, 941.00
2077, 941.00
2078, 942.00
2079, 942.00
2080, 943.00
2081, 943.00
2082, 943.00
2083, 943.00
2084, 943.00
2085, 944.00
2086, 945.00
2087, 944.00
2088, 945.00
2089, 945.00
2090, 945.00
2091, 946.00
2092, 946.00
2093, 945.00
2094, 947.00
2095, 947.00
2096, 947.00
2097, 947.00
2098, 947.00
2099, 947.00
2100, 947.00
2101, 948.00
2102, 948.00
2103, 949.00
2104, 949.00
2105, 949.00
2106, 949.00
2107, 950.00
2108, 950.00
2109, 949.00
2110, 950.00
2111, 951.00
2112, 951.00
2113, 951.00
2114, 951.00
2115, 951.00
2116, 951.00
2117, 951.00
2118, 951.00
2119, 951.00
2120, 951.00
2121, 952.00
2122, 952.00
2123, 952.00
2124, 952.00
2125, 952.00
2126, 952.00
2127, 953.00
2128, 953.00
2129, 953.00
2130, 953.00
2131, 954.00
2132, 953.00
2133, 954.00
2134, 953.00
2135, 954.00
2136, 954.00
2137, 954.00
2138, 954.00
2139, 955.00
2140, 955.00
2141, 955.00
2142, 954.00
2143, 954.00
2144, 955.00
2145, 955.00
2146, 955.00
2147, 956.00
2148, 955.00
2149, 955.00
2150, 955.00
