FW version: 24
Log Version: 3.0.3

General Info:
       Command/Macro Performed,            Timestamp,             Device ID, COM Port, UART/I2C, Test Name, Host Major, Host Minor, Host Revision, Host Git Commit
            Single_measurement,  2023_06_27_12_34_41,       Insight2_F4_xxx,    USB-C,      USB,          ,          0,          1,             1,      4031237645

Show Spectrometer Status:
l0_version, f4_version, battery_perc, battery_mVolt, accelerometer_temp, accelerometer_x, accelerometer_y, accelerometer_z, compass_temp, compass_x, compass_y, compass_z, lamp_0, lamp_1, gain_0, gain_1
        17,         24,           95,          2078,               5584,             676,           64960,           18224,            0,     65527,     65486,     65460,   3276,   3276,    1,    1

Temperature Statistic Info:
NTC AVG [°C], NTC2 AVG [°C]
      37.353,        37.092

Statistic Info:
M1:  num,      min,      max,   median,      AVG,      STD,M2:  num,      min,      max,   median,      AVG,      STD
     301,  1922.00,  2173.00,  1979.00,  2003.89,  77.9495,     401,  2557.00,  2713.00,  2639.00,  2635.10,  52.6475,

Measurements:
Wavelength, Data Amplitude
1350, 1953.00
1351, 1951.00
1352, 1951.00
1353, 1950.00
1354, 1949.00
1355, 1948.00
1356, 1950.00
1357, 1949.00
1358, 1948.00
1359, 1947.00
1360, 1948.00
1361, 1946.00
1362, 1946.00
1363, 1944.00
1364, 1943.00
1365, 1945.00
1366, 1942.00
1367, 1942.00
1368, 1941.00
1369, 1940.00
1370, 1939.00
1371, 1938.00
1372, 1938.00
1373, 1936.00
1374, 1935.00
1375, 1935.00
1376, 1934.00
1377, 1934.00
1378, 1932.00
1379, 1932.00
1380, 1932.00
1381, 1931.00
1382, 1931.00
1383, 1929.00
1384, 1930.00
1385, 1927.00
1386, 1927.00
1387, 1927.00
1388, 1926.00
1389, 1926.00
1390, 1926.00
1391, 1926.00
1392, 1925.00
1393, 1925.00
1394, 1925.00
1395, 1924.00
1396, 1925.00
1397, 1925.00
1398, 1924.00
1399, 1923.00
1400, 1922.00
1401, 1923.00
1402, 1923.00
1403, 1923.00
1404, 1923.00
1405, 1923.00
1406, 1922.00
1407, 1923.00
1408, 1922.00
1409, 1922.00
1410, 1922.00
1411, 1922.00
1412, 1923.00
1413, 1923.00
1414, 1922.00
1415, 1922.00
1416, 1922.00
1417, 1922.00
1418, 1922.00
1419, 1922.00
1420, 1922.00
1421, 1923.00
1422, 1922.00
1423, 1922.00
1424, 1922.00
1425, 1922.00
1426, 1923.00
1427, 1924.00
1428, 1924.00
1429, 1924.00
1430, 1924.00
1431, 1924.00
1432, 1924.00
1433, 1925.00
1434, 1925.00
1435, 1926.00
1436, 1926.00
1437, 1927.00
1438, 1928.00
1439, 1928.00
1440, 1928.00
1441, 1929.00
1442, 1928.00
1443, 1930.00
1444, 1931.00
1445, 1930.00
1446, 1931.00
1447, 1932.00
1448, 1931.00
1449, 1932.00
1450, 1933.00
1451, 1933.00
1452, 1935.00
1453, 1936.00
1454, 1936.00
1455, 1937.00
1456, 1937.00
1457, 1938.00
1458, 1939.00
1459, 1939.00
1460, 1940.00
1461, 1942.00
1462, 1942.00
1463, 1942.00
1464, 1942.00
1465, 1945.00
1466, 1945.00
1467, 1945.00
1468, 1945.00
1469, 1945.00
1470, 1947.00
1471, 1949.00
1472, 1949.00
1473, 1951.00
1474, 1951.00
1475, 1952.00
1476, 1953.00
1477, 1955.00
1478, 1955.00
1479, 1957.00
1480, 1957.00
1481, 1959.00
1482, 1959.00
1483, 1961.00
1484, 1962.00
1485, 1962.00
1486, 1963.00
1487, 1963.00
1488, 1965.00
1489, 1967.00
1490, 1967.00
1491, 1969.00
1492, 1969.00
1493, 1971.00
1494, 1972.00
1495, 1972.00
1496, 1975.00
1497, 1974.00
1498, 1974.00
1499, 1976.00
1500, 1979.00
1501, 1979.00
1502, 1980.00
1503, 1979.00
1504, 1981.00
1505, 1983.00
1506, 1984.00
1507, 1984.00
1508, 1985.00
1509, 1985.00
1510, 1988.00
1511, 1989.00
1512, 1989.00
1513, 1991.00
1514, 1992.00
1515, 1993.00
1516, 1994.00
1517, 1995.00
1518, 1996.00
1519, 1998.00
1520, 1999.00
1521, 2001.00
1522, 2001.00
1523, 2003.00
1524, 2003.00
1525, 2005.00
1526, 2005.00
1527, 2007.00
1528, 2008.00
1529, 2009.00
1530, 2009.00
1531, 2011.00
1532, 2013.00
1533, 2014.00
1534, 2015.00
1535, 2016.00
1536, 2017.00
1537, 2019.00
1538, 2020.00
1539, 2021.00
1540, 2021.00
1541, 2023.00
1542, 2024.00
1543, 2026.00
1544, 2027.00
1545, 2028.00
1546, 2029.00
1547, 2030.00
1548, 2031.00
1549, 2033.00
1550, 2033.00
1551, 2035.00
1552, 2036.00
1553, 2039.00
1554, 2038.00
1555, 2041.00
1556, 2041.00
1557, 2042.00
1558, 2045.00
1559, 2046.00
1560, 2047.00
1561, 2047.00
1562, 2051.00
1563, 2051.00
1564, 2053.00
1565, 2055.00
1566, 2056.00
1567, 2057.00
1568, 2058.00
1569, 2061.00
1570, 2062.00
1571, 2062.00
1572, 2065.00
1573, 2065.00
1574, 2067.00
1575, 2068.00
1576, 2069.00
1577, 2071.00
1578, 2072.00
1579, 2073.00
1580, 2074.00
1581, 2076.00
1582, 2078.00
1583, 2078.00
1584, 2080.00
1585, 2080.00
1586, 2082.00
1587, 2083.00
1588, 2085.00
1589, 2085.00
1590, 2087.00
1591, 2087.00
1592, 2089.00
1593, 2090.00
1594, 2091.00
1595, 2092.00
1596, 2093.00
1597, 2096.00
1598, 2096.00
1599, 2098.00
1600, 2099.00
1601, 2101.00
1602, 2102.00
1603, 2102.00
1604, 2104.00
1605, 2105.00
1606, 2107.00
1607, 2108.00
1608, 2110.00
1609, 2112.00
1610, 2113.00
1611, 2115.00
1612, 2117.00
1613, 2118.00
1614, 2120.00
1615, 2121.00
1616, 2122.00
1617, 2124.00
1618, 2126.00
1619, 2126.00
1620, 2129.00
1621, 2130.00
1622, 2131.00
1623, 2133.00
1624, 2135.00
1625, 2135.00
1626, 2138.00
1627, 2141.00
1628, 2142.00
1629, 2142.00
1630, 2145.00
1631, 2146.00
1632, 2147.00
1633, 2147.00
1634, 2150.00
1635, 2151.00
1636, 2153.00
1637, 2155.00
1638, 2156.00
1639, 2157.00
1640, 2158.00
1641, 2161.00
1642, 2159.00
1643, 2161.00
1644, 2163.00
1645, 2165.00
1646, 2165.00
1647, 2167.00
1648, 2169.00
1649, 2169.00
1650, 2173.00

1750, 2712.00
1751, 2709.00
1752, 2711.00
1753, 2711.00
1754, 2711.00
1755, 2710.00
1756, 2709.00
1757, 2709.00
1758, 2713.00
1759, 2710.00
1760, 2710.00
1761, 2713.00
1762, 2710.00
1763, 2709.00
1764, 2709.00
1765, 2709.00
1766, 2709.00
1767, 2707.00
1768, 2706.00
1769, 2708.00
1770, 2709.00
1771, 2709.00
1772, 2708.00
1773, 2706.00
1774, 2707.00
1775, 2706.00
1776, 2704.00
1777, 2705.00
1778, 2705.00
1779, 2705.00
1780, 2705.00
1781, 2700.00
1782, 2701.00
1783, 2704.00
1784, 2702.00
1785, 2702.00
1786, 2701.00
1787, 2701.00
1788, 2700.00
1789, 2699.00
1790, 2699.00
1791, 2698.00
1792, 2698.00
1793, 2697.00
1794, 2699.00
1795, 2696.00
1796, 2696.00
1797, 2696.00
1798, 2696.00
1799, 2694.00
1800, 2695.00
1801, 2693.00
1802, 2693.00
1803, 2693.00
1804, 2693.00
1805, 2693.00
1806, 2692.00
1807, 2691.00
1808, 2691.00
1809, 2689.00
1810, 2690.00
1811, 2689.00
1812, 2692.00
1813, 2688.00
1814, 2689.00
1815, 2687.00
1816, 2688.00
1817, 2688.00
1818, 2687.00
1819, 2686.00
1820, 2686.00
1821, 2685.00
1822, 2686.00
1823, 2684.00
1824, 2682.00
1825, 2683.00
1826, 2683.00
1827, 2680.00
1828, 2678.00
1829, 2678.00
1830, 2680.00
1831, 2676.00
1832, 2672.00
1833, 2671.00
1834, 2671.00
1835, 2671.00
1836, 2670.00
1837, 2666.00
1838, 2666.00
1839, 2662.00
1840, 2661.00
1841, 2659.00
1842, 2658.00
1843, 2655.00
1844, 2654.00
1845, 2651.00
1846, 2649.00
1847, 2646.00
1848, 2645.00
1849, 2641.00
1850, 2641.00
1851, 2638.00
1852, 2634.00
1853, 2633.00
1854, 2628.00
1855, 2626.00
1856, 2624.00
1857, 2622.00
1858, 2618.00
1859, 2617.00
1860, 2614.00
1861, 2611.00
1862, 2608.00
1863, 2608.00
1864, 2605.00
1865, 2600.00
1866, 2599.00
1867, 2596.00
1868, 2594.00
1869, 2594.00
1870, 2592.00
1871, 2592.00
1872, 2588.00
1873, 2587.00
1874, 2584.00
1875, 2584.00
1876, 2582.00
1877, 2581.00
1878, 2579.00
1879, 2580.00
1880, 2577.00
1881, 2575.00
1882, 2574.00
1883, 2573.00
1884, 2572.00
1885, 2571.00
1886, 2570.00
1887, 2571.00
1888, 2569.00
1889, 2570.00
1890, 2569.00
1891, 2568.00
1892, 2567.00
1893, 2566.00
1894, 2566.00
1895, 2565.00
1896, 2564.00
1897, 2563.00
1898, 2563.00
1899, 2564.00
1900, 2562.00
1901, 2562.00
1902, 2563.00
1903, 2562.00
1904, 2563.00
1905, 2561.00
1906, 2561.00
1907, 2562.00
1908, 2560.00
1909, 2561.00
1910, 2558.00
1911, 2560.00
1912, 2560.00
1913, 2558.00
1914, 2558.00
1915, 2559.00
1916, 2560.00
1917, 2559.00
1918, 2559.00
1919, 2557.00
1920, 2558.00
1921, 2558.00
1922, 2559.00
1923, 2558.00
1924, 2559.00
1925, 2558.00
1926, 2558.00
1927, 2559.00
1928, 2559.00
1929, 2559.00
1930, 2559.00
1931, 2560.00
1932, 2559.00
1933, 2560.00
1934, 2562.00
1935, 2559.00
1936, 2558.00
1937, 2561.00
1938, 2562.00
1939, 2560.00
1940, 2562.00
1941, 2560.00
1942, 2564.00
1943, 2562.00
1944, 2563.00
1945, 2562.00
1946, 2564.00
1947, 2563.00
1948, 2564.00
1949, 2565.00
1950, 2566.00
1951, 2566.00
1952, 2568.00
1953, 2567.00
1954, 2566.00
1955, 2568.00
1956, 2568.00
1957, 2570.00
1958, 2571.00
1959, 2571.00
1960, 2572.00
1961, 2571.00
1962, 2571.00
1963, 2572.00
1964, 2571.00
1965, 2577.00
1966, 2575.00
1967, 2575.00
1968, 2575.00
1969, 2578.00
1970, 2576.00
1971, 2577.00
1972, 2579.00
1973, 2581.00
1974, 2580.00
1975, 2582.00
1976, 2581.00
1977, 2583.00
1978, 2583.00
1979, 2583.00
1980, 2584.00
1981, 2585.00
1982, 2584.00
1983, 2588.00
1984, 2588.00
1985, 2588.00
1986, 2588.00
1987, 2589.00
1988, 2590.00
1989, 2591.00
1990, 2592.00
1991, 2593.00
1992, 2594.00
1993, 2595.00
1994, 2595.00
1995, 2595.00
1996, 2596.00
1997, 2598.00
1998, 2600.00
1999, 2598.00
2000, 2601.00
2001, 2601.00
2002, 2599.00
2003, 2600.00
2004, 2601.00
2005, 2604.00
2006, 2602.00
2007, 2606.00
2008, 2605.00
2009, 2607.00
2010, 2606.00
2011, 2607.00
2012, 2608.00
2013, 2608.00
2014, 2608.00
2015, 2610.00
2016, 2609.00
2017, 2611.00
2018, 2612.00
2019, 2612.00
2020, 2613.00
2021, 2613.00
2022, 2613.00
2023, 2616.00
2024, 2619.00
2025, 2615.00
2026, 2617.00
2027, 2620.00
2028, 2619.00
2029, 2620.00
2030, 2620.00
2031, 2620.00
2032, 2621.00
2033, 2622.00
2034, 2622.00
2035, 2623.00
2036, 2625.00
2037, 2626.00
2038, 2627.00
2039, 2628.00
2040, 2630.00
2041, 2629.00
2042, 2630.00
2043, 2631.00
2044, 2631.00
2045, 2632.00
2046, 2632.00
2047, 2633.00
2048, 2635.00
2049, 2639.00
2050, 2636.00
2051, 2638.00
2052, 2641.00
2053, 2641.00
2054, 2640.00
2055, 2641.00
2056, 2642.00
2057, 2644.00
2058, 2647.00
2059, 2647.00
2060, 2648.00
2061, 2648.00
2062, 2651.00
2063, 2649.00
2064, 2650.00
2065, 2654.00
2066, 2652.00
2067, 2654.00
2068, 2655.00
2069, 2656.00
2070, 2659.00
2071, 2657.00
2072, 2659.00
2073, 2661.00
2074, 2661.00
2075, 2663.00
2076, 2664.00
2077, 2664.00
2078, 2666.00
2079, 2665.00
2080, 2667.00
2081, 2667.00
2082, 2668.00
2083, 2669.00
2084, 2670.00
2085, 2671.00
2086, 2671.00
2087, 2671.00
2088, 2673.00
2089, 2673.00
2090, 2674.00
2091, 2674.00
2092, 2674.00
2093, 2676.00
2094, 2678.00
2095, 2677.00
2096, 2679.00
2097, 2679.00
2098, 2679.00
2099, 2679.00
2100, 2680.00
2101, 2681.00
2102, 2681.00
2103, 2683.00
2104, 2682.00
2105, 2682.00
2106, 2683.00
2107, 2683.00
2108, 2685.00
2109, 2683.00
2110, 2685.00
2111, 2685.00
2112, 2684.00
2113, 2685.00
2114, 2685.00
2115, 2687.00
2116, 2686.00
2117, 2688.00
2118, 2689.00
2119, 2686.00
2120, 2687.00
2121, 2687.00
2122, 2688.00
2123, 2687.00
2124, 2690.00
2125, 2689.00
2126, 2688.00
2127, 2690.00
2128, 2691.00
2129, 2687.00
2130, 2690.00
2131, 2691.00
2132, 2691.00
2133, 2691.00
2134, 2691.00
2135, 2692.00
2136, 2691.00
2137, 2691.00
2138, 2691.00
2139, 2694.00
2140, 2694.00
2141, 2692.00
2142, 2694.00
2143, 2691.00
2144, 2693.00
2145, 2693.00
2146, 2694.00
2147, 2694.00
2148, 2696.00
2149, 2693.00
2150, 2693.00
