FW version: 24
Log Version: 3.0.3

General Info:
       Command/Macro Performed,            Timestamp,             Device ID, COM Port, UART/I2C, Test Name, Host Major, Host Minor, Host Revision, Host Git Commit
            Single_measurement,  2023_06_27_12_33_58,       Insight2_F4_xxx,    USB-C,      USB,          ,          0,          1,             1,      4031237645

Show Spectrometer Status:
l0_version, f4_version, battery_perc, battery_mVolt, accelerometer_temp, accelerometer_x, accelerometer_y, accelerometer_z, compass_temp, compass_x, compass_y, compass_z, lamp_0, lamp_1, gain_0, gain_1
        17,         24,           95,          2078,               5536,             716,           64948,           18520,            0,     65500,     65535,     65403,   3276,   3276,    0,    0

Temperature Statistic Info:
NTC AVG [°C], NTC2 AVG [°C]
      37.033,        36.750

Statistic Info:
M1:  num,      min,      max,   median,      AVG,      STD,M2:  num,      min,      max,   median,      AVG,      STD
     301,   665.00,   751.00,   684.00,   693.37,  26.8293,     401,   886.00,   940.00,   914.00,   913.02,  18.2058,

Measurements:
Wavelength, Data Amplitude
1350, 676.00
1351, 676.00
1352, 675.00
1353, 675.00
1354, 675.00
1355, 675.00
1356, 675.00
1357, 675.00
1358, 674.00
1359, 674.00
1360, 674.00
1361, 674.00
1362, 674.00
1363, 674.00
1364, 673.00
1365, 672.00
1366, 673.00
1367, 672.00
1368, 672.00
1369, 672.00
1370, 671.00
1371, 671.00
1372, 671.00
1373, 670.00
1374, 670.00
1375, 670.00
1376, 669.00
1377, 669.00
1378, 669.00
1379, 669.00
1380, 669.00
1381, 668.00
1382, 668.00
1383, 667.00
1384, 668.00
1385, 667.00
1386, 667.00
1387, 667.00
1388, 667.00
1389, 667.00
1390, 666.00
1391, 666.00
1392, 667.00
1393, 666.00
1394, 666.00
1395, 666.00
1396, 666.00
1397, 666.00
1398, 666.00
1399, 666.00
1400, 666.00
1401, 666.00
1402, 666.00
1403, 665.00
1404, 665.00
1405, 666.00
1406, 665.00
1407, 666.00
1408, 665.00
1409, 666.00
1410, 665.00
1411, 665.00
1412, 665.00
1413, 665.00
1414, 665.00
1415, 665.00
1416, 665.00
1417, 665.00
1418, 665.00
1419, 665.00
1420, 666.00
1421, 665.00
1422, 665.00
1423, 665.00
1424, 665.00
1425, 665.00
1426, 666.00
1427, 666.00
1428, 666.00
1429, 666.00
1430, 666.00
1431, 666.00
1432, 666.00
1433, 666.00
1434, 666.00
1435, 666.00
1436, 667.00
1437, 667.00
1438, 667.00
1439, 667.00
1440, 668.00
1441, 667.00
1442, 667.00
1443, 667.00
1444, 668.00
1445, 668.00
1446, 668.00
1447, 669.00
1448, 669.00
1449, 669.00
1450, 668.00
1451, 669.00
1452, 669.00
1453, 669.00
1454, 670.00
1455, 670.00
1456, 670.00
1457, 671.00
1458, 671.00
1459, 671.00
1460, 671.00
1461, 672.00
1462, 672.00
1463, 672.00
1464, 673.00
1465, 673.00
1466, 673.00
1467, 673.00
1468, 673.00
1469, 674.00
1470, 674.00
1471, 674.00
1472, 675.00
1473, 675.00
1474, 675.00
1475, 676.00
1476, 676.00
1477, 676.00
1478, 677.00
1479, 677.00
1480, 677.00
1481, 677.00
1482, 678.00
1483, 678.00
1484, 679.00
1485, 679.00
1486, 679.00
1487, 679.00
1488, 680.00
1489, 680.00
1490, 681.00
1491, 681.00
1492, 682.00
1493, 682.00
1494, 682.00
1495, 683.00
1496, 683.00
1497, 683.00
1498, 683.00
1499, 684.00
1500, 684.00
1501, 685.00
1502, 685.00
1503, 685.00
1504, 685.00
1505, 686.00
1506, 686.00
1507, 686.00
1508, 687.00
1509, 687.00
1510, 688.00
1511, 688.00
1512, 688.00
1513, 689.00
1514, 690.00
1515, 689.00
1516, 690.00
1517, 691.00
1518, 691.00
1519, 692.00
1520, 691.00
1521, 692.00
1522, 692.00
1523, 693.00
1524, 693.00
1525, 693.00
1526, 694.00
1527, 695.00
1528, 694.00
1529, 695.00
1530, 696.00
1531, 696.00
1532, 696.00
1533, 696.00
1534, 697.00
1535, 697.00
1536, 698.00
1537, 698.00
1538, 699.00
1539, 699.00
1540, 700.00
1541, 700.00
1542, 700.00
1543, 701.00
1544, 701.00
1545, 702.00
1546, 702.00
1547, 702.00
1548, 703.00
1549, 703.00
1550, 704.00
1551, 704.00
1552, 704.00
1553, 705.00
1554, 705.00
1555, 706.00
1556, 707.00
1557, 707.00
1558, 707.00
1559, 708.00
1560, 708.00
1561, 709.00
1562, 709.00
1563, 710.00
1564, 710.00
1565, 711.00
1566, 711.00
1567, 712.00
1568, 712.00
1569, 713.00
1570, 713.00
1571, 713.00
1572, 714.00
1573, 715.00
1574, 715.00
1575, 715.00
1576, 716.00
1577, 717.00
1578, 717.00
1579, 717.00
1580, 717.00
1581, 719.00
1582, 719.00
1583, 719.00
1584, 720.00
1585, 720.00
1586, 720.00
1587, 720.00
1588, 721.00
1589, 722.00
1590, 721.00
1591, 722.00
1592, 723.00
1593, 723.00
1594, 724.00
1595, 724.00
1596, 725.00
1597, 725.00
1598, 725.00
1599, 725.00
1600, 726.00
1601, 726.00
1602, 727.00
1603, 727.00
1604, 727.00
1605, 729.00
1606, 729.00
1607, 729.00
1608, 730.00
1609, 730.00
1610, 731.00
1611, 732.00
1612, 732.00
1613, 733.00
1614, 733.00
1615, 733.00
1616, 734.00
1617, 734.00
1618, 735.00
1619, 735.00
1620, 736.00
1621, 737.00
1622, 737.00
1623, 738.00
1624, 738.00
1625, 739.00
1626, 740.00
1627, 740.00
1628, 741.00
1629, 741.00
1630, 742.00
1631, 742.00
1632, 743.00
1633, 744.00
1634, 744.00
1635, 744.00
1636, 745.00
1637, 745.00
1638, 746.00
1639, 746.00
1640, 746.00
1641, 747.00
1642, 748.00
1643, 748.00
1644, 748.00
1645, 749.00
1646, 749.00
1647, 749.00
1648, 750.00
1649, 751.00
1650, 751.00

1750, 939.00
1751, 940.00
1752, 939.00
1753, 939.00
1754, 939.00
1755, 939.00
1756, 939.00
1757, 939.00
1758, 940.00
1759, 939.00
1760, 940.00
1761, 939.00
1762, 940.00
1763, 939.00
1764, 939.00
1765, 939.00
1766, 938.00
1767, 939.00
1768, 939.00
1769, 938.00
1770, 938.00
1771, 938.00
1772, 938.00
1773, 938.00
1774, 938.00
1775, 938.00
1776, 938.00
1777, 937.00
1778, 937.00
1779, 937.00
1780, 937.00
1781, 937.00
1782, 937.00
1783, 936.00
1784, 937.00
1785, 936.00
1786, 936.00
1787, 935.00
1788, 936.00
1789, 935.00
1790, 935.00
1791, 935.00
1792, 935.00
1793, 935.00
1794, 934.00
1795, 934.00
1796, 934.00
1797, 934.00
1798, 934.00
1799, 934.00
1800, 934.00
1801, 934.00
1802, 933.00
1803, 933.00
1804, 933.00
1805, 933.00
1806, 933.00
1807, 933.00
1808, 933.00
1809, 932.00
1810, 932.00
1811, 932.00
1812, 931.00
1813, 932.00
1814, 932.00
1815, 931.00
1816, 931.00
1817, 931.00
1818, 931.00
1819, 931.00
1820, 931.00
1821, 930.00
1822, 930.00
1823, 930.00
1824, 929.00
1825, 930.00
1826, 929.00
1827, 929.00
1828, 929.00
1829, 929.00
1830, 927.00
1831, 927.00
1832, 926.00
1833, 926.00
1834, 925.00
1835, 926.00
1836, 925.00
1837, 924.00
1838, 924.00
1839, 923.00
1840, 922.00
1841, 922.00
1842, 921.00
1843, 920.00
1844, 919.00
1845, 919.00
1846, 918.00
1847, 917.00
1848, 916.00
1849, 915.00
1850, 914.00
1851, 913.00
1852, 913.00
1853, 912.00
1854, 910.00
1855, 910.00
1856, 909.00
1857, 909.00
1858, 908.00
1859, 906.00
1860, 905.00
1861, 904.00
1862, 904.00
1863, 904.00
1864, 903.00
1865, 902.00
1866, 901.00
1867, 900.00
1868, 899.00
1869, 899.00
1870, 898.00
1871, 898.00
1872, 897.00
1873, 896.00
1874, 895.00
1875, 895.00
1876, 895.00
1877, 895.00
1878, 894.00
1879, 894.00
1880, 893.00
1881, 893.00
1882, 893.00
1883, 892.00
1884, 892.00
1885, 892.00
1886, 891.00
1887, 890.00
1888, 890.00
1889, 890.00
1890, 890.00
1891, 890.00
1892, 890.00
1893, 889.00
1894, 889.00
1895, 889.00
1896, 889.00
1897, 888.00
1898, 888.00
1899, 888.00
1900, 889.00
1901, 888.00
1902, 888.00
1903, 888.00
1904, 887.00
1905, 887.00
1906, 888.00
1907, 887.00
1908, 887.00
1909, 887.00
1910, 887.00
1911, 887.00
1912, 887.00
1913, 887.00
1914, 887.00
1915, 887.00
1916, 886.00
1917, 887.00
1918, 887.00
1919, 887.00
1920, 887.00
1921, 887.00
1922, 887.00
1923, 887.00
1924, 887.00
1925, 887.00
1926, 887.00
1927, 886.00
1928, 887.00
1929, 887.00
1930, 887.00
1931, 887.00
1932, 887.00
1933, 887.00
1934, 887.00
1935, 887.00
1936, 887.00
1937, 887.00
1938, 887.00
1939, 887.00
1940, 887.00
1941, 887.00
1942, 888.00
1943, 888.00
1944, 888.00
1945, 889.00
1946, 889.00
1947, 888.00
1948, 889.00
1949, 889.00
1950, 889.00
1951, 890.00
1952, 889.00
1953, 889.00
1954, 889.00
1955, 890.00
1956, 889.00
1957, 890.00
1958, 890.00
1959, 891.00
1960, 890.00
1961, 892.00
1962, 891.00
1963, 891.00
1964, 892.00
1965, 892.00
1966, 893.00
1967, 892.00
1968, 892.00
1969, 893.00
1970, 893.00
1971, 893.00
1972, 894.00
1973, 894.00
1974, 894.00
1975, 895.00
1976, 895.00
1977, 895.00
1978, 895.00
1979, 896.00
1980, 896.00
1981, 895.00
1982, 895.00
1983, 896.00
1984, 895.00
1985, 896.00
1986, 897.00
1987, 897.00
1988, 897.00
1989, 897.00
1990, 898.00
1991, 898.00
1992, 899.00
1993, 899.00
1994, 898.00
1995, 899.00
1996, 899.00
1997, 900.00
1998, 900.00
1999, 901.00
2000, 900.00
2001, 901.00
2002, 901.00
2003, 902.00
2004, 901.00
2005, 901.00
2006, 902.00
2007, 902.00
2008, 902.00
2009, 902.00
2010, 903.00
2011, 903.00
2012, 904.00
2013, 903.00
2014, 904.00
2015, 904.00
2016, 905.00
2017, 905.00
2018, 905.00
2019, 905.00
2020, 905.00
2021, 905.00
2022, 906.00
2023, 906.00
2024, 906.00
2025, 907.00
2026, 907.00
2027, 908.00
2028, 907.00
2029, 907.00
2030, 907.00
2031, 908.00
2032, 909.00
2033, 909.00
2034, 909.00
2035, 909.00
2036, 910.00
2037, 910.00
2038, 910.00
2039, 910.00
2040, 910.00
2041, 910.00
2042, 911.00
2043, 911.00
2044, 912.00
2045, 913.00
2046, 912.00
2047, 913.00
2048, 913.00
2049, 913.00
2050, 914.00
2051, 914.00
2052, 914.00
2053, 915.00
2054, 915.00
2055, 915.00
2056, 916.00
2057, 916.00
2058, 917.00
2059, 917.00
2060, 917.00
2061, 917.00
2062, 917.00
2063, 918.00
2064, 919.00
2065, 919.00
2066, 919.00
2067, 920.00
2068, 920.00
2069, 920.00
2070, 920.00
2071, 921.00
2072, 921.00
2073, 922.00
2074, 922.00
2075, 922.00
2076, 923.00
2077, 923.00
2078, 923.00
2079, 923.00
2080, 924.00
2081, 924.00
2082, 925.00
2083, 925.00
2084, 925.00
2085, 925.00
2086, 925.00
2087, 926.00
2088, 926.00
2089, 926.00
2090, 926.00
2091, 927.00
2092, 927.00
2093, 926.00
2094, 928.00
2095, 927.00
2096, 927.00
2097, 928.00
2098, 928.00
2099, 928.00
2100, 929.00
2101, 929.00
2102, 929.00
2103, 929.00
2104, 930.00
2105, 929.00
2106, 929.00
2107, 930.00
2108, 930.00
2109, 930.00
2110, 929.00
2111, 930.00
2112, 930.00
2113, 931.00
2114, 930.00
2115, 930.00
2116, 931.00
2117, 930.00
2118, 931.00
2119, 931.00
2120, 932.00
2121, 931.00
2122, 931.00
2123, 931.00
2124, 931.00
2125, 932.00
2126, 932.00
2127, 931.00
2128, 932.00
2129, 931.00
2130, 932.00
2131, 931.00
2132, 932.00
2133, 932.00
2134, 933.00
2135, 933.00
2136, 933.00
2137, 932.00
2138, 933.00
2139, 933.00
2140, 933.00
2141, 933.00
2142, 933.00
2143, 933.00
2144, 933.00
2145, 933.00
2146, 933.00
2147, 933.00
2148, 933.00
2149, 934.00
2150, 933.00
