FW version: 24
Log Version: 3.0.3

General Info:
       Command/Macro Performed,            Timestamp,             Device ID, COM Port, UART/I2C, Test Name, Host Major, Host Minor, Host Revision, Host Git Commit
            Single_measurement,  2023_06_27_12_34_32,       Insight2_F4_xxx,    USB-C,      USB,          ,          0,          1,             1,      4031237645

Show Spectrometer Status:
l0_version, f4_version, battery_perc, battery_mVolt, accelerometer_temp, accelerometer_x, accelerometer_y, accelerometer_z, compass_temp, compass_x, compass_y, compass_z, lamp_0, lamp_1, gain_0, gain_1
        17,         24,           95,          2078,               5552,             676,           64992,           18496,            0,     65527,     65515,     65406,   2866,   2866,    1,    1

Temperature Statistic Info:
NTC AVG [°C], NTC2 AVG [°C]
      37.266,        36.976

Statistic Info:
M1:  num,      min,      max,   median,      AVG,      STD,M2:  num,      min,      max,   median,      AVG,      STD
     301,  1496.00,  1700.00,  1542.00,  1562.52,  62.7484,     401,  2063.00,  2188.00,  2129.00,  2126.29,  43.0344,

Measurements:
Wavelength, Data Amplitude
1350, 1518.00
1351, 1518.00
1352, 1518.00
1353, 1517.00
1354, 1517.00
1355, 1517.00
1356, 1517.00
1357, 1517.00
1358, 1515.00
1359, 1515.00
1360, 1515.00
1361, 1515.00
1362, 1514.00
1363, 1514.00
1364, 1513.00
1365, 1513.00
1366, 1512.00
1367, 1511.00
1368, 1511.00
1369, 1509.00
1370, 1510.00
1371, 1509.00
1372, 1507.00
1373, 1507.00
1374, 1507.00
1375, 1507.00
1376, 1505.00
1377, 1505.00
1378, 1504.00
1379, 1504.00
1380, 1504.00
1381, 1503.00
1382, 1503.00
1383, 1502.00
1384, 1501.00
1385, 1502.00
1386, 1500.00
1387, 1501.00
1388, 1499.00
1389, 1498.00
1390, 1499.00
1391, 1497.00
1392, 1499.00
1393, 1499.00
1394, 1499.00
1395, 1497.00
1396, 1498.00
1397, 1497.00
1398, 1498.00
1399, 1497.00
1400, 1497.00
1401, 1497.00
1402, 1497.00
1403, 1498.00
1404, 1497.00
1405, 1497.00
1406, 1498.00
1407, 1497.00
1408, 1497.00
1409, 1497.00
1410, 1497.00
1411, 1497.00
1412, 1496.00
1413, 1496.00
1414, 1496.00
1415, 1497.00
1416, 1496.00
1417, 1497.00
1418, 1497.00
1419, 1497.00
1420, 1496.00
1421, 1497.00
1422, 1498.00
1423, 1498.00
1424, 1497.00
1425, 1498.00
1426, 1499.00
1427, 1497.00
1428, 1498.00
1429, 1498.00
1430, 1498.00
1431, 1499.00
1432, 1499.00
1433, 1499.00
1434, 1500.00
1435, 1500.00
1436, 1500.00
1437, 1501.00
1438, 1502.00
1439, 1501.00
1440, 1502.00
1441, 1501.00
1442, 1504.00
1443, 1504.00
1444, 1503.00
1445, 1504.00
1446, 1504.00
1447, 1505.00
1448, 1506.00
1449, 1506.00
1450, 1506.00
1451, 1507.00
1452, 1507.00
1453, 1509.00
1454, 1508.00
1455, 1509.00
1456, 1509.00
1457, 1510.00
1458, 1511.00
1459, 1511.00
1460, 1511.00
1461, 1513.00
1462, 1512.00
1463, 1513.00
1464, 1513.00
1465, 1515.00
1466, 1514.00
1467, 1516.00
1468, 1516.00
1469, 1517.00
1470, 1518.00
1471, 1518.00
1472, 1519.00
1473, 1520.00
1474, 1521.00
1475, 1522.00
1476, 1522.00
1477, 1523.00
1478, 1524.00
1479, 1524.00
1480, 1525.00
1481, 1525.00
1482, 1527.00
1483, 1527.00
1484, 1529.00
1485, 1530.00
1486, 1530.00
1487, 1530.00
1488, 1533.00
1489, 1532.00
1490, 1533.00
1491, 1534.00
1492, 1535.00
1493, 1535.00
1494, 1538.00
1495, 1538.00
1496, 1539.00
1497, 1540.00
1498, 1540.00
1499, 1541.00
1500, 1542.00
1501, 1543.00
1502, 1543.00
1503, 1544.00
1504, 1546.00
1505, 1546.00
1506, 1546.00
1507, 1547.00
1508, 1549.00
1509, 1549.00
1510, 1550.00
1511, 1552.00
1512, 1552.00
1513, 1553.00
1514, 1554.00
1515, 1555.00
1516, 1556.00
1517, 1557.00
1518, 1557.00
1519, 1558.00
1520, 1560.00
1521, 1560.00
1522, 1560.00
1523, 1562.00
1524, 1563.00
1525, 1563.00
1526, 1565.00
1527, 1565.00
1528, 1567.00
1529, 1568.00
1530, 1568.00
1531, 1569.00
1532, 1571.00
1533, 1572.00
1534, 1571.00
1535, 1574.00
1536, 1574.00
1537, 1575.00
1538, 1576.00
1539, 1577.00
1540, 1577.00
1541, 1578.00
1542, 1580.00
1543, 1581.00
1544, 1581.00
1545, 1583.00
1546, 1583.00
1547, 1584.00
1548, 1585.00
1549, 1587.00
1550, 1587.00
1551, 1589.00
1552, 1590.00
1553, 1590.00
1554, 1591.00
1555, 1592.00
1556, 1593.00
1557, 1595.00
1558, 1597.00
1559, 1596.00
1560, 1597.00
1561, 1598.00
1562, 1599.00
1563, 1601.00
1564, 1602.00
1565, 1603.00
1566, 1604.00
1567, 1606.00
1568, 1607.00
1569, 1608.00
1570, 1609.00
1571, 1610.00
1572, 1611.00
1573, 1611.00
1574, 1613.00
1575, 1614.00
1576, 1615.00
1577, 1617.00
1578, 1616.00
1579, 1619.00
1580, 1619.00
1581, 1620.00
1582, 1621.00
1583, 1623.00
1584, 1623.00
1585, 1623.00
1586, 1625.00
1587, 1625.00
1588, 1627.00
1589, 1628.00
1590, 1629.00
1591, 1629.00
1592, 1630.00
1593, 1631.00
1594, 1633.00
1595, 1633.00
1596, 1635.00
1597, 1636.00
1598, 1637.00
1599, 1637.00
1600, 1638.00
1601, 1639.00
1602, 1641.00
1603, 1643.00
1604, 1643.00
1605, 1644.00
1606, 1645.00
1607, 1647.00
1608, 1648.00
1609, 1648.00
1610, 1649.00
1611, 1651.00
1612, 1653.00
1613, 1654.00
1614, 1655.00
1615, 1655.00
1616, 1658.00
1617, 1659.00
1618, 1659.00
1619, 1661.00
1620, 1662.00
1621, 1664.00
1622, 1664.00
1623, 1666.00
1624, 1668.00
1625, 1669.00
1626, 1669.00
1627, 1671.00
1628, 1673.00
1629, 1674.00
1630, 1675.00
1631, 1676.00
1632, 1678.00
1633, 1679.00
1634, 1680.00
1635, 1681.00
1636, 1682.00
1637, 1684.00
1638, 1685.00
1639, 1686.00
1640, 1686.00
1641, 1688.00
1642, 1689.00
1643, 1690.00
1644, 1691.00
1645, 1693.00
1646, 1693.00
1647, 1694.00
1648, 1696.00
1649, 1696.00
1650, 1700.00

1750, 2186.00
1751, 2186.00
1752, 2185.00
1753, 2186.00
1754, 2185.00
1755, 2186.00
1756, 2185.00
1757, 2186.00
1758, 2186.00
1759, 2186.00
1760, 2183.00
1761, 2187.00
1762, 2186.00
1763, 2187.00
1764, 2185.00
1765, 2188.00
1766, 2184.00
1767, 2185.00
1768, 2185.00
1769, 2185.00
1770, 2186.00
1771, 2185.00
1772, 2184.00
1773, 2183.00
1774, 2183.00
1775, 2183.00
1776, 2182.00
1777, 2183.00
1778, 2181.00
1779, 2182.00
1780, 2180.00
1781, 2180.00
1782, 2180.00
1783, 2179.00
1784, 2179.00
1785, 2178.00
1786, 2177.00
1787, 2177.00
1788, 2179.00
1789, 2178.00
1790, 2178.00
1791, 2177.00
1792, 2176.00
1793, 2176.00
1794, 2176.00
1795, 2173.00
1796, 2175.00
1797, 2175.00
1798, 2175.00
1799, 2172.00
1800, 2174.00
1801, 2173.00
1802, 2174.00
1803, 2173.00
1804, 2171.00
1805, 2170.00
1806, 2173.00
1807, 2170.00
1808, 2173.00
1809, 2170.00
1810, 2171.00
1811, 2169.00
1812, 2168.00
1813, 2168.00
1814, 2169.00
1815, 2168.00
1816, 2169.00
1817, 2169.00
1818, 2167.00
1819, 2166.00
1820, 2167.00
1821, 2165.00
1822, 2165.00
1823, 2166.00
1824, 2163.00
1825, 2163.00
1826, 2163.00
1827, 2162.00
1828, 2163.00
1829, 2160.00
1830, 2159.00
1831, 2158.00
1832, 2158.00
1833, 2157.00
1834, 2155.00
1835, 2154.00
1836, 2152.00
1837, 2151.00
1838, 2149.00
1839, 2150.00
1840, 2148.00
1841, 2144.00
1842, 2145.00
1843, 2142.00
1844, 2139.00
1845, 2138.00
1846, 2137.00
1847, 2135.00
1848, 2133.00
1849, 2130.00
1850, 2129.00
1851, 2128.00
1852, 2125.00
1853, 2123.00
1854, 2120.00
1855, 2120.00
1856, 2116.00
1857, 2113.00
1858, 2112.00
1859, 2113.00
1860, 2109.00
1861, 2106.00
1862, 2102.00
1863, 2104.00
1864, 2102.00
1865, 2099.00
1866, 2096.00
1867, 2095.00
1868, 2094.00
1869, 2092.00
1870, 2091.00
1871, 2088.00
1872, 2087.00
1873, 2088.00
1874, 2085.00
1875, 2083.00
1876, 2081.00
1877, 2083.00
1878, 2081.00
1879, 2080.00
1880, 2078.00
1881, 2077.00
1882, 2078.00
1883, 2076.00
1884, 2074.00
1885, 2075.00
1886, 2072.00
1887, 2074.00
1888, 2073.00
1889, 2073.00
1890, 2072.00
1891, 2070.00
1892, 2070.00
1893, 2071.00
1894, 2070.00
1895, 2069.00
1896, 2068.00
1897, 2069.00
1898, 2068.00
1899, 2067.00
1900, 2065.00
1901, 2066.00
1902, 2068.00
1903, 2066.00
1904, 2064.00
1905, 2066.00
1906, 2064.00
1907, 2064.00
1908, 2064.00
1909, 2064.00
1910, 2067.00
1911, 2064.00
1912, 2064.00
1913, 2064.00
1914, 2064.00
1915, 2064.00
1916, 2064.00
1917, 2064.00
1918, 2065.00
1919, 2063.00
1920, 2063.00
1921, 2064.00
1922, 2065.00
1923, 2063.00
1924, 2063.00
1925, 2063.00
1926, 2063.00
1927, 2064.00
1928, 2064.00
1929, 2063.00
1930, 2065.00
1931, 2064.00
1932, 2064.00
1933, 2064.00
1934, 2065.00
1935, 2064.00
1936, 2064.00
1937, 2065.00
1938, 2066.00
1939, 2065.00
1940, 2066.00
1941, 2065.00
1942, 2064.00
1943, 2068.00
1944, 2067.00
1945, 2069.00
1946, 2069.00
1947, 2068.00
1948, 2070.00
1949, 2068.00
1950, 2070.00
1951, 2069.00
1952, 2071.00
1953, 2069.00
1954, 2071.00
1955, 2070.00
1956, 2073.00
1957, 2072.00
1958, 2072.00
1959, 2072.00
1960, 2074.00
1961, 2075.00
1962, 2074.00
1963, 2075.00
1964, 2074.00
1965, 2077.00
1966, 2075.00
1967, 2078.00
1968, 2078.00
1969, 2077.00
1970, 2078.00
1971, 2080.00
1972, 2081.00
1973, 2080.00
1974, 2082.00
1975, 2081.00
1976, 2083.00
1977, 2083.00
1978, 2085.00
1979, 2084.00
1980, 2087.00
1981, 2086.00
1982, 2087.00
1983, 2088.00
1984, 2087.00
1985, 2088.00
1986, 2090.00
1987, 2089.00
1988, 2089.00
1989, 2089.00
1990, 2091.00
1991, 2092.00
1992, 2093.00
1993, 2092.00
1994, 2093.00
1995, 2095.00
1996, 2092.00
1997, 2096.00
1998, 2097.00
1999, 2097.00
2000, 2098.00
2001, 2098.00
2002, 2097.00
2003, 2098.00
2004, 2099.00
2005, 2100.00
2006, 2101.00
2007, 2100.00
2008, 2101.00
2009, 2104.00
2010, 2103.00
2011, 2103.00
2012, 2103.00
2013, 2104.00
2014, 2106.00
2015, 2105.00
2016, 2107.00
2017, 2108.00
2018, 2107.00
2019, 2109.00
2020, 2109.00
2021, 2110.00
2022, 2108.00
2023, 2111.00
2024, 2110.00
2025, 2111.00
2026, 2111.00
2027, 2112.00
2028, 2114.00
2029, 2114.00
2030, 2115.00
2031, 2115.00
2032, 2116.00
2033, 2117.00
2034, 2116.00
2035, 2116.00
2036, 2118.00
2037, 2121.00
2038, 2120.00
2039, 2121.00
2040, 2121.00
2041, 2123.00
2042, 2123.00
2043, 2123.00
2044, 2124.00
2045, 2123.00
2046, 2126.00
2047, 2126.00
2048, 2128.00
2049, 2127.00
2050, 2128.00
2051, 2130.00
2052, 2130.00
2053, 2131.00
2054, 2130.00
2055, 2131.00
2056, 2135.00
2057, 2135.00
2058, 2137.00
2059, 2137.00
2060, 2137.00
2061, 2139.00
2062, 2140.00
2063, 2140.00
2064, 2143.00
2065, 2141.00
2066, 2142.00
2067, 2145.00
2068, 2144.00
2069, 2145.00
2070, 2145.00
2071, 2146.00
2072, 2147.00
2073, 2149.00
2074, 2150.00
2075, 2150.00
2076, 2150.00
2077, 2151.00
2078, 2153.00
2079, 2154.00
2080, 2152.00
2081, 2154.00
2082, 2154.00
2083, 2155.00
2084, 2157.00
2085, 2158.00
2086, 2157.00
2087, 2159.00
2088, 2158.00
2089, 2161.00
2090, 2160.00
2091, 2159.00
2092, 2161.00
2093, 2162.00
2094, 2162.00
2095, 2161.00
2096, 2163.00
2097, 2161.00
2098, 2164.00
2099, 2163.00
2100, 2164.00
2101, 2165.00
2102, 2165.00
2103, 2165.00
2104, 2166.00
2105, 2168.00
2106, 2166.00
2107, 2168.00
2108, 2167.00
2109, 2165.00
2110, 2168.00
2111, 2167.00
2112, 2167.00
2113, 2168.00
2114, 2170.00
2115, 2169.00
2116, 2170.00
2117, 2171.00
2118, 2170.00
2119, 2169.00
2120, 2172.00
2121, 2172.00
2122, 2172.00
2123, 2173.00
2124, 2171.00
2125, 2171.00
2126, 2172.00
2127, 2172.00
2128, 2172.00
2129, 2172.00
2130, 2171.00
2131, 2174.00
2132, 2173.00
2133, 2173.00
2134, 2173.00
2135, 2175.00
2136, 2174.00
2137, 2176.00
2138, 2175.00
2139, 2174.00
2140, 2176.00
2141, 2176.00
2142, 2176.00
2143, 2177.00
2144, 2175.00
2145, 2178.00
2146, 2175.00
2147, 2176.00
2148, 2179.00
2149, 2179.00
2150, 2176.00
