FW version: 24
Log Version: 3.0.3

General Info:
       Command/Macro Performed,            Timestamp,             Device ID, COM Port, UART/I2C, Test Name, Host Major, Host Minor, Host Revision, Host Git Commit
            Single_measurement,  2023_07_11_12_18_07,       Insight2_F4_xxx,    USB-C,      USB,          ,          0,          1,             1,      4031237645

Show Spectrometer Status:
l0_version, f4_version, battery_perc, battery_mVolt, accelerometer_temp, accelerometer_x, accelerometer_y, accelerometer_z, compass_temp, compass_x, compass_y, compass_z, lamp_0, lamp_1, gain_0, gain_1
        17,         24,           54,          1918,               7040,           65272,             440,           18796,            0,     65529,     65465,     18813,   3276,   3276,      0,      0

Temperature Statistic Info:
NTC AVG [°C], NTC2 AVG [°C]
      42.313,        41.980

Statistic Info:
M1:  num,      min,      max,   median,      AVG,      STD,M2:  num,      min,      max,   median,      AVG,      STD
     301,   680.00,   766.00,   700.00,   708.62,  26.9489,     401,   939.00,   989.00,   966.00,   964.49,  17.0671,

Measurements:
Wavelength, Data Amplitude
1350, 689.00
1351, 689.00
1352, 689.00
1353, 689.00
1354, 689.00
1355, 689.00
1356, 689.00
1357, 688.00
1358, 688.00
1359, 688.00
1360, 688.00
1361, 688.00
1362, 687.00
1363, 688.00
1364, 687.00
1365, 686.00
1366, 686.00
1367, 687.00
1368, 686.00
1369, 685.00
1370, 686.00
1371, 685.00
1372, 685.00
1373, 684.00
1374, 684.00
1375, 684.00
1376, 684.00
1377, 683.00
1378, 684.00
1379, 683.00
1380, 683.00
1381, 682.00
1382, 682.00
1383, 682.00
1384, 682.00
1385, 682.00
1386, 682.00
1387, 681.00
1388, 681.00
1389, 681.00
1390, 681.00
1391, 681.00
1392, 681.00
1393, 681.00
1394, 681.00
1395, 681.00
1396, 680.00
1397, 681.00
1398, 681.00
1399, 681.00
1400, 681.00
1401, 680.00
1402, 681.00
1403, 680.00
1404, 681.00
1405, 681.00
1406, 680.00
1407, 681.00
1408, 680.00
1409, 680.00
1410, 680.00
1411, 680.00
1412, 680.00
1413, 680.00
1414, 680.00
1415, 680.00
1416, 680.00
1417, 680.00
1418, 680.00
1419, 680.00
1420, 680.00
1421, 680.00
1422, 681.00
1423, 681.00
1424, 680.00
1425, 681.00
1426, 681.00
1427, 681.00
1428, 681.00
1429, 681.00
1430, 681.00
1431, 682.00
1432, 681.00
1433, 682.00
1434, 682.00
1435, 682.00
1436, 683.00
1437, 682.00
1438, 682.00
1439, 682.00
1440, 683.00
1441, 683.00
1442, 683.00
1443, 683.00
1444, 684.00
1445, 683.00
1446, 684.00
1447, 684.00
1448, 684.00
1449, 685.00
1450, 684.00
1451, 685.00
1452, 685.00
1453, 685.00
1454, 685.00
1455, 686.00
1456, 686.00
1457, 686.00
1458, 686.00
1459, 687.00
1460, 687.00
1461, 687.00
1462, 688.00
1463, 687.00
1464, 688.00
1465, 688.00
1466, 689.00
1467, 688.00
1468, 689.00
1469, 690.00
1470, 690.00
1471, 690.00
1472, 690.00
1473, 690.00
1474, 691.00
1475, 691.00
1476, 692.00
1477, 692.00
1478, 692.00
1479, 693.00
1480, 693.00
1481, 693.00
1482, 694.00
1483, 694.00
1484, 694.00
1485, 695.00
1486, 695.00
1487, 695.00
1488, 696.00
1489, 696.00
1490, 696.00
1491, 697.00
1492, 697.00
1493, 698.00
1494, 698.00
1495, 698.00
1496, 698.00
1497, 699.00
1498, 699.00
1499, 699.00
1500, 700.00
1501, 700.00
1502, 701.00
1503, 701.00
1504, 701.00
1505, 701.00
1506, 702.00
1507, 702.00
1508, 702.00
1509, 703.00
1510, 703.00
1511, 704.00
1512, 704.00
1513, 705.00
1514, 705.00
1515, 705.00
1516, 706.00
1517, 706.00
1518, 706.00
1519, 707.00
1520, 707.00
1521, 708.00
1522, 708.00
1523, 708.00
1524, 709.00
1525, 709.00
1526, 710.00
1527, 710.00
1528, 710.00
1529, 710.00
1530, 711.00
1531, 712.00
1532, 712.00
1533, 712.00
1534, 712.00
1535, 713.00
1536, 714.00
1537, 714.00
1538, 715.00
1539, 715.00
1540, 715.00
1541, 715.00
1542, 716.00
1543, 717.00
1544, 717.00
1545, 717.00
1546, 717.00
1547, 718.00
1548, 718.00
1549, 719.00
1550, 720.00
1551, 720.00
1552, 721.00
1553, 721.00
1554, 721.00
1555, 722.00
1556, 722.00
1557, 723.00
1558, 723.00
1559, 724.00
1560, 724.00
1561, 724.00
1562, 725.00
1563, 726.00
1564, 726.00
1565, 727.00
1566, 727.00
1567, 727.00
1568, 728.00
1569, 729.00
1570, 729.00
1571, 729.00
1572, 730.00
1573, 731.00
1574, 730.00
1575, 731.00
1576, 732.00
1577, 732.00
1578, 733.00
1579, 733.00
1580, 734.00
1581, 734.00
1582, 734.00
1583, 734.00
1584, 735.00
1585, 735.00
1586, 736.00
1587, 736.00
1588, 737.00
1589, 737.00
1590, 738.00
1591, 738.00
1592, 738.00
1593, 738.00
1594, 739.00
1595, 739.00
1596, 740.00
1597, 740.00
1598, 740.00
1599, 742.00
1600, 741.00
1601, 742.00
1602, 743.00
1603, 743.00
1604, 743.00
1605, 743.00
1606, 744.00
1607, 744.00
1608, 745.00
1609, 746.00
1610, 746.00
1611, 746.00
1612, 747.00
1613, 747.00
1614, 748.00
1615, 749.00
1616, 749.00
1617, 750.00
1618, 751.00
1619, 751.00
1620, 752.00
1621, 752.00
1622, 753.00
1623, 753.00
1624, 754.00
1625, 755.00
1626, 754.00
1627, 755.00
1628, 756.00
1629, 756.00
1630, 757.00
1631, 757.00
1632, 758.00
1633, 758.00
1634, 759.00
1635, 759.00
1636, 760.00
1637, 760.00
1638, 760.00
1639, 760.00
1640, 762.00
1641, 762.00
1642, 762.00
1643, 763.00
1644, 763.00
1645, 764.00
1646, 764.00
1647, 764.00
1648, 765.00
1649, 766.00
1650, 766.00

1750, 988.00
1751, 988.00
1752, 988.00
1753, 988.00
1754, 988.00
1755, 989.00
1756, 988.00
1757, 988.00
1758, 988.00
1759, 988.00
1760, 988.00
1761, 988.00
1762, 988.00
1763, 988.00
1764, 988.00
1765, 988.00
1766, 987.00
1767, 988.00
1768, 988.00
1769, 987.00
1770, 988.00
1771, 987.00
1772, 986.00
1773, 987.00
1774, 987.00
1775, 986.00
1776, 987.00
1777, 986.00
1778, 986.00
1779, 985.00
1780, 986.00
1781, 986.00
1782, 985.00
1783, 985.00
1784, 984.00
1785, 985.00
1786, 985.00
1787, 984.00
1788, 985.00
1789, 984.00
1790, 984.00
1791, 984.00
1792, 983.00
1793, 983.00
1794, 983.00
1795, 983.00
1796, 983.00
1797, 983.00
1798, 983.00
1799, 982.00
1800, 982.00
1801, 983.00
1802, 983.00
1803, 982.00
1804, 982.00
1805, 982.00
1806, 982.00
1807, 981.00
1808, 982.00
1809, 981.00
1810, 982.00
1811, 981.00
1812, 981.00
1813, 981.00
1814, 980.00
1815, 980.00
1816, 980.00
1817, 981.00
1818, 981.00
1819, 980.00
1820, 979.00
1821, 980.00
1822, 979.00
1823, 979.00
1824, 979.00
1825, 978.00
1826, 979.00
1827, 978.00
1828, 977.00
1829, 977.00
1830, 976.00
1831, 976.00
1832, 976.00
1833, 975.00
1834, 974.00
1835, 974.00
1836, 974.00
1837, 973.00
1838, 973.00
1839, 971.00
1840, 971.00
1841, 970.00
1842, 969.00
1843, 969.00
1844, 969.00
1845, 968.00
1846, 968.00
1847, 966.00
1848, 966.00
1849, 965.00
1850, 963.00
1851, 963.00
1852, 963.00
1853, 962.00
1854, 961.00
1855, 959.00
1856, 959.00
1857, 958.00
1858, 957.00
1859, 956.00
1860, 956.00
1861, 955.00
1862, 955.00
1863, 954.00
1864, 953.00
1865, 953.00
1866, 952.00
1867, 950.00
1868, 950.00
1869, 950.00
1870, 949.00
1871, 949.00
1872, 948.00
1873, 947.00
1874, 947.00
1875, 947.00
1876, 946.00
1877, 946.00
1878, 946.00
1879, 945.00
1880, 945.00
1881, 945.00
1882, 945.00
1883, 944.00
1884, 943.00
1885, 943.00
1886, 944.00
1887, 943.00
1888, 943.00
1889, 943.00
1890, 942.00
1891, 942.00
1892, 941.00
1893, 942.00
1894, 942.00
1895, 942.00
1896, 942.00
1897, 942.00
1898, 941.00
1899, 941.00
1900, 941.00
1901, 941.00
1902, 941.00
1903, 940.00
1904, 940.00
1905, 940.00
1906, 940.00
1907, 941.00
1908, 940.00
1909, 940.00
1910, 940.00
1911, 940.00
1912, 940.00
1913, 940.00
1914, 940.00
1915, 939.00
1916, 939.00
1917, 939.00
1918, 939.00
1919, 940.00
1920, 940.00
1921, 940.00
1922, 940.00
1923, 939.00
1924, 940.00
1925, 939.00
1926, 939.00
1927, 940.00
1928, 940.00
1929, 939.00
1930, 939.00
1931, 940.00
1932, 940.00
1933, 940.00
1934, 940.00
1935, 941.00
1936, 940.00
1937, 941.00
1938, 940.00
1939, 941.00
1940, 940.00
1941, 941.00
1942, 941.00
1943, 941.00
1944, 942.00
1945, 941.00
1946, 942.00
1947, 941.00
1948, 942.00
1949, 941.00
1950, 942.00
1951, 942.00
1952, 943.00
1953, 942.00
1954, 943.00
1955, 942.00
1956, 943.00
1957, 943.00
1958, 943.00
1959, 944.00
1960, 944.00
1961, 944.00
1962, 944.00
1963, 945.00
1964, 945.00
1965, 945.00
1966, 945.00
1967, 945.00
1968, 945.00
1969, 947.00
1970, 946.00
1971, 945.00
1972, 946.00
1973, 946.00
1974, 947.00
1975, 947.00
1976, 948.00
1977, 948.00
1978, 948.00
1979, 949.00
1980, 948.00
1981, 949.00
1982, 949.00
1983, 949.00
1984, 950.00
1985, 950.00
1986, 950.00
1987, 951.00
1988, 951.00
1989, 950.00
1990, 951.00
1991, 952.00
1992, 951.00
1993, 952.00
1994, 952.00
1995, 952.00
1996, 952.00
1997, 952.00
1998, 953.00
1999, 954.00
2000, 954.00
2001, 954.00
2002, 954.00
2003, 955.00
2004, 955.00
2005, 955.00
2006, 954.00
2007, 956.00
2008, 955.00
2009, 955.00
2010, 956.00
2011, 956.00
2012, 956.00
2013, 956.00
2014, 956.00
2015, 957.00
2016, 957.00
2017, 957.00
2018, 958.00
2019, 958.00
2020, 958.00
2021, 959.00
2022, 958.00
2023, 959.00
2024, 959.00
2025, 959.00
2026, 959.00
2027, 959.00
2028, 961.00
2029, 959.00
2030, 961.00
2031, 961.00
2032, 960.00
2033, 961.00
2034, 961.00
2035, 962.00
2036, 962.00
2037, 962.00
2038, 963.00
2039, 963.00
2040, 963.00
2041, 963.00
2042, 963.00
2043, 965.00
2044, 964.00
2045, 964.00
2046, 965.00
2047, 966.00
2048, 965.00
2049, 966.00
2050, 966.00
2051, 967.00
2052, 967.00
2053, 967.00
2054, 968.00
2055, 968.00
2056, 968.00
2057, 968.00
2058, 969.00
2059, 969.00
2060, 970.00
2061, 970.00
2062, 971.00
2063, 971.00
2064, 971.00
2065, 971.00
2066, 971.00
2067, 972.00
2068, 972.00
2069, 973.00
2070, 973.00
2071, 973.00
2072, 974.00
2073, 975.00
2074, 974.00
2075, 974.00
2076, 975.00
2077, 975.00
2078, 975.00
2079, 975.00
2080, 975.00
2081, 976.00
2082, 977.00
2083, 976.00
2084, 977.00
2085, 977.00
2086, 978.00
2087, 977.00
2088, 978.00
2089, 978.00
2090, 978.00
2091, 979.00
2092, 979.00
2093, 979.00
2094, 979.00
2095, 979.00
2096, 980.00
2097, 979.00
2098, 980.00
2099, 980.00
2100, 980.00
2101, 980.00
2102, 980.00
2103, 981.00
2104, 980.00
2105, 980.00
2106, 982.00
2107, 981.00
2108, 982.00
2109, 981.00
2110, 982.00
2111, 982.00
2112, 982.00
2113, 983.00
2114, 981.00
2115, 982.00
2116, 982.00
2117, 982.00
2118, 982.00
2119, 982.00
2120, 982.00
2121, 983.00
2122, 984.00
2123, 983.00
2124, 983.00
2125, 983.00
2126, 983.00
2127, 983.00
2128, 984.00
2129, 984.00
2130, 984.00
2131, 984.00
2132, 984.00
2133, 984.00
2134, 983.00
2135, 985.00
2136, 984.00
2137, 985.00
2138, 984.00
2139, 985.00
2140, 985.00
2141, 985.00
2142, 985.00
2143, 985.00
2144, 985.00
2145, 985.00
2146, 985.00
2147, 985.00
2148, 985.00
2149, 986.00
2150, 986.00
