FW version: 24
Log Version: 3.0.3

General Info:
       Command/Macro Performed,            Timestamp,             Device ID, COM Port, UART/I2C, Test Name, Host Major, Host Minor, Host Revision, Host Git Commit
            Single_measurement,  2023_07_11_12_19_16,       Insight2_F4_xxx,    USB-C,      USB,          ,          0,          1,             1,      4031237645

Show Spectrometer Status:
l0_version, f4_version, battery_perc, battery_mVolt, accelerometer_temp, accelerometer_x, accelerometer_y, accelerometer_z, compass_temp, compass_x, compass_y, compass_z, lamp_0, lamp_1, gain_0, gain_1
        17,         24,           54,          1930,               7024,           65336,             420,           18804,            0,     65336,     65447,     18815,   3276,   3276,      1,      1

Temperature Statistic Info:
NTC AVG [°C], NTC2 AVG [°C]
      42.584,        42.283

Statistic Info:
M1:  num,      min,      max,   median,      AVG,      STD,M2:  num,      min,      max,   median,      AVG,      STD
     301,  1971.00,  2223.00,  2029.00,  2054.71,  78.4577,     401,  2718.00,  2862.00,  2795.00,  2791.88,  49.3278,

Measurements:
Wavelength, Data Amplitude
1350, 1999.00
1351, 1999.00
1352, 1999.00
1353, 1998.00
1354, 1998.00
1355, 1997.00
1356, 1997.00
1357, 1997.00
1358, 1994.00
1359, 1995.00
1360, 1995.00
1361, 1994.00
1362, 1993.00
1363, 1992.00
1364, 1992.00
1365, 1991.00
1366, 1991.00
1367, 1990.00
1368, 1988.00
1369, 1988.00
1370, 1987.00
1371, 1987.00
1372, 1983.00
1373, 1984.00
1374, 1985.00
1375, 1983.00
1376, 1982.00
1377, 1980.00
1378, 1980.00
1379, 1981.00
1380, 1979.00
1381, 1978.00
1382, 1977.00
1383, 1978.00
1384, 1977.00
1385, 1977.00
1386, 1976.00
1387, 1976.00
1388, 1976.00
1389, 1974.00
1390, 1976.00
1391, 1975.00
1392, 1974.00
1393, 1975.00
1394, 1974.00
1395, 1973.00
1396, 1973.00
1397, 1972.00
1398, 1973.00
1399, 1973.00
1400, 1972.00
1401, 1973.00
1402, 1974.00
1403, 1973.00
1404, 1973.00
1405, 1972.00
1406, 1973.00
1407, 1971.00
1408, 1971.00
1409, 1973.00
1410, 1972.00
1411, 1971.00
1412, 1972.00
1413, 1972.00
1414, 1973.00
1415, 1972.00
1416, 1972.00
1417, 1972.00
1418, 1972.00
1419, 1971.00
1420, 1973.00
1421, 1974.00
1422, 1973.00
1423, 1973.00
1424, 1973.00
1425, 1974.00
1426, 1973.00
1427, 1975.00
1428, 1973.00
1429, 1974.00
1430, 1975.00
1431, 1975.00
1432, 1976.00
1433, 1975.00
1434, 1977.00
1435, 1977.00
1436, 1977.00
1437, 1979.00
1438, 1978.00
1439, 1979.00
1440, 1979.00
1441, 1980.00
1442, 1981.00
1443, 1981.00
1444, 1981.00
1445, 1981.00
1446, 1983.00
1447, 1983.00
1448, 1984.00
1449, 1983.00
1450, 1986.00
1451, 1985.00
1452, 1986.00
1453, 1987.00
1454, 1987.00
1455, 1988.00
1456, 1989.00
1457, 1988.00
1458, 1991.00
1459, 1992.00
1460, 1993.00
1461, 1992.00
1462, 1994.00
1463, 1993.00
1464, 1994.00
1465, 1995.00
1466, 1997.00
1467, 1997.00
1468, 1998.00
1469, 1999.00
1470, 2000.00
1471, 2001.00
1472, 2001.00
1473, 2002.00
1474, 2003.00
1475, 2004.00
1476, 2005.00
1477, 2005.00
1478, 2006.00
1479, 2007.00
1480, 2009.00
1481, 2010.00
1482, 2011.00
1483, 2012.00
1484, 2013.00
1485, 2014.00
1486, 2015.00
1487, 2016.00
1488, 2017.00
1489, 2018.00
1490, 2019.00
1491, 2020.00
1492, 2021.00
1493, 2021.00
1494, 2023.00
1495, 2023.00
1496, 2025.00
1497, 2026.00
1498, 2026.00
1499, 2028.00
1500, 2029.00
1501, 2030.00
1502, 2031.00
1503, 2031.00
1504, 2032.00
1505, 2034.00
1506, 2035.00
1507, 2036.00
1508, 2037.00
1509, 2037.00
1510, 2038.00
1511, 2040.00
1512, 2041.00
1513, 2042.00
1514, 2042.00
1515, 2044.00
1516, 2046.00
1517, 2047.00
1518, 2049.00
1519, 2050.00
1520, 2051.00
1521, 2052.00
1522, 2052.00
1523, 2054.00
1524, 2055.00
1525, 2056.00
1526, 2057.00
1527, 2059.00
1528, 2059.00
1529, 2061.00
1530, 2063.00
1531, 2064.00
1532, 2065.00
1533, 2065.00
1534, 2068.00
1535, 2068.00
1536, 2069.00
1537, 2070.00
1538, 2072.00
1539, 2073.00
1540, 2074.00
1541, 2074.00
1542, 2077.00
1543, 2077.00
1544, 2079.00
1545, 2080.00
1546, 2082.00
1547, 2083.00
1548, 2084.00
1549, 2085.00
1550, 2086.00
1551, 2088.00
1552, 2090.00
1553, 2090.00
1554, 2092.00
1555, 2092.00
1556, 2094.00
1557, 2095.00
1558, 2097.00
1559, 2099.00
1560, 2101.00
1561, 2101.00
1562, 2102.00
1563, 2104.00
1564, 2105.00
1565, 2107.00
1566, 2108.00
1567, 2109.00
1568, 2112.00
1569, 2113.00
1570, 2113.00
1571, 2115.00
1572, 2117.00
1573, 2118.00
1574, 2119.00
1575, 2120.00
1576, 2122.00
1577, 2123.00
1578, 2124.00
1579, 2125.00
1580, 2127.00
1581, 2128.00
1582, 2130.00
1583, 2130.00
1584, 2131.00
1585, 2131.00
1586, 2133.00
1587, 2134.00
1588, 2135.00
1589, 2137.00
1590, 2137.00
1591, 2140.00
1592, 2140.00
1593, 2143.00
1594, 2142.00
1595, 2144.00
1596, 2145.00
1597, 2147.00
1598, 2148.00
1599, 2149.00
1600, 2150.00
1601, 2151.00
1602, 2153.00
1603, 2154.00
1604, 2155.00
1605, 2157.00
1606, 2159.00
1607, 2160.00
1608, 2162.00
1609, 2162.00
1610, 2164.00
1611, 2166.00
1612, 2168.00
1613, 2169.00
1614, 2170.00
1615, 2172.00
1616, 2173.00
1617, 2176.00
1618, 2176.00
1619, 2177.00
1620, 2180.00
1621, 2180.00
1622, 2182.00
1623, 2185.00
1624, 2185.00
1625, 2186.00
1626, 2189.00
1627, 2190.00
1628, 2192.00
1629, 2193.00
1630, 2194.00
1631, 2196.00
1632, 2198.00
1633, 2199.00
1634, 2202.00
1635, 2202.00
1636, 2204.00
1637, 2204.00
1638, 2205.00
1639, 2207.00
1640, 2209.00
1641, 2211.00
1642, 2211.00
1643, 2213.00
1644, 2215.00
1645, 2215.00
1646, 2216.00
1647, 2217.00
1648, 2219.00
1649, 2220.00
1650, 2223.00

1750, 2862.00
1751, 2861.00
1752, 2861.00
1753, 2862.00
1754, 2859.00
1755, 2861.00
1756, 2860.00
1757, 2859.00
1758, 2860.00
1759, 2861.00
1760, 2861.00
1761, 2859.00
1762, 2858.00
1763, 2859.00
1764, 2859.00
1765, 2858.00
1766, 2857.00
1767, 2860.00
1768, 2860.00
1769, 2859.00
1770, 2859.00
1771, 2859.00
1772, 2856.00
1773, 2858.00
1774, 2856.00
1775, 2856.00
1776, 2855.00
1777, 2855.00
1778, 2855.00
1779, 2853.00
1780, 2853.00
1781, 2852.00
1782, 2852.00
1783, 2852.00
1784, 2850.00
1785, 2851.00
1786, 2851.00
1787, 2848.00
1788, 2850.00
1789, 2849.00
1790, 2848.00
1791, 2846.00
1792, 2845.00
1793, 2845.00
1794, 2848.00
1795, 2843.00
1796, 2847.00
1797, 2845.00
1798, 2845.00
1799, 2843.00
1800, 2843.00
1801, 2843.00
1802, 2844.00
1803, 2842.00
1804, 2843.00
1805, 2841.00
1806, 2841.00
1807, 2838.00
1808, 2841.00
1809, 2840.00
1810, 2842.00
1811, 2837.00
1812, 2842.00
1813, 2840.00
1814, 2839.00
1815, 2839.00
1816, 2839.00
1817, 2836.00
1818, 2837.00
1819, 2837.00
1820, 2836.00
1821, 2836.00
1822, 2833.00
1823, 2834.00
1824, 2830.00
1825, 2830.00
1826, 2831.00
1827, 2831.00
1828, 2829.00
1829, 2827.00
1830, 2827.00
1831, 2824.00
1832, 2823.00
1833, 2822.00
1834, 2821.00
1835, 2819.00
1836, 2816.00
1837, 2817.00
1838, 2814.00
1839, 2813.00
1840, 2812.00
1841, 2808.00
1842, 2809.00
1843, 2804.00
1844, 2804.00
1845, 2801.00
1846, 2799.00
1847, 2797.00
1848, 2793.00
1849, 2793.00
1850, 2788.00
1851, 2787.00
1852, 2787.00
1853, 2784.00
1854, 2780.00
1855, 2779.00
1856, 2775.00
1857, 2773.00
1858, 2773.00
1859, 2770.00
1860, 2767.00
1861, 2764.00
1862, 2761.00
1863, 2759.00
1864, 2759.00
1865, 2758.00
1866, 2755.00
1867, 2753.00
1868, 2753.00
1869, 2748.00
1870, 2746.00
1871, 2747.00
1872, 2744.00
1873, 2743.00
1874, 2743.00
1875, 2741.00
1876, 2739.00
1877, 2737.00
1878, 2737.00
1879, 2736.00
1880, 2735.00
1881, 2735.00
1882, 2735.00
1883, 2733.00
1884, 2732.00
1885, 2729.00
1886, 2730.00
1887, 2731.00
1888, 2731.00
1889, 2728.00
1890, 2728.00
1891, 2727.00
1892, 2727.00
1893, 2727.00
1894, 2726.00
1895, 2724.00
1896, 2725.00
1897, 2724.00
1898, 2724.00
1899, 2725.00
1900, 2723.00
1901, 2722.00
1902, 2721.00
1903, 2725.00
1904, 2723.00
1905, 2721.00
1906, 2723.00
1907, 2721.00
1908, 2721.00
1909, 2720.00
1910, 2718.00
1911, 2721.00
1912, 2721.00
1913, 2721.00
1914, 2720.00
1915, 2719.00
1916, 2718.00
1917, 2721.00
1918, 2718.00
1919, 2720.00
1920, 2721.00
1921, 2720.00
1922, 2719.00
1923, 2719.00
1924, 2720.00
1925, 2721.00
1926, 2722.00
1927, 2721.00
1928, 2721.00
1929, 2722.00
1930, 2722.00
1931, 2722.00
1932, 2720.00
1933, 2721.00
1934, 2720.00
1935, 2721.00
1936, 2724.00
1937, 2724.00
1938, 2722.00
1939, 2722.00
1940, 2723.00
1941, 2724.00
1942, 2724.00
1943, 2724.00
1944, 2725.00
1945, 2723.00
1946, 2726.00
1947, 2727.00
1948, 2725.00
1949, 2725.00
1950, 2727.00
1951, 2726.00
1952, 2727.00
1953, 2727.00
1954, 2729.00
1955, 2730.00
1956, 2729.00
1957, 2729.00
1958, 2732.00
1959, 2732.00
1960, 2730.00
1961, 2734.00
1962, 2734.00
1963, 2733.00
1964, 2734.00
1965, 2735.00
1966, 2734.00
1967, 2739.00
1968, 2737.00
1969, 2737.00
1970, 2738.00
1971, 2739.00
1972, 2741.00
1973, 2741.00
1974, 2740.00
1975, 2744.00
1976, 2742.00
1977, 2745.00
1978, 2743.00
1979, 2744.00
1980, 2746.00
1981, 2745.00
1982, 2747.00
1983, 2747.00
1984, 2749.00
1985, 2752.00
1986, 2751.00
1987, 2751.00
1988, 2755.00
1989, 2753.00
1990, 2753.00
1991, 2755.00
1992, 2755.00
1993, 2754.00
1994, 2757.00
1995, 2755.00
1996, 2758.00
1997, 2759.00
1998, 2759.00
1999, 2760.00
2000, 2760.00
2001, 2760.00
2002, 2758.00
2003, 2765.00
2004, 2762.00
2005, 2764.00
2006, 2765.00
2007, 2763.00
2008, 2765.00
2009, 2766.00
2010, 2765.00
2011, 2769.00
2012, 2768.00
2013, 2768.00
2014, 2771.00
2015, 2771.00
2016, 2771.00
2017, 2772.00
2018, 2773.00
2019, 2772.00
2020, 2773.00
2021, 2773.00
2022, 2774.00
2023, 2774.00
2024, 2778.00
2025, 2778.00
2026, 2777.00
2027, 2778.00
2028, 2780.00
2029, 2777.00
2030, 2780.00
2031, 2781.00
2032, 2781.00
2033, 2782.00
2034, 2782.00
2035, 2783.00
2036, 2785.00
2037, 2787.00
2038, 2785.00
2039, 2785.00
2040, 2789.00
2041, 2789.00
2042, 2789.00
2043, 2789.00
2044, 2793.00
2045, 2793.00
2046, 2792.00
2047, 2793.00
2048, 2795.00
2049, 2796.00
2050, 2797.00
2051, 2797.00
2052, 2798.00
2053, 2798.00
2054, 2801.00
2055, 2801.00
2056, 2803.00
2057, 2803.00
2058, 2807.00
2059, 2808.00
2060, 2806.00
2061, 2807.00
2062, 2808.00
2063, 2809.00
2064, 2811.00
2065, 2814.00
2066, 2812.00
2067, 2813.00
2068, 2814.00
2069, 2815.00
2070, 2818.00
2071, 2818.00
2072, 2819.00
2073, 2819.00
2074, 2821.00
2075, 2820.00
2076, 2821.00
2077, 2821.00
2078, 2822.00
2079, 2825.00
2080, 2824.00
2081, 2826.00
2082, 2826.00
2083, 2827.00
2084, 2828.00
2085, 2828.00
2086, 2829.00
2087, 2831.00
2088, 2831.00
2089, 2831.00
2090, 2832.00
2091, 2833.00
2092, 2834.00
2093, 2835.00
2094, 2834.00
2095, 2836.00
2096, 2835.00
2097, 2836.00
2098, 2838.00
2099, 2835.00
2100, 2836.00
2101, 2837.00
2102, 2839.00
2103, 2838.00
2104, 2841.00
2105, 2840.00
2106, 2841.00
2107, 2840.00
2108, 2839.00
2109, 2841.00
2110, 2840.00
2111, 2841.00
2112, 2843.00
2113, 2841.00
2114, 2844.00
2115, 2843.00
2116, 2842.00
2117, 2843.00
2118, 2845.00
2119, 2844.00
2120, 2845.00
2121, 2845.00
2122, 2845.00
2123, 2846.00
2124, 2843.00
2125, 2846.00
2126, 2846.00
2127, 2849.00
2128, 2845.00
2129, 2848.00
2130, 2848.00
2131, 2847.00
2132, 2847.00
2133, 2846.00
2134, 2850.00
2135, 2850.00
2136, 2849.00
2137, 2850.00
2138, 2849.00
2139, 2849.00
2140, 2852.00
2141, 2851.00
2142, 2851.00
2143, 2851.00
2144, 2852.00
2145, 2850.00
2146, 2852.00
2147, 2853.00
2148, 2853.00
2149, 2851.00
2150, 2853.00
