FW version: 24
Log Version: 3.0.3

General Info:
       Command/Macro Performed,            Timestamp,             Device ID, COM Port, UART/I2C, Test Name, Host Major, Host Minor, Host Revision, Host Git Commit
            Single_measurement,  2023_07_11_12_19_20,       Insight2_F4_xxx,    USB-C,      USB,          ,          0,          1,             1,      4031237645

Show Spectrometer Status:
l0_version, f4_version, battery_perc, battery_mVolt, accelerometer_temp, accelerometer_x, accelerometer_y, accelerometer_z, compass_temp, compass_x, compass_y, compass_z, lamp_0, lamp_1, gain_0, gain_1
        17,         24,           54,          1930,               7024,           65348,             444,           18768,            0,     65375,     65471,     18775,   3276,   3276,      1,      1

Temperature Statistic Info:
NTC AVG [°C], NTC2 AVG [°C]
      42.614,        42.253

Statistic Info:
M1:  num,      min,      max,   median,      AVG,      STD,M2:  num,      min,      max,   median,      AVG,      STD
     301,  1970.00,  2221.00,  2029.00,  2054.13,  78.4561,     401,  2718.00,  2861.00,  2795.00,  2791.42,  49.3638,

Measurements:
Wavelength, Data Amplitude
1350, 1999.00
1351, 1999.00
1352, 1997.00
1353, 1997.00
1354, 1996.00
1355, 1997.00
1356, 1996.00
1357, 1995.00
1358, 1995.00
1359, 1995.00
1360, 1993.00
1361, 1993.00
1362, 1993.00
1363, 1991.00
1364, 1990.00
1365, 1991.00
1366, 1989.00
1367, 1989.00
1368, 1987.00
1369, 1986.00
1370, 1986.00
1371, 1986.00
1372, 1983.00
1373, 1983.00
1374, 1983.00
1375, 1982.00
1376, 1981.00
1377, 1980.00
1378, 1979.00
1379, 1978.00
1380, 1979.00
1381, 1978.00
1382, 1976.00
1383, 1977.00
1384, 1976.00
1385, 1975.00
1386, 1976.00
1387, 1975.00
1388, 1975.00
1389, 1975.00
1390, 1974.00
1391, 1973.00
1392, 1974.00
1393, 1975.00
1394, 1973.00
1395, 1972.00
1396, 1973.00
1397, 1973.00
1398, 1974.00
1399, 1972.00
1400, 1972.00
1401, 1972.00
1402, 1972.00
1403, 1972.00
1404, 1973.00
1405, 1972.00
1406, 1972.00
1407, 1971.00
1408, 1971.00
1409, 1971.00
1410, 1971.00
1411, 1970.00
1412, 1972.00
1413, 1971.00
1414, 1971.00
1415, 1972.00
1416, 1971.00
1417, 1971.00
1418, 1973.00
1419, 1972.00
1420, 1971.00
1421, 1972.00
1422, 1972.00
1423, 1972.00
1424, 1974.00
1425, 1973.00
1426, 1974.00
1427, 1973.00
1428, 1974.00
1429, 1974.00
1430, 1974.00
1431, 1975.00
1432, 1975.00
1433, 1976.00
1434, 1975.00
1435, 1977.00
1436, 1976.00
1437, 1977.00
1438, 1978.00
1439, 1978.00
1440, 1978.00
1441, 1979.00
1442, 1979.00
1443, 1981.00
1444, 1981.00
1445, 1981.00
1446, 1982.00
1447, 1983.00
1448, 1985.00
1449, 1984.00
1450, 1985.00
1451, 1985.00
1452, 1985.00
1453, 1986.00
1454, 1987.00
1455, 1988.00
1456, 1989.00
1457, 1989.00
1458, 1990.00
1459, 1990.00
1460, 1991.00
1461, 1991.00
1462, 1993.00
1463, 1993.00
1464, 1993.00
1465, 1995.00
1466, 1996.00
1467, 1997.00
1468, 1997.00
1469, 1998.00
1470, 1999.00
1471, 1999.00
1472, 2001.00
1473, 2003.00
1474, 2002.00
1475, 2005.00
1476, 2004.00
1477, 2005.00
1478, 2006.00
1479, 2006.00
1480, 2007.00
1481, 2009.00
1482, 2010.00
1483, 2011.00
1484, 2013.00
1485, 2015.00
1486, 2015.00
1487, 2016.00
1488, 2016.00
1489, 2018.00
1490, 2019.00
1491, 2019.00
1492, 2020.00
1493, 2022.00
1494, 2022.00
1495, 2024.00
1496, 2025.00
1497, 2025.00
1498, 2027.00
1499, 2027.00
1500, 2029.00
1501, 2030.00
1502, 2031.00
1503, 2030.00
1504, 2031.00
1505, 2033.00
1506, 2035.00
1507, 2035.00
1508, 2035.00
1509, 2038.00
1510, 2039.00
1511, 2039.00
1512, 2041.00
1513, 2041.00
1514, 2043.00
1515, 2044.00
1516, 2044.00
1517, 2046.00
1518, 2047.00
1519, 2049.00
1520, 2052.00
1521, 2051.00
1522, 2052.00
1523, 2053.00
1524, 2055.00
1525, 2057.00
1526, 2056.00
1527, 2059.00
1528, 2060.00
1529, 2061.00
1530, 2060.00
1531, 2063.00
1532, 2065.00
1533, 2065.00
1534, 2065.00
1535, 2068.00
1536, 2069.00
1537, 2070.00
1538, 2071.00
1539, 2072.00
1540, 2073.00
1541, 2074.00
1542, 2076.00
1543, 2078.00
1544, 2078.00
1545, 2081.00
1546, 2081.00
1547, 2083.00
1548, 2083.00
1549, 2084.00
1550, 2086.00
1551, 2088.00
1552, 2088.00
1553, 2091.00
1554, 2091.00
1555, 2092.00
1556, 2093.00
1557, 2096.00
1558, 2096.00
1559, 2099.00
1560, 2098.00
1561, 2101.00
1562, 2102.00
1563, 2103.00
1564, 2104.00
1565, 2107.00
1566, 2108.00
1567, 2109.00
1568, 2110.00
1569, 2112.00
1570, 2113.00
1571, 2114.00
1572, 2116.00
1573, 2117.00
1574, 2119.00
1575, 2120.00
1576, 2121.00
1577, 2122.00
1578, 2124.00
1579, 2126.00
1580, 2126.00
1581, 2127.00
1582, 2129.00
1583, 2129.00
1584, 2131.00
1585, 2132.00
1586, 2133.00
1587, 2134.00
1588, 2136.00
1589, 2138.00
1590, 2137.00
1591, 2140.00
1592, 2140.00
1593, 2141.00
1594, 2142.00
1595, 2143.00
1596, 2146.00
1597, 2145.00
1598, 2147.00
1599, 2149.00
1600, 2150.00
1601, 2151.00
1602, 2151.00
1603, 2154.00
1604, 2154.00
1605, 2157.00
1606, 2158.00
1607, 2159.00
1608, 2161.00
1609, 2162.00
1610, 2163.00
1611, 2165.00
1612, 2166.00
1613, 2169.00
1614, 2170.00
1615, 2171.00
1616, 2172.00
1617, 2174.00
1618, 2176.00
1619, 2177.00
1620, 2179.00
1621, 2181.00
1622, 2183.00
1623, 2184.00
1624, 2186.00
1625, 2187.00
1626, 2187.00
1627, 2189.00
1628, 2192.00
1629, 2194.00
1630, 2195.00
1631, 2196.00
1632, 2197.00
1633, 2199.00
1634, 2200.00
1635, 2201.00
1636, 2202.00
1637, 2203.00
1638, 2204.00
1639, 2205.00
1640, 2208.00
1641, 2209.00
1642, 2210.00
1643, 2212.00
1644, 2213.00
1645, 2214.00
1646, 2214.00
1647, 2215.00
1648, 2218.00
1649, 2221.00
1650, 2221.00

1750, 2860.00
1751, 2860.00
1752, 2861.00
1753, 2858.00
1754, 2859.00
1755, 2860.00
1756, 2860.00
1757, 2861.00
1758, 2858.00
1759, 2860.00
1760, 2860.00
1761, 2860.00
1762, 2859.00
1763, 2857.00
1764, 2858.00
1765, 2858.00
1766, 2858.00
1767, 2859.00
1768, 2859.00
1769, 2860.00
1770, 2858.00
1771, 2856.00
1772, 2855.00
1773, 2855.00
1774, 2856.00
1775, 2855.00
1776, 2853.00
1777, 2854.00
1778, 2853.00
1779, 2852.00
1780, 2852.00
1781, 2851.00
1782, 2852.00
1783, 2852.00
1784, 2852.00
1785, 2849.00
1786, 2850.00
1787, 2849.00
1788, 2847.00
1789, 2848.00
1790, 2848.00
1791, 2848.00
1792, 2845.00
1793, 2845.00
1794, 2848.00
1795, 2843.00
1796, 2844.00
1797, 2841.00
1798, 2845.00
1799, 2844.00
1800, 2844.00
1801, 2843.00
1802, 2841.00
1803, 2843.00
1804, 2841.00
1805, 2841.00
1806, 2842.00
1807, 2842.00
1808, 2841.00
1809, 2839.00
1810, 2839.00
1811, 2839.00
1812, 2839.00
1813, 2837.00
1814, 2839.00
1815, 2838.00
1816, 2837.00
1817, 2836.00
1818, 2836.00
1819, 2836.00
1820, 2834.00
1821, 2835.00
1822, 2832.00
1823, 2834.00
1824, 2831.00
1825, 2829.00
1826, 2832.00
1827, 2829.00
1828, 2827.00
1829, 2825.00
1830, 2825.00
1831, 2824.00
1832, 2822.00
1833, 2821.00
1834, 2821.00
1835, 2819.00
1836, 2816.00
1837, 2816.00
1838, 2814.00
1839, 2814.00
1840, 2811.00
1841, 2809.00
1842, 2809.00
1843, 2804.00
1844, 2803.00
1845, 2799.00
1846, 2799.00
1847, 2796.00
1848, 2794.00
1849, 2791.00
1850, 2788.00
1851, 2789.00
1852, 2783.00
1853, 2782.00
1854, 2780.00
1855, 2778.00
1856, 2777.00
1857, 2772.00
1858, 2771.00
1859, 2769.00
1860, 2765.00
1861, 2763.00
1862, 2763.00
1863, 2759.00
1864, 2759.00
1865, 2756.00
1866, 2752.00
1867, 2753.00
1868, 2750.00
1869, 2748.00
1870, 2745.00
1871, 2745.00
1872, 2743.00
1873, 2743.00
1874, 2741.00
1875, 2741.00
1876, 2739.00
1877, 2737.00
1878, 2736.00
1879, 2735.00
1880, 2735.00
1881, 2733.00
1882, 2733.00
1883, 2732.00
1884, 2731.00
1885, 2730.00
1886, 2731.00
1887, 2730.00
1888, 2730.00
1889, 2727.00
1890, 2728.00
1891, 2725.00
1892, 2727.00
1893, 2726.00
1894, 2727.00
1895, 2725.00
1896, 2724.00
1897, 2723.00
1898, 2724.00
1899, 2720.00
1900, 2721.00
1901, 2723.00
1902, 2722.00
1903, 2720.00
1904, 2721.00
1905, 2721.00
1906, 2721.00
1907, 2723.00
1908, 2721.00
1909, 2721.00
1910, 2720.00
1911, 2719.00
1912, 2721.00
1913, 2719.00
1914, 2721.00
1915, 2721.00
1916, 2720.00
1917, 2719.00
1918, 2719.00
1919, 2721.00
1920, 2719.00
1921, 2721.00
1922, 2719.00
1923, 2718.00
1924, 2719.00
1925, 2721.00
1926, 2720.00
1927, 2721.00
1928, 2720.00
1929, 2721.00
1930, 2722.00
1931, 2721.00
1932, 2723.00
1933, 2721.00
1934, 2723.00
1935, 2722.00
1936, 2720.00
1937, 2720.00
1938, 2720.00
1939, 2723.00
1940, 2723.00
1941, 2722.00
1942, 2721.00
1943, 2723.00
1944, 2725.00
1945, 2725.00
1946, 2727.00
1947, 2725.00
1948, 2726.00
1949, 2726.00
1950, 2726.00
1951, 2727.00
1952, 2727.00
1953, 2728.00
1954, 2730.00
1955, 2728.00
1956, 2729.00
1957, 2728.00
1958, 2731.00
1959, 2731.00
1960, 2730.00
1961, 2733.00
1962, 2731.00
1963, 2733.00
1964, 2733.00
1965, 2733.00
1966, 2735.00
1967, 2736.00
1968, 2737.00
1969, 2739.00
1970, 2736.00
1971, 2737.00
1972, 2741.00
1973, 2740.00
1974, 2742.00
1975, 2742.00
1976, 2742.00
1977, 2744.00
1978, 2745.00
1979, 2745.00
1980, 2744.00
1981, 2744.00
1982, 2746.00
1983, 2746.00
1984, 2749.00
1985, 2748.00
1986, 2750.00
1987, 2751.00
1988, 2751.00
1989, 2752.00
1990, 2753.00
1991, 2754.00
1992, 2758.00
1993, 2756.00
1994, 2754.00
1995, 2755.00
1996, 2755.00
1997, 2758.00
1998, 2757.00
1999, 2757.00
2000, 2759.00
2001, 2761.00
2002, 2760.00
2003, 2761.00
2004, 2761.00
2005, 2761.00
2006, 2764.00
2007, 2765.00
2008, 2765.00
2009, 2765.00
2010, 2767.00
2011, 2769.00
2012, 2769.00
2013, 2767.00
2014, 2768.00
2015, 2769.00
2016, 2770.00
2017, 2770.00
2018, 2770.00
2019, 2773.00
2020, 2773.00
2021, 2773.00
2022, 2774.00
2023, 2774.00
2024, 2777.00
2025, 2775.00
2026, 2778.00
2027, 2779.00
2028, 2779.00
2029, 2781.00
2030, 2781.00
2031, 2782.00
2032, 2781.00
2033, 2782.00
2034, 2785.00
2035, 2785.00
2036, 2787.00
2037, 2785.00
2038, 2786.00
2039, 2786.00
2040, 2787.00
2041, 2789.00
2042, 2789.00
2043, 2789.00
2044, 2793.00
2045, 2791.00
2046, 2795.00
2047, 2795.00
2048, 2795.00
2049, 2795.00
2050, 2797.00
2051, 2797.00
2052, 2800.00
2053, 2799.00
2054, 2800.00
2055, 2801.00
2056, 2802.00
2057, 2802.00
2058, 2802.00
2059, 2805.00
2060, 2807.00
2061, 2807.00
2062, 2807.00
2063, 2810.00
2064, 2813.00
2065, 2812.00
2066, 2811.00
2067, 2814.00
2068, 2815.00
2069, 2815.00
2070, 2815.00
2071, 2817.00
2072, 2819.00
2073, 2818.00
2074, 2818.00
2075, 2821.00
2076, 2822.00
2077, 2825.00
2078, 2822.00
2079, 2821.00
2080, 2823.00
2081, 2827.00
2082, 2824.00
2083, 2826.00
2084, 2827.00
2085, 2827.00
2086, 2829.00
2087, 2829.00
2088, 2831.00
2089, 2833.00
2090, 2832.00
2091, 2833.00
2092, 2833.00
2093, 2833.00
2094, 2835.00
2095, 2835.00
2096, 2834.00
2097, 2837.00
2098, 2836.00
2099, 2835.00
2100, 2837.00
2101, 2837.00
2102, 2838.00
2103, 2838.00
2104, 2839.00
2105, 2838.00
2106, 2839.00
2107, 2839.00
2108, 2839.00
2109, 2840.00
2110, 2842.00
2111, 2842.00
2112, 2844.00
2113, 2841.00
2114, 2841.00
2115, 2843.00
2116, 2843.00
2117, 2843.00
2118, 2845.00
2119, 2846.00
2120, 2843.00
2121, 2845.00
2122, 2845.00
2123, 2845.00
2124, 2845.00
2125, 2845.00
2126, 2846.00
2127, 2847.00
2128, 2848.00
2129, 2846.00
2130, 2848.00
2131, 2847.00
2132, 2849.00
2133, 2849.00
2134, 2849.00
2135, 2850.00
2136, 2850.00
2137, 2851.00
2138, 2849.00
2139, 2849.00
2140, 2851.00
2141, 2851.00
2142, 2850.00
2143, 2852.00
2144, 2850.00
2145, 2851.00
2146, 2851.00
2147, 2852.00
2148, 2851.00
2149, 2854.00
2150, 2853.00
