FW version: 24
Log Version: 3.0.3

General Info:
       Command/Macro Performed,            Timestamp,             Device ID, COM Port, UART/I2C, Test Name, Host Major, Host Minor, Host Revision, Host Git Commit
            Single_measurement,  2023_07_11_12_18_26,       Insight2_F4_xxx,    USB-C,      USB,          ,          0,          1,             1,      4031237645

Show Spectrometer Status:
l0_version, f4_version, battery_perc, battery_mVolt, accelerometer_temp, accelerometer_x, accelerometer_y, accelerometer_z, compass_temp, compass_x, compass_y, compass_z, lamp_0, lamp_1, gain_0, gain_1
        17,         24,           54,          1920,               7024,           65308,             412,           18784,            0,     65343,     65437,     18794,   2047,   2047,      1,      1

Temperature Statistic Info:
NTC AVG [°C], NTC2 AVG [°C]
      42.343,        42.010

Statistic Info:
M1:  num,      min,      max,   median,      AVG,      STD,M2:  num,      min,      max,   median,      AVG,      STD
     301,   787.00,   899.00,   816.00,   825.34,  35.3794,     401,  1233.00,  1303.00,  1272.00,  1269.38,  23.4375,

Measurements:
Wavelength, Data Amplitude
1350, 796.00
1351, 796.00
1352, 795.00
1353, 795.00
1354, 795.00
1355, 796.00
1356, 796.00
1357, 795.00
1358, 795.00
1359, 794.00
1360, 795.00
1361, 793.00
1362, 794.00
1363, 794.00
1364, 793.00
1365, 794.00
1366, 793.00
1367, 793.00
1368, 793.00
1369, 792.00
1370, 792.00
1371, 791.00
1372, 791.00
1373, 791.00
1374, 791.00
1375, 790.00
1376, 790.00
1377, 790.00
1378, 789.00
1379, 790.00
1380, 790.00
1381, 789.00
1382, 788.00
1383, 789.00
1384, 788.00
1385, 788.00
1386, 789.00
1387, 789.00
1388, 788.00
1389, 789.00
1390, 787.00
1391, 788.00
1392, 789.00
1393, 788.00
1394, 788.00
1395, 787.00
1396, 789.00
1397, 788.00
1398, 788.00
1399, 788.00
1400, 788.00
1401, 788.00
1402, 788.00
1403, 788.00
1404, 787.00
1405, 788.00
1406, 788.00
1407, 788.00
1408, 787.00
1409, 788.00
1410, 787.00
1411, 787.00
1412, 789.00
1413, 788.00
1414, 788.00
1415, 788.00
1416, 788.00
1417, 788.00
1418, 788.00
1419, 789.00
1420, 789.00
1421, 789.00
1422, 788.00
1423, 788.00
1424, 789.00
1425, 789.00
1426, 789.00
1427, 788.00
1428, 790.00
1429, 790.00
1430, 791.00
1431, 790.00
1432, 789.00
1433, 790.00
1434, 791.00
1435, 791.00
1436, 792.00
1437, 792.00
1438, 792.00
1439, 793.00
1440, 792.00
1441, 792.00
1442, 792.00
1443, 792.00
1444, 793.00
1445, 794.00
1446, 794.00
1447, 794.00
1448, 794.00
1449, 794.00
1450, 794.00
1451, 796.00
1452, 795.00
1453, 795.00
1454, 795.00
1455, 795.00
1456, 795.00
1457, 797.00
1458, 796.00
1459, 798.00
1460, 797.00
1461, 798.00
1462, 798.00
1463, 799.00
1464, 799.00
1465, 799.00
1466, 800.00
1467, 801.00
1468, 801.00
1469, 801.00
1470, 801.00
1471, 802.00
1472, 801.00
1473, 804.00
1474, 803.00
1475, 803.00
1476, 804.00
1477, 805.00
1478, 805.00
1479, 806.00
1480, 804.00
1481, 806.00
1482, 806.00
1483, 808.00
1484, 808.00
1485, 808.00
1486, 808.00
1487, 808.00
1488, 809.00
1489, 810.00
1490, 811.00
1491, 811.00
1492, 812.00
1493, 810.00
1494, 812.00
1495, 813.00
1496, 813.00
1497, 813.00
1498, 813.00
1499, 815.00
1500, 816.00
1501, 817.00
1502, 816.00
1503, 816.00
1504, 818.00
1505, 818.00
1506, 818.00
1507, 818.00
1508, 819.00
1509, 819.00
1510, 820.00
1511, 820.00
1512, 821.00
1513, 822.00
1514, 821.00
1515, 822.00
1516, 824.00
1517, 823.00
1518, 824.00
1519, 825.00
1520, 825.00
1521, 826.00
1522, 827.00
1523, 826.00
1524, 826.00
1525, 828.00
1526, 829.00
1527, 829.00
1528, 829.00
1529, 830.00
1530, 830.00
1531, 831.00
1532, 832.00
1533, 832.00
1534, 833.00
1535, 833.00
1536, 834.00
1537, 835.00
1538, 835.00
1539, 837.00
1540, 835.00
1541, 837.00
1542, 837.00
1543, 837.00
1544, 838.00
1545, 839.00
1546, 838.00
1547, 839.00
1548, 840.00
1549, 841.00
1550, 841.00
1551, 843.00
1552, 842.00
1553, 844.00
1554, 843.00
1555, 844.00
1556, 845.00
1557, 845.00
1558, 846.00
1559, 847.00
1560, 846.00
1561, 848.00
1562, 848.00
1563, 848.00
1564, 849.00
1565, 850.00
1566, 850.00
1567, 851.00
1568, 852.00
1569, 852.00
1570, 853.00
1571, 853.00
1572, 854.00
1573, 855.00
1574, 855.00
1575, 856.00
1576, 856.00
1577, 856.00
1578, 857.00
1579, 857.00
1580, 858.00
1581, 859.00
1582, 859.00
1583, 859.00
1584, 860.00
1585, 860.00
1586, 862.00
1587, 861.00
1588, 863.00
1589, 862.00
1590, 862.00
1591, 863.00
1592, 864.00
1593, 865.00
1594, 866.00
1595, 865.00
1596, 867.00
1597, 867.00
1598, 867.00
1599, 867.00
1600, 868.00
1601, 869.00
1602, 869.00
1603, 869.00
1604, 870.00
1605, 871.00
1606, 872.00
1607, 873.00
1608, 873.00
1609, 873.00
1610, 874.00
1611, 876.00
1612, 875.00
1613, 876.00
1614, 878.00
1615, 877.00
1616, 879.00
1617, 879.00
1618, 880.00
1619, 880.00
1620, 881.00
1621, 883.00
1622, 882.00
1623, 883.00
1624, 885.00
1625, 886.00
1626, 884.00
1627, 886.00
1628, 887.00
1629, 887.00
1630, 887.00
1631, 888.00
1632, 888.00
1633, 889.00
1634, 889.00
1635, 891.00
1636, 892.00
1637, 891.00
1638, 893.00
1639, 892.00
1640, 893.00
1641, 893.00
1642, 894.00
1643, 894.00
1644, 895.00
1645, 895.00
1646, 895.00
1647, 895.00
1648, 897.00
1649, 897.00
1650, 899.00

1750, 1297.00
1751, 1298.00
1752, 1296.00
1753, 1299.00
1754, 1296.00
1755, 1297.00
1756, 1297.00
1757, 1297.00
1758, 1296.00
1759, 1297.00
1760, 1298.00
1761, 1299.00
1762, 1296.00
1763, 1298.00
1764, 1296.00
1765, 1299.00
1766, 1297.00
1767, 1296.00
1768, 1294.00
1769, 1296.00
1770, 1296.00
1771, 1296.00
1772, 1297.00
1773, 1296.00
1774, 1297.00
1775, 1296.00
1776, 1297.00
1777, 1296.00
1778, 1295.00
1779, 1296.00
1780, 1293.00
1781, 1295.00
1782, 1295.00
1783, 1295.00
1784, 1293.00
1785, 1292.00
1786, 1293.00
1787, 1293.00
1788, 1293.00
1789, 1292.00
1790, 1291.00
1791, 1293.00
1792, 1293.00
1793, 1292.00
1794, 1292.00
1795, 1291.00
1796, 1291.00
1797, 1290.00
1798, 1289.00
1799, 1290.00
1800, 1291.00
1801, 1290.00
1802, 1291.00
1803, 1291.00
1804, 1289.00
1805, 1289.00
1806, 1289.00
1807, 1289.00
1808, 1291.00
1809, 1290.00
1810, 1289.00
1811, 1289.00
1812, 1288.00
1813, 1289.00
1814, 1290.00
1815, 1288.00
1816, 1289.00
1817, 1289.00
1818, 1288.00
1819, 1289.00
1820, 1286.00
1821, 1287.00
1822, 1286.00
1823, 1286.00
1824, 1286.00
1825, 1286.00
1826, 1284.00
1827, 1285.00
1828, 1284.00
1829, 1283.00
1830, 1284.00
1831, 1284.00
1832, 1283.00
1833, 1282.00
1834, 1281.00
1835, 1281.00
1836, 1277.00
1837, 1279.00
1838, 1277.00
1839, 1277.00
1840, 1278.00
1841, 1276.00
1842, 1276.00
1843, 1274.00
1844, 1272.00
1845, 1274.00
1846, 1271.00
1847, 1270.00
1848, 1269.00
1849, 1270.00
1850, 1268.00
1851, 1264.00
1852, 1266.00
1853, 1264.00
1854, 1262.00
1855, 1263.00
1856, 1260.00
1857, 1259.00
1858, 1258.00
1859, 1259.00
1860, 1258.00
1861, 1254.00
1862, 1253.00
1863, 1254.00
1864, 1253.00
1865, 1250.00
1866, 1252.00
1867, 1250.00
1868, 1249.00
1869, 1249.00
1870, 1246.00
1871, 1247.00
1872, 1247.00
1873, 1245.00
1874, 1245.00
1875, 1243.00
1876, 1244.00
1877, 1245.00
1878, 1242.00
1879, 1242.00
1880, 1241.00
1881, 1243.00
1882, 1240.00
1883, 1241.00
1884, 1240.00
1885, 1239.00
1886, 1239.00
1887, 1239.00
1888, 1238.00
1889, 1239.00
1890, 1239.00
1891, 1238.00
1892, 1237.00
1893, 1239.00
1894, 1238.00
1895, 1237.00
1896, 1236.00
1897, 1236.00
1898, 1236.00
1899, 1235.00
1900, 1236.00
1901, 1237.00
1902, 1236.00
1903, 1237.00
1904, 1235.00
1905, 1236.00
1906, 1238.00
1907, 1235.00
1908, 1236.00
1909, 1236.00
1910, 1233.00
1911, 1235.00
1912, 1236.00
1913, 1233.00
1914, 1237.00
1915, 1237.00
1916, 1234.00
1917, 1235.00
1918, 1236.00
1919, 1235.00
1920, 1235.00
1921, 1234.00
1922, 1235.00
1923, 1233.00
1924, 1236.00
1925, 1234.00
1926, 1237.00
1927, 1235.00
1928, 1233.00
1929, 1235.00
1930, 1235.00
1931, 1236.00
1932, 1236.00
1933, 1236.00
1934, 1236.00
1935, 1236.00
1936, 1234.00
1937, 1235.00
1938, 1235.00
1939, 1237.00
1940, 1236.00
1941, 1236.00
1942, 1237.00
1943, 1237.00
1944, 1238.00
1945, 1238.00
1946, 1238.00
1947, 1239.00
1948, 1236.00
1949, 1236.00
1950, 1238.00
1951, 1239.00
1952, 1239.00
1953, 1239.00
1954, 1240.00
1955, 1239.00
1956, 1241.00
1957, 1240.00
1958, 1240.00
1959, 1241.00
1960, 1242.00
1961, 1242.00
1962, 1243.00
1963, 1242.00
1964, 1243.00
1965, 1242.00
1966, 1244.00
1967, 1244.00
1968, 1243.00
1969, 1243.00
1970, 1244.00
1971, 1244.00
1972, 1244.00
1973, 1247.00
1974, 1246.00
1975, 1247.00
1976, 1245.00
1977, 1247.00
1978, 1246.00
1979, 1247.00
1980, 1250.00
1981, 1249.00
1982, 1251.00
1983, 1250.00
1984, 1250.00
1985, 1250.00
1986, 1250.00
1987, 1249.00
1988, 1252.00
1989, 1252.00
1990, 1253.00
1991, 1252.00
1992, 1252.00
1993, 1252.00
1994, 1254.00
1995, 1252.00
1996, 1255.00
1997, 1254.00
1998, 1253.00
1999, 1257.00
2000, 1253.00
2001, 1253.00
2002, 1254.00
2003, 1257.00
2004, 1256.00
2005, 1256.00
2006, 1257.00
2007, 1257.00
2008, 1258.00
2009, 1257.00
2010, 1258.00
2011, 1258.00
2012, 1259.00
2013, 1260.00
2014, 1259.00
2015, 1260.00
2016, 1261.00
2017, 1261.00
2018, 1261.00
2019, 1263.00
2020, 1261.00
2021, 1263.00
2022, 1262.00
2023, 1263.00
2024, 1262.00
2025, 1263.00
2026, 1262.00
2027, 1265.00
2028, 1264.00
2029, 1263.00
2030, 1265.00
2031, 1263.00
2032, 1267.00
2033, 1267.00
2034, 1266.00
2035, 1266.00
2036, 1267.00
2037, 1267.00
2038, 1268.00
2039, 1269.00
2040, 1268.00
2041, 1269.00
2042, 1268.00
2043, 1270.00
2044, 1270.00
2045, 1271.00
2046, 1272.00
2047, 1272.00
2048, 1275.00
2049, 1273.00
2050, 1274.00
2051, 1273.00
2052, 1275.00
2053, 1274.00
2054, 1276.00
2055, 1276.00
2056, 1276.00
2057, 1276.00
2058, 1277.00
2059, 1279.00
2060, 1279.00
2061, 1280.00
2062, 1280.00
2063, 1279.00
2064, 1280.00
2065, 1283.00
2066, 1282.00
2067, 1282.00
2068, 1283.00
2069, 1283.00
2070, 1283.00
2071, 1286.00
2072, 1285.00
2073, 1285.00
2074, 1287.00
2075, 1283.00
2076, 1286.00
2077, 1288.00
2078, 1287.00
2079, 1286.00
2080, 1288.00
2081, 1289.00
2082, 1290.00
2083, 1288.00
2084, 1288.00
2085, 1289.00
2086, 1288.00
2087, 1289.00
2088, 1290.00
2089, 1290.00
2090, 1290.00
2091, 1293.00
2092, 1293.00
2093, 1294.00
2094, 1292.00
2095, 1293.00
2096, 1293.00
2097, 1295.00
2098, 1293.00
2099, 1294.00
2100, 1295.00
2101, 1295.00
2102, 1294.00
2103, 1295.00
2104, 1295.00
2105, 1294.00
2106, 1297.00
2107, 1297.00
2108, 1296.00
2109, 1297.00
2110, 1297.00
2111, 1295.00
2112, 1296.00
2113, 1297.00
2114, 1297.00
2115, 1296.00
2116, 1298.00
2117, 1297.00
2118, 1296.00
2119, 1297.00
2120, 1299.00
2121, 1297.00
2122, 1299.00
2123, 1300.00
2124, 1299.00
2125, 1300.00
2126, 1299.00
2127, 1300.00
2128, 1297.00
2129, 1300.00
2130, 1299.00
2131, 1301.00
2132, 1298.00
2133, 1301.00
2134, 1300.00
2135, 1300.00
2136, 1300.00
2137, 1300.00
2138, 1300.00
2139, 1302.00
2140, 1300.00
2141, 1303.00
2142, 1302.00
2143, 1301.00
2144, 1303.00
2145, 1302.00
2146, 1301.00
2147, 1300.00
2148, 1301.00
2149, 1302.00
2150, 1303.00
