FW version: 24
Log Version: 3.0.3

General Info:
       Command/Macro Performed,            Timestamp,             Device ID, COM Port, UART/I2C, Test Name, Host Major, Host Minor, Host Revision, Host Git Commit
            Single_measurement,  2023_06_30_11_34_42,       Insight2_F4_xxx,    USB-C,      USB,          ,          0,          1,             1,      4031237645

Show Spectrometer Status:
l0_version, f4_version, battery_perc, battery_mVolt, accelerometer_temp, accelerometer_x, accelerometer_y, accelerometer_z, compass_temp, compass_x, compass_y, compass_z, lamp_0, lamp_1, gain_0, gain_1
        17,         24,           95,          2079,               6240,           65340,             428,           18600,            0,     65343,     65534,     18607,   2866,   2866,      1,      1

Temperature Statistic Info:
NTC AVG [°C], NTC2 AVG [°C]
      39.411,        39.086

Statistic Info:
M1:  num,      min,      max,   median,      AVG,      STD,M2:  num,      min,      max,   median,      AVG,      STD
     301,  1611.00,  1865.00,  1661.00,  1693.81,  78.5504,     401,  2135.00,  2291.00,  2200.00,  2203.70,  50.6031,

Measurements:
Wavelength, Data Amplitude
1350, 1657.00
1351, 1657.00
1352, 1656.00
1353, 1655.00
1354, 1653.00
1355, 1653.00
1356, 1652.00
1357, 1651.00
1358, 1650.00
1359, 1648.00
1360, 1647.00
1361, 1646.00
1362, 1646.00
1363, 1645.00
1364, 1642.00
1365, 1642.00
1366, 1640.00
1367, 1640.00
1368, 1638.00
1369, 1636.00
1370, 1636.00
1371, 1636.00
1372, 1634.00
1373, 1632.00
1374, 1631.00
1375, 1630.00
1376, 1629.00
1377, 1627.00
1378, 1627.00
1379, 1626.00
1380, 1625.00
1381, 1623.00
1382, 1624.00
1383, 1622.00
1384, 1622.00
1385, 1621.00
1386, 1621.00
1387, 1620.00
1388, 1619.00
1389, 1619.00
1390, 1619.00
1391, 1617.00
1392, 1617.00
1393, 1618.00
1394, 1616.00
1395, 1617.00
1396, 1616.00
1397, 1616.00
1398, 1616.00
1399, 1615.00
1400, 1615.00
1401, 1615.00
1402, 1615.00
1403, 1614.00
1404, 1613.00
1405, 1614.00
1406, 1613.00
1407, 1613.00
1408, 1613.00
1409, 1613.00
1410, 1613.00
1411, 1613.00
1412, 1612.00
1413, 1612.00
1414, 1611.00
1415, 1612.00
1416, 1611.00
1417, 1611.00
1418, 1613.00
1419, 1611.00
1420, 1612.00
1421, 1612.00
1422, 1612.00
1423, 1612.00
1424, 1611.00
1425, 1612.00
1426, 1613.00
1427, 1612.00
1428, 1611.00
1429, 1613.00
1430, 1612.00
1431, 1614.00
1432, 1613.00
1433, 1614.00
1434, 1614.00
1435, 1615.00
1436, 1614.00
1437, 1615.00
1438, 1616.00
1439, 1615.00
1440, 1617.00
1441, 1616.00
1442, 1616.00
1443, 1617.00
1444, 1618.00
1445, 1618.00
1446, 1618.00
1447, 1619.00
1448, 1619.00
1449, 1620.00
1450, 1621.00
1451, 1621.00
1452, 1621.00
1453, 1622.00
1454, 1623.00
1455, 1622.00
1456, 1622.00
1457, 1623.00
1458, 1625.00
1459, 1625.00
1460, 1626.00
1461, 1626.00
1462, 1628.00
1463, 1627.00
1464, 1628.00
1465, 1629.00
1466, 1630.00
1467, 1630.00
1468, 1631.00
1469, 1632.00
1470, 1634.00
1471, 1633.00
1472, 1634.00
1473, 1635.00
1474, 1637.00
1475, 1637.00
1476, 1639.00
1477, 1639.00
1478, 1639.00
1479, 1641.00
1480, 1643.00
1481, 1643.00
1482, 1645.00
1483, 1645.00
1484, 1646.00
1485, 1648.00
1486, 1648.00
1487, 1650.00
1488, 1650.00
1489, 1652.00
1490, 1652.00
1491, 1653.00
1492, 1654.00
1493, 1655.00
1494, 1656.00
1495, 1657.00
1496, 1658.00
1497, 1659.00
1498, 1661.00
1499, 1661.00
1500, 1661.00
1501, 1664.00
1502, 1664.00
1503, 1665.00
1504, 1667.00
1505, 1668.00
1506, 1668.00
1507, 1670.00
1508, 1671.00
1509, 1672.00
1510, 1672.00
1511, 1673.00
1512, 1674.00
1513, 1676.00
1514, 1677.00
1515, 1678.00
1516, 1679.00
1517, 1681.00
1518, 1682.00
1519, 1683.00
1520, 1685.00
1521, 1686.00
1522, 1687.00
1523, 1689.00
1524, 1689.00
1525, 1689.00
1526, 1694.00
1527, 1693.00
1528, 1694.00
1529, 1696.00
1530, 1697.00
1531, 1698.00
1532, 1699.00
1533, 1701.00
1534, 1703.00
1535, 1703.00
1536, 1705.00
1537, 1706.00
1538, 1707.00
1539, 1710.00
1540, 1711.00
1541, 1710.00
1542, 1713.00
1543, 1714.00
1544, 1715.00
1545, 1716.00
1546, 1718.00
1547, 1717.00
1548, 1720.00
1549, 1721.00
1550, 1722.00
1551, 1723.00
1552, 1726.00
1553, 1726.00
1554, 1728.00
1555, 1729.00
1556, 1731.00
1557, 1732.00
1558, 1734.00
1559, 1735.00
1560, 1736.00
1561, 1738.00
1562, 1740.00
1563, 1741.00
1564, 1742.00
1565, 1744.00
1566, 1745.00
1567, 1746.00
1568, 1749.00
1569, 1750.00
1570, 1751.00
1571, 1752.00
1572, 1753.00
1573, 1755.00
1574, 1755.00
1575, 1757.00
1576, 1760.00
1577, 1760.00
1578, 1762.00
1579, 1763.00
1580, 1764.00
1581, 1765.00
1582, 1768.00
1583, 1768.00
1584, 1770.00
1585, 1772.00
1586, 1772.00
1587, 1773.00
1588, 1775.00
1589, 1776.00
1590, 1777.00
1591, 1779.00
1592, 1780.00
1593, 1781.00
1594, 1782.00
1595, 1784.00
1596, 1786.00
1597, 1787.00
1598, 1787.00
1599, 1789.00
1600, 1790.00
1601, 1791.00
1602, 1793.00
1603, 1794.00
1604, 1796.00
1605, 1798.00
1606, 1798.00
1607, 1799.00
1608, 1801.00
1609, 1804.00
1610, 1805.00
1611, 1807.00
1612, 1808.00
1613, 1809.00
1614, 1811.00
1615, 1813.00
1616, 1815.00
1617, 1816.00
1618, 1818.00
1619, 1819.00
1620, 1821.00
1621, 1822.00
1622, 1824.00
1623, 1825.00
1624, 1827.00
1625, 1829.00
1626, 1830.00
1627, 1832.00
1628, 1834.00
1629, 1836.00
1630, 1836.00
1631, 1837.00
1632, 1840.00
1633, 1841.00
1634, 1843.00
1635, 1843.00
1636, 1845.00
1637, 1847.00
1638, 1849.00
1639, 1849.00
1640, 1851.00
1641, 1853.00
1642, 1854.00
1643, 1854.00
1644, 1856.00
1645, 1857.00
1646, 1858.00
1647, 1860.00
1648, 1862.00
1649, 1863.00
1650, 1865.00

1750, 2289.00
1751, 2289.00
1752, 2288.00
1753, 2291.00
1754, 2290.00
1755, 2289.00
1756, 2289.00
1757, 2289.00
1758, 2288.00
1759, 2288.00
1760, 2287.00
1761, 2287.00
1762, 2287.00
1763, 2289.00
1764, 2287.00
1765, 2289.00
1766, 2288.00
1767, 2288.00
1768, 2286.00
1769, 2286.00
1770, 2285.00
1771, 2286.00
1772, 2287.00
1773, 2287.00
1774, 2283.00
1775, 2285.00
1776, 2282.00
1777, 2285.00
1778, 2283.00
1779, 2284.00
1780, 2283.00
1781, 2282.00
1782, 2281.00
1783, 2281.00
1784, 2283.00
1785, 2279.00
1786, 2278.00
1787, 2279.00
1788, 2279.00
1789, 2277.00
1790, 2277.00
1791, 2276.00
1792, 2277.00
1793, 2275.00
1794, 2275.00
1795, 2273.00
1796, 2274.00
1797, 2274.00
1798, 2273.00
1799, 2272.00
1800, 2272.00
1801, 2273.00
1802, 2271.00
1803, 2271.00
1804, 2271.00
1805, 2269.00
1806, 2268.00
1807, 2269.00
1808, 2268.00
1809, 2268.00
1810, 2268.00
1811, 2266.00
1812, 2266.00
1813, 2264.00
1814, 2265.00
1815, 2264.00
1816, 2264.00
1817, 2262.00
1818, 2261.00
1819, 2260.00
1820, 2259.00
1821, 2259.00
1822, 2256.00
1823, 2258.00
1824, 2255.00
1825, 2254.00
1826, 2253.00
1827, 2253.00
1828, 2251.00
1829, 2248.00
1830, 2247.00
1831, 2246.00
1832, 2244.00
1833, 2241.00
1834, 2241.00
1835, 2240.00
1836, 2238.00
1837, 2235.00
1838, 2233.00
1839, 2230.00
1840, 2229.00
1841, 2227.00
1842, 2225.00
1843, 2221.00
1844, 2220.00
1845, 2216.00
1846, 2214.00
1847, 2212.00
1848, 2212.00
1849, 2206.00
1850, 2205.00
1851, 2204.00
1852, 2201.00
1853, 2198.00
1854, 2194.00
1855, 2194.00
1856, 2192.00
1857, 2188.00
1858, 2185.00
1859, 2185.00
1860, 2182.00
1861, 2179.00
1862, 2178.00
1863, 2176.00
1864, 2175.00
1865, 2171.00
1866, 2170.00
1867, 2170.00
1868, 2167.00
1869, 2167.00
1870, 2165.00
1871, 2165.00
1872, 2163.00
1873, 2161.00
1874, 2157.00
1875, 2159.00
1876, 2157.00
1877, 2156.00
1878, 2153.00
1879, 2154.00
1880, 2152.00
1881, 2153.00
1882, 2151.00
1883, 2150.00
1884, 2151.00
1885, 2149.00
1886, 2148.00
1887, 2147.00
1888, 2147.00
1889, 2146.00
1890, 2148.00
1891, 2146.00
1892, 2145.00
1893, 2144.00
1894, 2147.00
1895, 2144.00
1896, 2143.00
1897, 2142.00
1898, 2143.00
1899, 2142.00
1900, 2141.00
1901, 2142.00
1902, 2142.00
1903, 2142.00
1904, 2141.00
1905, 2139.00
1906, 2139.00
1907, 2140.00
1908, 2139.00
1909, 2140.00
1910, 2137.00
1911, 2138.00
1912, 2138.00
1913, 2139.00
1914, 2140.00
1915, 2137.00
1916, 2139.00
1917, 2137.00
1918, 2140.00
1919, 2137.00
1920, 2137.00
1921, 2138.00
1922, 2136.00
1923, 2139.00
1924, 2136.00
1925, 2138.00
1926, 2137.00
1927, 2135.00
1928, 2135.00
1929, 2137.00
1930, 2138.00
1931, 2137.00
1932, 2139.00
1933, 2137.00
1934, 2136.00
1935, 2136.00
1936, 2139.00
1937, 2139.00
1938, 2138.00
1939, 2139.00
1940, 2140.00
1941, 2137.00
1942, 2141.00
1943, 2138.00
1944, 2139.00
1945, 2139.00
1946, 2142.00
1947, 2140.00
1948, 2140.00
1949, 2140.00
1950, 2141.00
1951, 2140.00
1952, 2141.00
1953, 2141.00
1954, 2143.00
1955, 2141.00
1956, 2144.00
1957, 2143.00
1958, 2144.00
1959, 2145.00
1960, 2145.00
1961, 2145.00
1962, 2145.00
1963, 2145.00
1964, 2146.00
1965, 2145.00
1966, 2148.00
1967, 2148.00
1968, 2148.00
1969, 2149.00
1970, 2148.00
1971, 2150.00
1972, 2149.00
1973, 2152.00
1974, 2151.00
1975, 2152.00
1976, 2153.00
1977, 2154.00
1978, 2154.00
1979, 2153.00
1980, 2154.00
1981, 2154.00
1982, 2155.00
1983, 2156.00
1984, 2155.00
1985, 2157.00
1986, 2158.00
1987, 2158.00
1988, 2160.00
1989, 2160.00
1990, 2160.00
1991, 2160.00
1992, 2161.00
1993, 2159.00
1994, 2161.00
1995, 2163.00
1996, 2162.00
1997, 2163.00
1998, 2163.00
1999, 2165.00
2000, 2164.00
2001, 2165.00
2002, 2166.00
2003, 2167.00
2004, 2166.00
2005, 2168.00
2006, 2170.00
2007, 2167.00
2008, 2169.00
2009, 2170.00
2010, 2171.00
2011, 2172.00
2012, 2171.00
2013, 2173.00
2014, 2173.00
2015, 2175.00
2016, 2175.00
2017, 2175.00
2018, 2173.00
2019, 2176.00
2020, 2176.00
2021, 2177.00
2022, 2178.00
2023, 2177.00
2024, 2180.00
2025, 2179.00
2026, 2179.00
2027, 2182.00
2028, 2181.00
2029, 2181.00
2030, 2182.00
2031, 2182.00
2032, 2184.00
2033, 2182.00
2034, 2186.00
2035, 2187.00
2036, 2186.00
2037, 2187.00
2038, 2188.00
2039, 2188.00
2040, 2189.00
2041, 2189.00
2042, 2190.00
2043, 2193.00
2044, 2191.00
2045, 2192.00
2046, 2193.00
2047, 2194.00
2048, 2195.00
2049, 2194.00
2050, 2198.00
2051, 2197.00
2052, 2197.00
2053, 2200.00
2054, 2201.00
2055, 2201.00
2056, 2202.00
2057, 2204.00
2058, 2205.00
2059, 2205.00
2060, 2204.00
2061, 2205.00
2062, 2208.00
2063, 2208.00
2064, 2208.00
2065, 2210.00
2066, 2209.00
2067, 2211.00
2068, 2212.00
2069, 2213.00
2070, 2213.00
2071, 2216.00
2072, 2215.00
2073, 2218.00
2074, 2217.00
2075, 2217.00
2076, 2220.00
2077, 2218.00
2078, 2221.00
2079, 2221.00
2080, 2221.00
2081, 2223.00
2082, 2224.00
2083, 2225.00
2084, 2224.00
2085, 2227.00
2086, 2228.00
2087, 2228.00
2088, 2228.00
2089, 2229.00
2090, 2230.00
2091, 2229.00
2092, 2231.00
2093, 2231.00
2094, 2230.00
2095, 2232.00
2096, 2233.00
2097, 2234.00
2098, 2235.00
2099, 2235.00
2100, 2233.00
2101, 2236.00
2102, 2238.00
2103, 2237.00
2104, 2238.00
2105, 2237.00
2106, 2239.00
2107, 2241.00
2108, 2240.00
2109, 2239.00
2110, 2239.00
2111, 2242.00
2112, 2242.00
2113, 2242.00
2114, 2243.00
2115, 2242.00
2116, 2243.00
2117, 2241.00
2118, 2243.00
2119, 2244.00
2120, 2243.00
2121, 2245.00
2122, 2244.00
2123, 2246.00
2124, 2247.00
2125, 2245.00
2126, 2245.00
2127, 2246.00
2128, 2246.00
2129, 2249.00
2130, 2247.00
2131, 2247.00
2132, 2247.00
2133, 2250.00
2134, 2249.00
2135, 2250.00
2136, 2249.00
2137, 2249.00
2138, 2250.00
2139, 2250.00
2140, 2250.00
2141, 2251.00
2142, 2253.00
2143, 2251.00
2144, 2253.00
2145, 2250.00
2146, 2253.00
2147, 2252.00
2148, 2253.00
2149, 2256.00
2150, 2254.00
