FW version: 24
Log Version: 3.0.3

General Info:
       Command/Macro Performed,            Timestamp,             Device ID, COM Port, UART/I2C, Test Name, Host Major, Host Minor, Host Revision, Host Git Commit
            Single_measurement,  2023_06_28_12_34_10,       Insight2_F4_xxx,    USB-C,      USB,          ,          0,          1,             1,      4031237645

Show Spectrometer Status:
l0_version, f4_version, battery_perc, battery_mVolt, accelerometer_temp, accelerometer_x, accelerometer_y, accelerometer_z, compass_temp, compass_x, compass_y, compass_z, lamp_0, lamp_1, gain_0, gain_1
        17,         24,           49,          1919,               6400,             212,             296,           18864,            0,     65526,     65469,     18871,   3276,   3276,      1,      1

Temperature Statistic Info:
NTC AVG [°C], NTC2 AVG [°C]
      39.995,        39.704

Statistic Info:
M1:  num,      min,      max,   median,      AVG,      STD,M2:  num,      min,      max,   median,      AVG,      STD
     301,  1730.00,  1959.00,  1782.00,  1806.54,  71.2888,     401,  2353.00,  2501.00,  2427.00,  2425.67,  49.0431,

Measurements:
Wavelength, Data Amplitude
1350, 1762.00
1351, 1762.00
1352, 1762.00
1353, 1761.00
1354, 1760.00
1355, 1759.00
1356, 1760.00
1357, 1759.00
1358, 1758.00
1359, 1757.00
1360, 1756.00
1361, 1755.00
1362, 1755.00
1363, 1755.00
1364, 1754.00
1365, 1753.00
1366, 1752.00
1367, 1752.00
1368, 1751.00
1369, 1750.00
1370, 1749.00
1371, 1747.00
1372, 1746.00
1373, 1745.00
1374, 1745.00
1375, 1744.00
1376, 1744.00
1377, 1742.00
1378, 1742.00
1379, 1741.00
1380, 1740.00
1381, 1740.00
1382, 1739.00
1383, 1739.00
1384, 1737.00
1385, 1737.00
1386, 1737.00
1387, 1737.00
1388, 1736.00
1389, 1737.00
1390, 1736.00
1391, 1735.00
1392, 1734.00
1393, 1735.00
1394, 1733.00
1395, 1734.00
1396, 1735.00
1397, 1734.00
1398, 1733.00
1399, 1732.00
1400, 1732.00
1401, 1732.00
1402, 1733.00
1403, 1733.00
1404, 1732.00
1405, 1732.00
1406, 1732.00
1407, 1732.00
1408, 1732.00
1409, 1732.00
1410, 1733.00
1411, 1731.00
1412, 1731.00
1413, 1731.00
1414, 1732.00
1415, 1730.00
1416, 1731.00
1417, 1731.00
1418, 1731.00
1419, 1731.00
1420, 1732.00
1421, 1732.00
1422, 1731.00
1423, 1732.00
1424, 1732.00
1425, 1733.00
1426, 1732.00
1427, 1732.00
1428, 1732.00
1429, 1733.00
1430, 1734.00
1431, 1733.00
1432, 1733.00
1433, 1734.00
1434, 1733.00
1435, 1734.00
1436, 1735.00
1437, 1735.00
1438, 1736.00
1439, 1737.00
1440, 1737.00
1441, 1737.00
1442, 1737.00
1443, 1737.00
1444, 1739.00
1445, 1738.00
1446, 1739.00
1447, 1740.00
1448, 1740.00
1449, 1741.00
1450, 1741.00
1451, 1743.00
1452, 1742.00
1453, 1742.00
1454, 1743.00
1455, 1745.00
1456, 1744.00
1457, 1745.00
1458, 1746.00
1459, 1747.00
1460, 1747.00
1461, 1749.00
1462, 1748.00
1463, 1750.00
1464, 1750.00
1465, 1751.00
1466, 1751.00
1467, 1751.00
1468, 1753.00
1469, 1753.00
1470, 1755.00
1471, 1756.00
1472, 1756.00
1473, 1757.00
1474, 1758.00
1475, 1759.00
1476, 1759.00
1477, 1759.00
1478, 1760.00
1479, 1762.00
1480, 1763.00
1481, 1763.00
1482, 1765.00
1483, 1767.00
1484, 1767.00
1485, 1767.00
1486, 1768.00
1487, 1768.00
1488, 1770.00
1489, 1772.00
1490, 1772.00
1491, 1773.00
1492, 1774.00
1493, 1775.00
1494, 1775.00
1495, 1777.00
1496, 1778.00
1497, 1779.00
1498, 1780.00
1499, 1781.00
1500, 1782.00
1501, 1783.00
1502, 1785.00
1503, 1785.00
1504, 1785.00
1505, 1786.00
1506, 1787.00
1507, 1789.00
1508, 1789.00
1509, 1791.00
1510, 1791.00
1511, 1793.00
1512, 1792.00
1513, 1794.00
1514, 1796.00
1515, 1795.00
1516, 1797.00
1517, 1798.00
1518, 1800.00
1519, 1800.00
1520, 1800.00
1521, 1802.00
1522, 1804.00
1523, 1806.00
1524, 1806.00
1525, 1807.00
1526, 1807.00
1527, 1810.00
1528, 1810.00
1529, 1811.00
1530, 1813.00
1531, 1813.00
1532, 1815.00
1533, 1816.00
1534, 1816.00
1535, 1818.00
1536, 1818.00
1537, 1820.00
1538, 1821.00
1539, 1823.00
1540, 1824.00
1541, 1826.00
1542, 1827.00
1543, 1827.00
1544, 1828.00
1545, 1831.00
1546, 1829.00
1547, 1832.00
1548, 1832.00
1549, 1834.00
1550, 1835.00
1551, 1835.00
1552, 1838.00
1553, 1838.00
1554, 1839.00
1555, 1840.00
1556, 1843.00
1557, 1843.00
1558, 1844.00
1559, 1847.00
1560, 1847.00
1561, 1848.00
1562, 1851.00
1563, 1851.00
1564, 1852.00
1565, 1853.00
1566, 1854.00
1567, 1857.00
1568, 1857.00
1569, 1858.00
1570, 1860.00
1571, 1860.00
1572, 1862.00
1573, 1864.00
1574, 1865.00
1575, 1865.00
1576, 1866.00
1577, 1868.00
1578, 1870.00
1579, 1871.00
1580, 1871.00
1581, 1873.00
1582, 1875.00
1583, 1875.00
1584, 1876.00
1585, 1877.00
1586, 1878.00
1587, 1879.00
1588, 1880.00
1589, 1882.00
1590, 1883.00
1591, 1884.00
1592, 1884.00
1593, 1887.00
1594, 1886.00
1595, 1888.00
1596, 1889.00
1597, 1890.00
1598, 1891.00
1599, 1892.00
1600, 1894.00
1601, 1895.00
1602, 1897.00
1603, 1897.00
1604, 1898.00
1605, 1900.00
1606, 1901.00
1607, 1902.00
1608, 1904.00
1609, 1905.00
1610, 1906.00
1611, 1907.00
1612, 1909.00
1613, 1910.00
1614, 1911.00
1615, 1913.00
1616, 1914.00
1617, 1916.00
1618, 1918.00
1619, 1919.00
1620, 1919.00
1621, 1922.00
1622, 1923.00
1623, 1925.00
1624, 1927.00
1625, 1928.00
1626, 1929.00
1627, 1930.00
1628, 1931.00
1629, 1934.00
1630, 1935.00
1631, 1936.00
1632, 1937.00
1633, 1938.00
1634, 1939.00
1635, 1941.00
1636, 1942.00
1637, 1943.00
1638, 1945.00
1639, 1945.00
1640, 1946.00
1641, 1948.00
1642, 1950.00
1643, 1951.00
1644, 1951.00
1645, 1953.00
1646, 1954.00
1647, 1955.00
1648, 1956.00
1649, 1958.00
1650, 1959.00

1750, 2500.00
1751, 2500.00
1752, 2500.00
1753, 2500.00
1754, 2499.00
1755, 2497.00
1756, 2501.00
1757, 2500.00
1758, 2500.00
1759, 2499.00
1760, 2501.00
1761, 2501.00
1762, 2498.00
1763, 2500.00
1764, 2499.00
1765, 2498.00
1766, 2497.00
1767, 2499.00
1768, 2499.00
1769, 2498.00
1770, 2496.00
1771, 2497.00
1772, 2495.00
1773, 2495.00
1774, 2494.00
1775, 2497.00
1776, 2494.00
1777, 2495.00
1778, 2494.00
1779, 2494.00
1780, 2493.00
1781, 2492.00
1782, 2492.00
1783, 2490.00
1784, 2490.00
1785, 2490.00
1786, 2489.00
1787, 2490.00
1788, 2487.00
1789, 2488.00
1790, 2487.00
1791, 2486.00
1792, 2487.00
1793, 2486.00
1794, 2485.00
1795, 2485.00
1796, 2485.00
1797, 2484.00
1798, 2485.00
1799, 2481.00
1800, 2482.00
1801, 2482.00
1802, 2481.00
1803, 2481.00
1804, 2481.00
1805, 2480.00
1806, 2482.00
1807, 2479.00
1808, 2481.00
1809, 2479.00
1810, 2478.00
1811, 2478.00
1812, 2479.00
1813, 2480.00
1814, 2478.00
1815, 2476.00
1816, 2476.00
1817, 2478.00
1818, 2476.00
1819, 2474.00
1820, 2475.00
1821, 2471.00
1822, 2472.00
1823, 2472.00
1824, 2469.00
1825, 2469.00
1826, 2469.00
1827, 2467.00
1828, 2466.00
1829, 2466.00
1830, 2465.00
1831, 2461.00
1832, 2461.00
1833, 2459.00
1834, 2457.00
1835, 2459.00
1836, 2455.00
1837, 2453.00
1838, 2451.00
1839, 2451.00
1840, 2448.00
1841, 2447.00
1842, 2444.00
1843, 2440.00
1844, 2441.00
1845, 2440.00
1846, 2435.00
1847, 2434.00
1848, 2431.00
1849, 2427.00
1850, 2425.00
1851, 2426.00
1852, 2421.00
1853, 2421.00
1854, 2417.00
1855, 2415.00
1856, 2413.00
1857, 2408.00
1858, 2405.00
1859, 2405.00
1860, 2404.00
1861, 2400.00
1862, 2399.00
1863, 2397.00
1864, 2395.00
1865, 2392.00
1866, 2391.00
1867, 2390.00
1868, 2389.00
1869, 2385.00
1870, 2383.00
1871, 2381.00
1872, 2382.00
1873, 2380.00
1874, 2379.00
1875, 2377.00
1876, 2376.00
1877, 2374.00
1878, 2374.00
1879, 2373.00
1880, 2372.00
1881, 2371.00
1882, 2372.00
1883, 2368.00
1884, 2368.00
1885, 2367.00
1886, 2368.00
1887, 2365.00
1888, 2365.00
1889, 2364.00
1890, 2366.00
1891, 2365.00
1892, 2364.00
1893, 2363.00
1894, 2362.00
1895, 2362.00
1896, 2364.00
1897, 2362.00
1898, 2362.00
1899, 2360.00
1900, 2360.00
1901, 2359.00
1902, 2358.00
1903, 2358.00
1904, 2358.00
1905, 2359.00
1906, 2360.00
1907, 2357.00
1908, 2359.00
1909, 2357.00
1910, 2355.00
1911, 2357.00
1912, 2356.00
1913, 2355.00
1914, 2357.00
1915, 2355.00
1916, 2355.00
1917, 2356.00
1918, 2357.00
1919, 2357.00
1920, 2357.00
1921, 2353.00
1922, 2357.00
1923, 2356.00
1924, 2356.00
1925, 2357.00
1926, 2356.00
1927, 2357.00
1928, 2356.00
1929, 2356.00
1930, 2356.00
1931, 2356.00
1932, 2359.00
1933, 2357.00
1934, 2357.00
1935, 2358.00
1936, 2358.00
1937, 2357.00
1938, 2358.00
1939, 2359.00
1940, 2359.00
1941, 2358.00
1942, 2358.00
1943, 2358.00
1944, 2358.00
1945, 2360.00
1946, 2362.00
1947, 2361.00
1948, 2362.00
1949, 2363.00
1950, 2361.00
1951, 2360.00
1952, 2362.00
1953, 2364.00
1954, 2363.00
1955, 2365.00
1956, 2365.00
1957, 2366.00
1958, 2367.00
1959, 2368.00
1960, 2368.00
1961, 2366.00
1962, 2369.00
1963, 2369.00
1964, 2368.00
1965, 2368.00
1966, 2371.00
1967, 2370.00
1968, 2372.00
1969, 2371.00
1970, 2372.00
1971, 2374.00
1972, 2374.00
1973, 2374.00
1974, 2376.00
1975, 2376.00
1976, 2377.00
1977, 2377.00
1978, 2376.00
1979, 2380.00
1980, 2378.00
1981, 2379.00
1982, 2380.00
1983, 2380.00
1984, 2382.00
1985, 2383.00
1986, 2384.00
1987, 2383.00
1988, 2383.00
1989, 2386.00
1990, 2385.00
1991, 2386.00
1992, 2388.00
1993, 2387.00
1994, 2387.00
1995, 2389.00
1996, 2390.00
1997, 2388.00
1998, 2392.00
1999, 2391.00
2000, 2393.00
2001, 2391.00
2002, 2394.00
2003, 2395.00
2004, 2394.00
2005, 2393.00
2006, 2395.00
2007, 2395.00
2008, 2396.00
2009, 2397.00
2010, 2396.00
2011, 2398.00
2012, 2401.00
2013, 2399.00
2014, 2401.00
2015, 2401.00
2016, 2401.00
2017, 2403.00
2018, 2401.00
2019, 2403.00
2020, 2403.00
2021, 2405.00
2022, 2404.00
2023, 2406.00
2024, 2407.00
2025, 2408.00
2026, 2408.00
2027, 2410.00
2028, 2409.00
2029, 2409.00
2030, 2412.00
2031, 2409.00
2032, 2412.00
2033, 2413.00
2034, 2414.00
2035, 2411.00
2036, 2415.00
2037, 2414.00
2038, 2416.00
2039, 2418.00
2040, 2419.00
2041, 2420.00
2042, 2419.00
2043, 2421.00
2044, 2421.00
2045, 2421.00
2046, 2425.00
2047, 2424.00
2048, 2425.00
2049, 2426.00
2050, 2427.00
2051, 2428.00
2052, 2429.00
2053, 2429.00
2054, 2430.00
2055, 2433.00
2056, 2431.00
2057, 2432.00
2058, 2433.00
2059, 2435.00
2060, 2434.00
2061, 2437.00
2062, 2438.00
2063, 2439.00
2064, 2437.00
2065, 2439.00
2066, 2440.00
2067, 2441.00
2068, 2444.00
2069, 2442.00
2070, 2445.00
2071, 2446.00
2072, 2446.00
2073, 2445.00
2074, 2448.00
2075, 2449.00
2076, 2449.00
2077, 2451.00
2078, 2451.00
2079, 2451.00
2080, 2453.00
2081, 2453.00
2082, 2454.00
2083, 2453.00
2084, 2457.00
2085, 2457.00
2086, 2456.00
2087, 2458.00
2088, 2458.00
2089, 2459.00
2090, 2460.00
2091, 2462.00
2092, 2460.00
2093, 2460.00
2094, 2464.00
2095, 2462.00
2096, 2463.00
2097, 2463.00
2098, 2464.00
2099, 2467.00
2100, 2466.00
2101, 2466.00
2102, 2467.00
2103, 2466.00
2104, 2466.00
2105, 2469.00
2106, 2467.00
2107, 2469.00
2108, 2469.00
2109, 2468.00
2110, 2470.00
2111, 2469.00
2112, 2468.00
2113, 2471.00
2114, 2471.00
2115, 2471.00
2116, 2472.00
2117, 2471.00
2118, 2472.00
2119, 2472.00
2120, 2471.00
2121, 2472.00
2122, 2474.00
2123, 2474.00
2124, 2474.00
2125, 2475.00
2126, 2475.00
2127, 2475.00
2128, 2476.00
2129, 2476.00
2130, 2475.00
2131, 2476.00
2132, 2478.00
2133, 2476.00
2134, 2477.00
2135, 2476.00
2136, 2475.00
2137, 2476.00
2138, 2478.00
2139, 2478.00
2140, 2478.00
2141, 2481.00
2142, 2480.00
2143, 2479.00
2144, 2483.00
2145, 2480.00
2146, 2482.00
2147, 2482.00
2148, 2482.00
2149, 2482.00
2150, 2481.00
