FW version: 24
Log Version: 3.0.3

General Info:
       Command/Macro Performed,            Timestamp,             Device ID, COM Port, UART/I2C, Test Name, Host Major, Host Minor, Host Revision, Host Git Commit
            Single_measurement,  2023_06_28_12_33_12,       Insight2_F4_xxx,    USB-C,      USB,          ,          0,          1,             1,      4031237645

Show Spectrometer Status:
l0_version, f4_version, battery_perc, battery_mVolt, accelerometer_temp, accelerometer_x, accelerometer_y, accelerometer_z, compass_temp, compass_x, compass_y, compass_z, lamp_0, lamp_1, gain_0, gain_1
        17,         24,           49,          1920,               6416,             176,             316,           18708,            0,     65465,     65471,     65534,   2047,   2047,      1,      1

Temperature Statistic Info:
NTC AVG [°C], NTC2 AVG [°C]
      39.675,        39.382

Statistic Info:
M1:  num,      min,      max,   median,      AVG,      STD,M2:  num,      min,      max,   median,      AVG,      STD
     301,   692.00,   793.00,   717.00,   726.41,  32.0929,     401,  1068.00,  1136.00,  1105.00,  1103.30,  23.1105,

Measurements:
Wavelength, Data Amplitude
1350, 702.00
1351, 702.00
1352, 702.00
1353, 702.00
1354, 701.00
1355, 701.00
1356, 702.00
1357, 701.00
1358, 701.00
1359, 701.00
1360, 701.00
1361, 700.00
1362, 700.00
1363, 700.00
1364, 699.00
1365, 700.00
1366, 699.00
1367, 699.00
1368, 698.00
1369, 698.00
1370, 697.00
1371, 697.00
1372, 697.00
1373, 697.00
1374, 697.00
1375, 696.00
1376, 697.00
1377, 694.00
1378, 695.00
1379, 695.00
1380, 696.00
1381, 694.00
1382, 694.00
1383, 694.00
1384, 694.00
1385, 694.00
1386, 693.00
1387, 693.00
1388, 694.00
1389, 694.00
1390, 693.00
1391, 692.00
1392, 693.00
1393, 694.00
1394, 693.00
1395, 693.00
1396, 692.00
1397, 692.00
1398, 694.00
1399, 693.00
1400, 692.00
1401, 692.00
1402, 693.00
1403, 692.00
1404, 692.00
1405, 693.00
1406, 693.00
1407, 692.00
1408, 692.00
1409, 693.00
1410, 692.00
1411, 692.00
1412, 693.00
1413, 693.00
1414, 692.00
1415, 692.00
1416, 692.00
1417, 693.00
1418, 693.00
1419, 692.00
1420, 693.00
1421, 692.00
1422, 693.00
1423, 693.00
1424, 692.00
1425, 693.00
1426, 693.00
1427, 693.00
1428, 693.00
1429, 694.00
1430, 694.00
1431, 694.00
1432, 694.00
1433, 694.00
1434, 694.00
1435, 694.00
1436, 694.00
1437, 694.00
1438, 695.00
1439, 695.00
1440, 695.00
1441, 695.00
1442, 695.00
1443, 696.00
1444, 696.00
1445, 696.00
1446, 696.00
1447, 696.00
1448, 698.00
1449, 697.00
1450, 698.00
1451, 697.00
1452, 698.00
1453, 698.00
1454, 699.00
1455, 699.00
1456, 699.00
1457, 700.00
1458, 700.00
1459, 700.00
1460, 699.00
1461, 701.00
1462, 702.00
1463, 701.00
1464, 701.00
1465, 702.00
1466, 702.00
1467, 703.00
1468, 703.00
1469, 703.00
1470, 704.00
1471, 704.00
1472, 705.00
1473, 705.00
1474, 705.00
1475, 705.00
1476, 707.00
1477, 707.00
1478, 707.00
1479, 707.00
1480, 707.00
1481, 709.00
1482, 709.00
1483, 709.00
1484, 710.00
1485, 709.00
1486, 710.00
1487, 711.00
1488, 711.00
1489, 711.00
1490, 712.00
1491, 713.00
1492, 714.00
1493, 713.00
1494, 715.00
1495, 715.00
1496, 715.00
1497, 716.00
1498, 715.00
1499, 717.00
1500, 717.00
1501, 717.00
1502, 718.00
1503, 718.00
1504, 718.00
1505, 719.00
1506, 719.00
1507, 720.00
1508, 721.00
1509, 721.00
1510, 721.00
1511, 722.00
1512, 722.00
1513, 723.00
1514, 723.00
1515, 723.00
1516, 724.00
1517, 725.00
1518, 725.00
1519, 726.00
1520, 727.00
1521, 725.00
1522, 727.00
1523, 728.00
1524, 729.00
1525, 729.00
1526, 730.00
1527, 729.00
1528, 730.00
1529, 730.00
1530, 731.00
1531, 732.00
1532, 733.00
1533, 733.00
1534, 733.00
1535, 733.00
1536, 735.00
1537, 735.00
1538, 735.00
1539, 736.00
1540, 736.00
1541, 737.00
1542, 737.00
1543, 737.00
1544, 738.00
1545, 739.00
1546, 739.00
1547, 740.00
1548, 740.00
1549, 740.00
1550, 741.00
1551, 741.00
1552, 741.00
1553, 742.00
1554, 742.00
1555, 744.00
1556, 745.00
1557, 744.00
1558, 744.00
1559, 744.00
1560, 746.00
1561, 746.00
1562, 746.00
1563, 747.00
1564, 748.00
1565, 748.00
1566, 750.00
1567, 749.00
1568, 750.00
1569, 751.00
1570, 751.00
1571, 750.00
1572, 752.00
1573, 751.00
1574, 753.00
1575, 753.00
1576, 754.00
1577, 755.00
1578, 755.00
1579, 755.00
1580, 756.00
1581, 756.00
1582, 757.00
1583, 757.00
1584, 758.00
1585, 759.00
1586, 759.00
1587, 758.00
1588, 759.00
1589, 760.00
1590, 761.00
1591, 761.00
1592, 761.00
1593, 762.00
1594, 763.00
1595, 762.00
1596, 764.00
1597, 764.00
1598, 764.00
1599, 765.00
1600, 765.00
1601, 766.00
1602, 766.00
1603, 767.00
1604, 767.00
1605, 768.00
1606, 768.00
1607, 770.00
1608, 770.00
1609, 770.00
1610, 771.00
1611, 771.00
1612, 772.00
1613, 774.00
1614, 773.00
1615, 774.00
1616, 774.00
1617, 775.00
1618, 776.00
1619, 776.00
1620, 777.00
1621, 778.00
1622, 778.00
1623, 780.00
1624, 779.00
1625, 780.00
1626, 781.00
1627, 782.00
1628, 782.00
1629, 782.00
1630, 784.00
1631, 783.00
1632, 784.00
1633, 785.00
1634, 786.00
1635, 786.00
1636, 786.00
1637, 786.00
1638, 787.00
1639, 787.00
1640, 788.00
1641, 789.00
1642, 789.00
1643, 789.00
1644, 790.00
1645, 791.00
1646, 790.00
1647, 791.00
1648, 792.00
1649, 792.00
1650, 793.00

1750, 1135.00
1751, 1134.00
1752, 1133.00
1753, 1135.00
1754, 1134.00
1755, 1134.00
1756, 1133.00
1757, 1134.00
1758, 1133.00
1759, 1135.00
1760, 1133.00
1761, 1136.00
1762, 1133.00
1763, 1134.00
1764, 1133.00
1765, 1135.00
1766, 1134.00
1767, 1135.00
1768, 1133.00
1769, 1133.00
1770, 1133.00
1771, 1133.00
1772, 1133.00
1773, 1133.00
1774, 1131.00
1775, 1132.00
1776, 1132.00
1777, 1133.00
1778, 1132.00
1779, 1133.00
1780, 1132.00
1781, 1131.00
1782, 1132.00
1783, 1131.00
1784, 1130.00
1785, 1130.00
1786, 1131.00
1787, 1131.00
1788, 1128.00
1789, 1131.00
1790, 1130.00
1791, 1131.00
1792, 1129.00
1793, 1131.00
1794, 1128.00
1795, 1128.00
1796, 1129.00
1797, 1128.00
1798, 1128.00
1799, 1127.00
1800, 1129.00
1801, 1128.00
1802, 1129.00
1803, 1128.00
1804, 1127.00
1805, 1128.00
1806, 1127.00
1807, 1127.00
1808, 1127.00
1809, 1125.00
1810, 1127.00
1811, 1127.00
1812, 1125.00
1813, 1126.00
1814, 1125.00
1815, 1125.00
1816, 1123.00
1817, 1127.00
1818, 1125.00
1819, 1122.00
1820, 1123.00
1821, 1123.00
1822, 1123.00
1823, 1122.00
1824, 1121.00
1825, 1123.00
1826, 1122.00
1827, 1121.00
1828, 1121.00
1829, 1120.00
1830, 1119.00
1831, 1120.00
1832, 1118.00
1833, 1118.00
1834, 1116.00
1835, 1117.00
1836, 1115.00
1837, 1115.00
1838, 1114.00
1839, 1114.00
1840, 1113.00
1841, 1112.00
1842, 1110.00
1843, 1109.00
1844, 1108.00
1845, 1107.00
1846, 1106.00
1847, 1105.00
1848, 1104.00
1849, 1102.00
1850, 1102.00
1851, 1101.00
1852, 1100.00
1853, 1099.00
1854, 1098.00
1855, 1096.00
1856, 1094.00
1857, 1096.00
1858, 1094.00
1859, 1092.00
1860, 1091.00
1861, 1091.00
1862, 1092.00
1863, 1089.00
1864, 1087.00
1865, 1088.00
1866, 1086.00
1867, 1085.00
1868, 1084.00
1869, 1081.00
1870, 1082.00
1871, 1082.00
1872, 1082.00
1873, 1081.00
1874, 1080.00
1875, 1078.00
1876, 1078.00
1877, 1080.00
1878, 1078.00
1879, 1078.00
1880, 1077.00
1881, 1077.00
1882, 1076.00
1883, 1076.00
1884, 1076.00
1885, 1074.00
1886, 1074.00
1887, 1074.00
1888, 1074.00
1889, 1074.00
1890, 1072.00
1891, 1073.00
1892, 1074.00
1893, 1073.00
1894, 1072.00
1895, 1074.00
1896, 1073.00
1897, 1071.00
1898, 1072.00
1899, 1072.00
1900, 1072.00
1901, 1071.00
1902, 1072.00
1903, 1072.00
1904, 1071.00
1905, 1070.00
1906, 1072.00
1907, 1072.00
1908, 1071.00
1909, 1070.00
1910, 1072.00
1911, 1072.00
1912, 1070.00
1913, 1070.00
1914, 1070.00
1915, 1071.00
1916, 1070.00
1917, 1071.00
1918, 1069.00
1919, 1070.00
1920, 1070.00
1921, 1071.00
1922, 1068.00
1923, 1070.00
1924, 1071.00
1925, 1069.00
1926, 1070.00
1927, 1070.00
1928, 1071.00
1929, 1071.00
1930, 1070.00
1931, 1071.00
1932, 1070.00
1933, 1071.00
1934, 1070.00
1935, 1072.00
1936, 1072.00
1937, 1072.00
1938, 1070.00
1939, 1071.00
1940, 1073.00
1941, 1070.00
1942, 1073.00
1943, 1072.00
1944, 1072.00
1945, 1073.00
1946, 1074.00
1947, 1074.00
1948, 1073.00
1949, 1074.00
1950, 1072.00
1951, 1072.00
1952, 1075.00
1953, 1074.00
1954, 1074.00
1955, 1074.00
1956, 1075.00
1957, 1076.00
1958, 1075.00
1959, 1076.00
1960, 1077.00
1961, 1075.00
1962, 1074.00
1963, 1077.00
1964, 1076.00
1965, 1076.00
1966, 1079.00
1967, 1078.00
1968, 1078.00
1969, 1078.00
1970, 1078.00
1971, 1079.00
1972, 1078.00
1973, 1079.00
1974, 1080.00
1975, 1081.00
1976, 1081.00
1977, 1079.00
1978, 1080.00
1979, 1084.00
1980, 1081.00
1981, 1080.00
1982, 1082.00
1983, 1083.00
1984, 1082.00
1985, 1083.00
1986, 1083.00
1987, 1083.00
1988, 1084.00
1989, 1083.00
1990, 1084.00
1991, 1084.00
1992, 1085.00
1993, 1086.00
1994, 1087.00
1995, 1084.00
1996, 1087.00
1997, 1087.00
1998, 1088.00
1999, 1087.00
2000, 1087.00
2001, 1088.00
2002, 1088.00
2003, 1090.00
2004, 1089.00
2005, 1088.00
2006, 1089.00
2007, 1088.00
2008, 1091.00
2009, 1089.00
2010, 1091.00
2011, 1090.00
2012, 1091.00
2013, 1090.00
2014, 1093.00
2015, 1093.00
2016, 1093.00
2017, 1094.00
2018, 1092.00
2019, 1093.00
2020, 1093.00
2021, 1093.00
2022, 1094.00
2023, 1095.00
2024, 1096.00
2025, 1096.00
2026, 1096.00
2027, 1097.00
2028, 1093.00
2029, 1097.00
2030, 1096.00
2031, 1096.00
2032, 1098.00
2033, 1098.00
2034, 1098.00
2035, 1098.00
2036, 1101.00
2037, 1100.00
2038, 1099.00
2039, 1100.00
2040, 1099.00
2041, 1101.00
2042, 1102.00
2043, 1101.00
2044, 1103.00
2045, 1103.00
2046, 1106.00
2047, 1103.00
2048, 1105.00
2049, 1105.00
2050, 1104.00
2051, 1106.00
2052, 1105.00
2053, 1107.00
2054, 1106.00
2055, 1107.00
2056, 1108.00
2057, 1109.00
2058, 1111.00
2059, 1108.00
2060, 1109.00
2061, 1110.00
2062, 1111.00
2063, 1109.00
2064, 1110.00
2065, 1113.00
2066, 1113.00
2067, 1115.00
2068, 1114.00
2069, 1115.00
2070, 1113.00
2071, 1115.00
2072, 1117.00
2073, 1114.00
2074, 1116.00
2075, 1115.00
2076, 1118.00
2077, 1116.00
2078, 1116.00
2079, 1119.00
2080, 1117.00
2081, 1118.00
2082, 1119.00
2083, 1120.00
2084, 1119.00
2085, 1122.00
2086, 1121.00
2087, 1120.00
2088, 1122.00
2089, 1122.00
2090, 1123.00
2091, 1123.00
2092, 1123.00
2093, 1123.00
2094, 1125.00
2095, 1124.00
2096, 1123.00
2097, 1125.00
2098, 1123.00
2099, 1124.00
2100, 1125.00
2101, 1125.00
2102, 1124.00
2103, 1125.00
2104, 1124.00
2105, 1128.00
2106, 1126.00
2107, 1128.00
2108, 1126.00
2109, 1127.00
2110, 1127.00
2111, 1128.00
2112, 1127.00
2113, 1126.00
2114, 1128.00
2115, 1128.00
2116, 1127.00
2117, 1128.00
2118, 1130.00
2119, 1129.00
2120, 1129.00
2121, 1130.00
2122, 1129.00
2123, 1127.00
2124, 1130.00
2125, 1129.00
2126, 1130.00
2127, 1131.00
2128, 1130.00
2129, 1131.00
2130, 1129.00
2131, 1130.00
2132, 1132.00
2133, 1134.00
2134, 1131.00
2135, 1131.00
2136, 1132.00
2137, 1131.00
2138, 1131.00
2139, 1131.00
2140, 1133.00
2141, 1132.00
2142, 1132.00
2143, 1133.00
2144, 1135.00
2145, 1133.00
2146, 1134.00
2147, 1131.00
2148, 1135.00
2149, 1134.00
2150, 1134.00
