FW version: 24
Log Version: 3.0.3

General Info:
       Command/Macro Performed,            Timestamp,             Device ID, COM Port, UART/I2C, Test Name, Host Major, Host Minor, Host Revision, Host Git Commit
            Single_measurement,  2023_06_28_12_33_36,       Insight2_F4_xxx,    USB-C,      USB,          ,          0,          1,             1,      4031237645

Show Spectrometer Status:
l0_version, f4_version, battery_perc, battery_mVolt, accelerometer_temp, accelerometer_x, accelerometer_y, accelerometer_z, compass_temp, compass_x, compass_y, compass_z, lamp_0, lamp_1, gain_0, gain_1
        17,         24,           49,          1920,               6400,             208,             300,           18772,            0,     65528,     65470,     65533,   2457,   2457,      1,      1

Temperature Statistic Info:
NTC AVG [°C], NTC2 AVG [°C]
      39.792,        39.470

Statistic Info:
M1:  num,      min,      max,   median,      AVG,      STD,M2:  num,      min,      max,   median,      AVG,      STD
     301,  1000.00,  1143.00,  1033.00,  1047.76,  44.6460,     401,  1468.00,  1561.00,  1516.00,  1514.53,  31.2273,

Measurements:
Wavelength, Data Amplitude
1350, 1017.00
1351, 1017.00
1352, 1016.00
1353, 1016.00
1354, 1015.00
1355, 1015.00
1356, 1014.00
1357, 1015.00
1358, 1014.00
1359, 1013.00
1360, 1014.00
1361, 1013.00
1362, 1014.00
1363, 1013.00
1364, 1012.00
1365, 1011.00
1366, 1010.00
1367, 1011.00
1368, 1010.00
1369, 1010.00
1370, 1010.00
1371, 1009.00
1372, 1009.00
1373, 1007.00
1374, 1007.00
1375, 1007.00
1376, 1007.00
1377, 1006.00
1378, 1005.00
1379, 1005.00
1380, 1005.00
1381, 1005.00
1382, 1004.00
1383, 1004.00
1384, 1003.00
1385, 1003.00
1386, 1004.00
1387, 1003.00
1388, 1004.00
1389, 1003.00
1390, 1002.00
1391, 1002.00
1392, 1003.00
1393, 1002.00
1394, 1002.00
1395, 1001.00
1396, 1002.00
1397, 1002.00
1398, 1001.00
1399, 1001.00
1400, 1001.00
1401, 1001.00
1402, 1002.00
1403, 1001.00
1404, 1000.00
1405, 1001.00
1406, 1001.00
1407, 1000.00
1408, 1000.00
1409, 1001.00
1410, 1001.00
1411, 1002.00
1412, 1001.00
1413, 1001.00
1414, 1001.00
1415, 1000.00
1416, 1001.00
1417, 1000.00
1418, 1001.00
1419, 1001.00
1420, 1001.00
1421, 1002.00
1422, 1002.00
1423, 1001.00
1424, 1001.00
1425, 1002.00
1426, 1002.00
1427, 1002.00
1428, 1002.00
1429, 1002.00
1430, 1002.00
1431, 1002.00
1432, 1002.00
1433, 1002.00
1434, 1003.00
1435, 1003.00
1436, 1003.00
1437, 1004.00
1438, 1004.00
1439, 1005.00
1440, 1005.00
1441, 1004.00
1442, 1006.00
1443, 1005.00
1444, 1006.00
1445, 1007.00
1446, 1007.00
1447, 1007.00
1448, 1007.00
1449, 1007.00
1450, 1007.00
1451, 1007.00
1452, 1008.00
1453, 1009.00
1454, 1009.00
1455, 1009.00
1456, 1009.00
1457, 1009.00
1458, 1011.00
1459, 1010.00
1460, 1011.00
1461, 1011.00
1462, 1011.00
1463, 1013.00
1464, 1012.00
1465, 1013.00
1466, 1014.00
1467, 1014.00
1468, 1014.00
1469, 1015.00
1470, 1015.00
1471, 1016.00
1472, 1016.00
1473, 1018.00
1474, 1017.00
1475, 1019.00
1476, 1018.00
1477, 1020.00
1478, 1020.00
1479, 1020.00
1480, 1021.00
1481, 1022.00
1482, 1023.00
1483, 1024.00
1484, 1023.00
1485, 1025.00
1486, 1025.00
1487, 1026.00
1488, 1026.00
1489, 1026.00
1490, 1028.00
1491, 1028.00
1492, 1028.00
1493, 1030.00
1494, 1030.00
1495, 1031.00
1496, 1031.00
1497, 1031.00
1498, 1032.00
1499, 1033.00
1500, 1033.00
1501, 1035.00
1502, 1035.00
1503, 1035.00
1504, 1036.00
1505, 1037.00
1506, 1036.00
1507, 1038.00
1508, 1038.00
1509, 1039.00
1510, 1039.00
1511, 1040.00
1512, 1040.00
1513, 1042.00
1514, 1042.00
1515, 1043.00
1516, 1043.00
1517, 1044.00
1518, 1045.00
1519, 1045.00
1520, 1046.00
1521, 1048.00
1522, 1047.00
1523, 1048.00
1524, 1048.00
1525, 1049.00
1526, 1050.00
1527, 1050.00
1528, 1052.00
1529, 1052.00
1530, 1053.00
1531, 1054.00
1532, 1054.00
1533, 1055.00
1534, 1056.00
1535, 1056.00
1536, 1058.00
1537, 1057.00
1538, 1057.00
1539, 1059.00
1540, 1060.00
1541, 1060.00
1542, 1062.00
1543, 1061.00
1544, 1062.00
1545, 1063.00
1546, 1064.00
1547, 1064.00
1548, 1065.00
1549, 1066.00
1550, 1067.00
1551, 1066.00
1552, 1067.00
1553, 1068.00
1554, 1069.00
1555, 1070.00
1556, 1070.00
1557, 1071.00
1558, 1072.00
1559, 1072.00
1560, 1074.00
1561, 1074.00
1562, 1075.00
1563, 1076.00
1564, 1077.00
1565, 1078.00
1566, 1079.00
1567, 1079.00
1568, 1080.00
1569, 1081.00
1570, 1081.00
1571, 1082.00
1572, 1082.00
1573, 1083.00
1574, 1084.00
1575, 1085.00
1576, 1086.00
1577, 1085.00
1578, 1086.00
1579, 1088.00
1580, 1089.00
1581, 1088.00
1582, 1089.00
1583, 1091.00
1584, 1090.00
1585, 1091.00
1586, 1093.00
1587, 1093.00
1588, 1093.00
1589, 1095.00
1590, 1094.00
1591, 1096.00
1592, 1096.00
1593, 1097.00
1594, 1099.00
1595, 1098.00
1596, 1099.00
1597, 1099.00
1598, 1101.00
1599, 1101.00
1600, 1102.00
1601, 1102.00
1602, 1103.00
1603, 1104.00
1604, 1104.00
1605, 1106.00
1606, 1106.00
1607, 1107.00
1608, 1108.00
1609, 1108.00
1610, 1109.00
1611, 1111.00
1612, 1111.00
1613, 1112.00
1614, 1115.00
1615, 1114.00
1616, 1116.00
1617, 1116.00
1618, 1116.00
1619, 1118.00
1620, 1119.00
1621, 1119.00
1622, 1122.00
1623, 1122.00
1624, 1121.00
1625, 1123.00
1626, 1124.00
1627, 1125.00
1628, 1126.00
1629, 1125.00
1630, 1128.00
1631, 1128.00
1632, 1129.00
1633, 1131.00
1634, 1131.00
1635, 1132.00
1636, 1132.00
1637, 1134.00
1638, 1133.00
1639, 1134.00
1640, 1136.00
1641, 1136.00
1642, 1137.00
1643, 1138.00
1644, 1138.00
1645, 1139.00
1646, 1140.00
1647, 1140.00
1648, 1141.00
1649, 1142.00
1650, 1143.00

1750, 1560.00
1751, 1558.00
1752, 1559.00
1753, 1559.00
1754, 1557.00
1755, 1559.00
1756, 1558.00
1757, 1558.00
1758, 1559.00
1759, 1559.00
1760, 1561.00
1761, 1560.00
1762, 1558.00
1763, 1557.00
1764, 1559.00
1765, 1557.00
1766, 1557.00
1767, 1558.00
1768, 1556.00
1769, 1557.00
1770, 1557.00
1771, 1556.00
1772, 1557.00
1773, 1556.00
1774, 1554.00
1775, 1555.00
1776, 1555.00
1777, 1552.00
1778, 1555.00
1779, 1555.00
1780, 1554.00
1781, 1554.00
1782, 1555.00
1783, 1555.00
1784, 1553.00
1785, 1554.00
1786, 1553.00
1787, 1551.00
1788, 1550.00
1789, 1553.00
1790, 1552.00
1791, 1551.00
1792, 1550.00
1793, 1551.00
1794, 1552.00
1795, 1550.00
1796, 1551.00
1797, 1551.00
1798, 1550.00
1799, 1550.00
1800, 1549.00
1801, 1549.00
1802, 1549.00
1803, 1547.00
1804, 1548.00
1805, 1546.00
1806, 1546.00
1807, 1548.00
1808, 1548.00
1809, 1547.00
1810, 1545.00
1811, 1548.00
1812, 1545.00
1813, 1547.00
1814, 1547.00
1815, 1545.00
1816, 1544.00
1817, 1546.00
1818, 1545.00
1819, 1545.00
1820, 1546.00
1821, 1543.00
1822, 1544.00
1823, 1542.00
1824, 1541.00
1825, 1541.00
1826, 1542.00
1827, 1539.00
1828, 1540.00
1829, 1538.00
1830, 1536.00
1831, 1538.00
1832, 1536.00
1833, 1534.00
1834, 1535.00
1835, 1533.00
1836, 1531.00
1837, 1531.00
1838, 1531.00
1839, 1529.00
1840, 1528.00
1841, 1526.00
1842, 1523.00
1843, 1523.00
1844, 1523.00
1845, 1523.00
1846, 1520.00
1847, 1519.00
1848, 1518.00
1849, 1515.00
1850, 1514.00
1851, 1514.00
1852, 1512.00
1853, 1510.00
1854, 1508.00
1855, 1509.00
1856, 1506.00
1857, 1505.00
1858, 1501.00
1859, 1501.00
1860, 1499.00
1861, 1497.00
1862, 1495.00
1863, 1495.00
1864, 1495.00
1865, 1492.00
1866, 1491.00
1867, 1492.00
1868, 1489.00
1869, 1487.00
1870, 1486.00
1871, 1488.00
1872, 1485.00
1873, 1485.00
1874, 1484.00
1875, 1483.00
1876, 1482.00
1877, 1483.00
1878, 1480.00
1879, 1479.00
1880, 1480.00
1881, 1479.00
1882, 1478.00
1883, 1478.00
1884, 1475.00
1885, 1476.00
1886, 1478.00
1887, 1477.00
1888, 1474.00
1889, 1476.00
1890, 1474.00
1891, 1475.00
1892, 1475.00
1893, 1473.00
1894, 1475.00
1895, 1472.00
1896, 1471.00
1897, 1474.00
1898, 1472.00
1899, 1471.00
1900, 1473.00
1901, 1473.00
1902, 1473.00
1903, 1471.00
1904, 1470.00
1905, 1473.00
1906, 1471.00
1907, 1471.00
1908, 1471.00
1909, 1471.00
1910, 1470.00
1911, 1472.00
1912, 1471.00
1913, 1470.00
1914, 1469.00
1915, 1469.00
1916, 1471.00
1917, 1469.00
1918, 1469.00
1919, 1470.00
1920, 1469.00
1921, 1469.00
1922, 1470.00
1923, 1471.00
1924, 1471.00
1925, 1468.00
1926, 1470.00
1927, 1471.00
1928, 1472.00
1929, 1471.00
1930, 1470.00
1931, 1471.00
1932, 1471.00
1933, 1472.00
1934, 1471.00
1935, 1471.00
1936, 1471.00
1937, 1472.00
1938, 1471.00
1939, 1471.00
1940, 1471.00
1941, 1472.00
1942, 1471.00
1943, 1472.00
1944, 1472.00
1945, 1473.00
1946, 1472.00
1947, 1473.00
1948, 1472.00
1949, 1473.00
1950, 1473.00
1951, 1471.00
1952, 1475.00
1953, 1474.00
1954, 1475.00
1955, 1475.00
1956, 1476.00
1957, 1477.00
1958, 1477.00
1959, 1475.00
1960, 1477.00
1961, 1475.00
1962, 1478.00
1963, 1478.00
1964, 1479.00
1965, 1479.00
1966, 1479.00
1967, 1479.00
1968, 1479.00
1969, 1479.00
1970, 1481.00
1971, 1481.00
1972, 1481.00
1973, 1482.00
1974, 1485.00
1975, 1485.00
1976, 1483.00
1977, 1483.00
1978, 1483.00
1979, 1484.00
1980, 1484.00
1981, 1485.00
1982, 1485.00
1983, 1485.00
1984, 1487.00
1985, 1487.00
1986, 1487.00
1987, 1489.00
1988, 1491.00
1989, 1489.00
1990, 1489.00
1991, 1489.00
1992, 1489.00
1993, 1490.00
1994, 1489.00
1995, 1492.00
1996, 1491.00
1997, 1492.00
1998, 1492.00
1999, 1493.00
2000, 1492.00
2001, 1493.00
2002, 1495.00
2003, 1493.00
2004, 1495.00
2005, 1495.00
2006, 1495.00
2007, 1496.00
2008, 1497.00
2009, 1497.00
2010, 1498.00
2011, 1498.00
2012, 1497.00
2013, 1498.00
2014, 1500.00
2015, 1500.00
2016, 1498.00
2017, 1499.00
2018, 1502.00
2019, 1500.00
2020, 1501.00
2021, 1503.00
2022, 1502.00
2023, 1504.00
2024, 1501.00
2025, 1503.00
2026, 1506.00
2027, 1503.00
2028, 1505.00
2029, 1506.00
2030, 1504.00
2031, 1504.00
2032, 1506.00
2033, 1507.00
2034, 1509.00
2035, 1507.00
2036, 1509.00
2037, 1508.00
2038, 1510.00
2039, 1510.00
2040, 1512.00
2041, 1511.00
2042, 1514.00
2043, 1513.00
2044, 1512.00
2045, 1513.00
2046, 1515.00
2047, 1517.00
2048, 1515.00
2049, 1516.00
2050, 1517.00
2051, 1517.00
2052, 1518.00
2053, 1516.00
2054, 1517.00
2055, 1520.00
2056, 1521.00
2057, 1518.00
2058, 1521.00
2059, 1523.00
2060, 1522.00
2061, 1523.00
2062, 1523.00
2063, 1525.00
2064, 1525.00
2065, 1524.00
2066, 1526.00
2067, 1526.00
2068, 1527.00
2069, 1526.00
2070, 1527.00
2071, 1530.00
2072, 1527.00
2073, 1529.00
2074, 1532.00
2075, 1529.00
2076, 1531.00
2077, 1532.00
2078, 1533.00
2079, 1533.00
2080, 1532.00
2081, 1535.00
2082, 1534.00
2083, 1537.00
2084, 1536.00
2085, 1535.00
2086, 1535.00
2087, 1534.00
2088, 1538.00
2089, 1538.00
2090, 1538.00
2091, 1539.00
2092, 1539.00
2093, 1539.00
2094, 1539.00
2095, 1540.00
2096, 1540.00
2097, 1541.00
2098, 1541.00
2099, 1541.00
2100, 1542.00
2101, 1543.00
2102, 1542.00
2103, 1544.00
2104, 1543.00
2105, 1543.00
2106, 1545.00
2107, 1544.00
2108, 1545.00
2109, 1545.00
2110, 1545.00
2111, 1545.00
2112, 1546.00
2113, 1545.00
2114, 1546.00
2115, 1545.00
2116, 1545.00
2117, 1547.00
2118, 1548.00
2119, 1545.00
2120, 1548.00
2121, 1549.00
2122, 1547.00
2123, 1548.00
2124, 1547.00
2125, 1547.00
2126, 1548.00
2127, 1547.00
2128, 1548.00
2129, 1550.00
2130, 1549.00
2131, 1551.00
2132, 1551.00
2133, 1550.00
2134, 1551.00
2135, 1551.00
2136, 1552.00
2137, 1552.00
2138, 1552.00
2139, 1551.00
2140, 1549.00
2141, 1552.00
2142, 1553.00
2143, 1552.00
2144, 1553.00
2145, 1552.00
2146, 1554.00
2147, 1554.00
2148, 1552.00
2149, 1553.00
2150, 1552.00
