FW version: 24
Log Version: 3.0.3

General Info:
       Command/Macro Performed,            Timestamp,             Device ID, COM Port, UART/I2C, Test Name, Host Major, Host Minor, Host Revision, Host Git Commit
            Single_measurement,  2023_06_28_12_27_14,       Insight2_F4_xxx,    USB-C,      USB,          ,          0,          1,             1,      4031237645

Show Spectrometer Status:
l0_version, f4_version, battery_perc, battery_mVolt, accelerometer_temp, accelerometer_x, accelerometer_y, accelerometer_z, compass_temp, compass_x, compass_y, compass_z, lamp_0, lamp_1, gain_0, gain_1
        17,         24,           49,          1907,               6608,           65168,            1140,           18724,            0,     65498,     65535,     65527,   2457,   2457,      1,      1

Temperature Statistic Info:
NTC AVG [°C], NTC2 AVG [°C]
      40.587,        40.233

Statistic Info:
M1:  num,      min,      max,   median,      AVG,      STD,M2:  num,      min,      max,   median,      AVG,      STD
     301,  1257.00,  1469.00,  1301.00,  1326.74,  66.1189,     401,  1791.00,  1923.00,  1845.00,  1849.26,  43.3157,

Measurements:
Wavelength, Data Amplitude
1350, 1293.00
1351, 1293.00
1352, 1292.00
1353, 1290.00
1354, 1291.00
1355, 1289.00
1356, 1289.00
1357, 1288.00
1358, 1287.00
1359, 1286.00
1360, 1286.00
1361, 1285.00
1362, 1285.00
1363, 1283.00
1364, 1282.00
1365, 1282.00
1366, 1279.00
1367, 1279.00
1368, 1279.00
1369, 1277.00
1370, 1276.00
1371, 1275.00
1372, 1273.00
1373, 1273.00
1374, 1272.00
1375, 1273.00
1376, 1271.00
1377, 1269.00
1378, 1268.00
1379, 1269.00
1380, 1268.00
1381, 1267.00
1382, 1266.00
1383, 1266.00
1384, 1265.00
1385, 1265.00
1386, 1264.00
1387, 1263.00
1388, 1263.00
1389, 1263.00
1390, 1262.00
1391, 1262.00
1392, 1262.00
1393, 1261.00
1394, 1262.00
1395, 1261.00
1396, 1261.00
1397, 1260.00
1398, 1260.00
1399, 1259.00
1400, 1259.00
1401, 1259.00
1402, 1259.00
1403, 1259.00
1404, 1259.00
1405, 1259.00
1406, 1258.00
1407, 1258.00
1408, 1258.00
1409, 1258.00
1410, 1259.00
1411, 1258.00
1412, 1258.00
1413, 1259.00
1414, 1257.00
1415, 1258.00
1416, 1257.00
1417, 1257.00
1418, 1258.00
1419, 1258.00
1420, 1259.00
1421, 1258.00
1422, 1259.00
1423, 1258.00
1424, 1257.00
1425, 1258.00
1426, 1259.00
1427, 1260.00
1428, 1258.00
1429, 1259.00
1430, 1259.00
1431, 1260.00
1432, 1259.00
1433, 1260.00
1434, 1260.00
1435, 1261.00
1436, 1260.00
1437, 1260.00
1438, 1262.00
1439, 1262.00
1440, 1262.00
1441, 1262.00
1442, 1263.00
1443, 1264.00
1444, 1263.00
1445, 1262.00
1446, 1264.00
1447, 1265.00
1448, 1264.00
1449, 1264.00
1450, 1266.00
1451, 1266.00
1452, 1267.00
1453, 1267.00
1454, 1267.00
1455, 1268.00
1456, 1268.00
1457, 1268.00
1458, 1269.00
1459, 1271.00
1460, 1271.00
1461, 1271.00
1462, 1271.00
1463, 1272.00
1464, 1273.00
1465, 1273.00
1466, 1274.00
1467, 1274.00
1468, 1275.00
1469, 1276.00
1470, 1277.00
1471, 1278.00
1472, 1278.00
1473, 1278.00
1474, 1280.00
1475, 1281.00
1476, 1281.00
1477, 1282.00
1478, 1283.00
1479, 1282.00
1480, 1284.00
1481, 1284.00
1482, 1285.00
1483, 1286.00
1484, 1287.00
1485, 1288.00
1486, 1289.00
1487, 1289.00
1488, 1290.00
1489, 1291.00
1490, 1294.00
1491, 1293.00
1492, 1293.00
1493, 1294.00
1494, 1296.00
1495, 1296.00
1496, 1297.00
1497, 1299.00
1498, 1299.00
1499, 1300.00
1500, 1301.00
1501, 1303.00
1502, 1303.00
1503, 1303.00
1504, 1304.00
1505, 1306.00
1506, 1306.00
1507, 1307.00
1508, 1307.00
1509, 1309.00
1510, 1310.00
1511, 1311.00
1512, 1312.00
1513, 1312.00
1514, 1313.00
1515, 1314.00
1516, 1315.00
1517, 1316.00
1518, 1318.00
1519, 1318.00
1520, 1319.00
1521, 1320.00
1522, 1321.00
1523, 1323.00
1524, 1325.00
1525, 1325.00
1526, 1326.00
1527, 1326.00
1528, 1329.00
1529, 1329.00
1530, 1329.00
1531, 1331.00
1532, 1332.00
1533, 1333.00
1534, 1335.00
1535, 1335.00
1536, 1337.00
1537, 1338.00
1538, 1339.00
1539, 1340.00
1540, 1340.00
1541, 1341.00
1542, 1343.00
1543, 1344.00
1544, 1345.00
1545, 1346.00
1546, 1348.00
1547, 1348.00
1548, 1349.00
1549, 1350.00
1550, 1351.00
1551, 1352.00
1552, 1353.00
1553, 1355.00
1554, 1355.00
1555, 1357.00
1556, 1358.00
1557, 1359.00
1558, 1360.00
1559, 1362.00
1560, 1363.00
1561, 1365.00
1562, 1365.00
1563, 1368.00
1564, 1368.00
1565, 1369.00
1566, 1371.00
1567, 1371.00
1568, 1372.00
1569, 1373.00
1570, 1375.00
1571, 1376.00
1572, 1378.00
1573, 1378.00
1574, 1380.00
1575, 1381.00
1576, 1382.00
1577, 1383.00
1578, 1384.00
1579, 1385.00
1580, 1387.00
1581, 1387.00
1582, 1388.00
1583, 1389.00
1584, 1390.00
1585, 1392.00
1586, 1393.00
1587, 1394.00
1588, 1395.00
1589, 1395.00
1590, 1397.00
1591, 1398.00
1592, 1400.00
1593, 1400.00
1594, 1401.00
1595, 1402.00
1596, 1404.00
1597, 1405.00
1598, 1406.00
1599, 1407.00
1600, 1408.00
1601, 1409.00
1602, 1410.00
1603, 1410.00
1604, 1413.00
1605, 1413.00
1606, 1415.00
1607, 1416.00
1608, 1418.00
1609, 1420.00
1610, 1420.00
1611, 1422.00
1612, 1422.00
1613, 1424.00
1614, 1425.00
1615, 1427.00
1616, 1429.00
1617, 1431.00
1618, 1431.00
1619, 1433.00
1620, 1435.00
1621, 1435.00
1622, 1436.00
1623, 1438.00
1624, 1439.00
1625, 1441.00
1626, 1442.00
1627, 1443.00
1628, 1445.00
1629, 1445.00
1630, 1447.00
1631, 1448.00
1632, 1449.00
1633, 1449.00
1634, 1451.00
1635, 1454.00
1636, 1454.00
1637, 1455.00
1638, 1456.00
1639, 1457.00
1640, 1459.00
1641, 1459.00
1642, 1460.00
1643, 1462.00
1644, 1462.00
1645, 1464.00
1646, 1465.00
1647, 1466.00
1648, 1467.00
1649, 1468.00
1650, 1469.00

1750, 1923.00
1751, 1922.00
1752, 1923.00
1753, 1923.00
1754, 1921.00
1755, 1922.00
1756, 1922.00
1757, 1922.00
1758, 1922.00
1759, 1922.00
1760, 1921.00
1761, 1919.00
1762, 1922.00
1763, 1922.00
1764, 1919.00
1765, 1920.00
1766, 1920.00
1767, 1920.00
1768, 1919.00
1769, 1920.00
1770, 1919.00
1771, 1920.00
1772, 1920.00
1773, 1919.00
1774, 1917.00
1775, 1917.00
1776, 1918.00
1777, 1917.00
1778, 1918.00
1779, 1916.00
1780, 1919.00
1781, 1916.00
1782, 1914.00
1783, 1916.00
1784, 1915.00
1785, 1913.00
1786, 1914.00
1787, 1914.00
1788, 1912.00
1789, 1912.00
1790, 1913.00
1791, 1911.00
1792, 1911.00
1793, 1910.00
1794, 1910.00
1795, 1910.00
1796, 1909.00
1797, 1908.00
1798, 1909.00
1799, 1909.00
1800, 1910.00
1801, 1908.00
1802, 1909.00
1803, 1907.00
1804, 1906.00
1805, 1905.00
1806, 1907.00
1807, 1905.00
1808, 1907.00
1809, 1905.00
1810, 1902.00
1811, 1904.00
1812, 1902.00
1813, 1902.00
1814, 1902.00
1815, 1903.00
1816, 1901.00
1817, 1899.00
1818, 1898.00
1819, 1897.00
1820, 1897.00
1821, 1896.00
1822, 1893.00
1823, 1894.00
1824, 1892.00
1825, 1892.00
1826, 1891.00
1827, 1888.00
1828, 1891.00
1829, 1889.00
1830, 1884.00
1831, 1885.00
1832, 1884.00
1833, 1882.00
1834, 1880.00
1835, 1879.00
1836, 1874.00
1837, 1874.00
1838, 1875.00
1839, 1870.00
1840, 1869.00
1841, 1866.00
1842, 1865.00
1843, 1865.00
1844, 1861.00
1845, 1858.00
1846, 1856.00
1847, 1854.00
1848, 1854.00
1849, 1850.00
1850, 1848.00
1851, 1846.00
1852, 1846.00
1853, 1844.00
1854, 1842.00
1855, 1837.00
1856, 1838.00
1857, 1837.00
1858, 1833.00
1859, 1831.00
1860, 1830.00
1861, 1828.00
1862, 1827.00
1863, 1825.00
1864, 1824.00
1865, 1822.00
1866, 1820.00
1867, 1819.00
1868, 1819.00
1869, 1816.00
1870, 1815.00
1871, 1814.00
1872, 1812.00
1873, 1811.00
1874, 1813.00
1875, 1809.00
1876, 1807.00
1877, 1809.00
1878, 1808.00
1879, 1806.00
1880, 1806.00
1881, 1806.00
1882, 1804.00
1883, 1805.00
1884, 1805.00
1885, 1804.00
1886, 1802.00
1887, 1802.00
1888, 1801.00
1889, 1801.00
1890, 1799.00
1891, 1801.00
1892, 1800.00
1893, 1800.00
1894, 1800.00
1895, 1799.00
1896, 1799.00
1897, 1797.00
1898, 1796.00
1899, 1796.00
1900, 1795.00
1901, 1798.00
1902, 1796.00
1903, 1797.00
1904, 1795.00
1905, 1793.00
1906, 1796.00
1907, 1796.00
1908, 1795.00
1909, 1795.00
1910, 1795.00
1911, 1794.00
1912, 1793.00
1913, 1795.00
1914, 1793.00
1915, 1793.00
1916, 1791.00
1917, 1793.00
1918, 1795.00
1919, 1792.00
1920, 1793.00
1921, 1794.00
1922, 1793.00
1923, 1792.00
1924, 1791.00
1925, 1794.00
1926, 1791.00
1927, 1792.00
1928, 1795.00
1929, 1791.00
1930, 1792.00
1931, 1793.00
1932, 1793.00
1933, 1793.00
1934, 1793.00
1935, 1791.00
1936, 1795.00
1937, 1793.00
1938, 1794.00
1939, 1793.00
1940, 1793.00
1941, 1793.00
1942, 1796.00
1943, 1793.00
1944, 1795.00
1945, 1793.00
1946, 1796.00
1947, 1796.00
1948, 1793.00
1949, 1794.00
1950, 1797.00
1951, 1796.00
1952, 1795.00
1953, 1796.00
1954, 1797.00
1955, 1796.00
1956, 1795.00
1957, 1797.00
1958, 1797.00
1959, 1797.00
1960, 1800.00
1961, 1800.00
1962, 1800.00
1963, 1799.00
1964, 1801.00
1965, 1801.00
1966, 1802.00
1967, 1800.00
1968, 1803.00
1969, 1803.00
1970, 1801.00
1971, 1802.00
1972, 1804.00
1973, 1805.00
1974, 1805.00
1975, 1804.00
1976, 1807.00
1977, 1806.00
1978, 1806.00
1979, 1805.00
1980, 1806.00
1981, 1807.00
1982, 1807.00
1983, 1810.00
1984, 1810.00
1985, 1809.00
1986, 1810.00
1987, 1810.00
1988, 1810.00
1989, 1810.00
1990, 1812.00
1991, 1812.00
1992, 1812.00
1993, 1814.00
1994, 1814.00
1995, 1814.00
1996, 1814.00
1997, 1814.00
1998, 1814.00
1999, 1815.00
2000, 1815.00
2001, 1816.00
2002, 1816.00
2003, 1819.00
2004, 1817.00
2005, 1818.00
2006, 1818.00
2007, 1820.00
2008, 1818.00
2009, 1822.00
2010, 1822.00
2011, 1821.00
2012, 1821.00
2013, 1823.00
2014, 1822.00
2015, 1824.00
2016, 1825.00
2017, 1825.00
2018, 1825.00
2019, 1825.00
2020, 1825.00
2021, 1826.00
2022, 1827.00
2023, 1828.00
2024, 1828.00
2025, 1828.00
2026, 1828.00
2027, 1830.00
2028, 1829.00
2029, 1830.00
2030, 1830.00
2031, 1831.00
2032, 1833.00
2033, 1832.00
2034, 1834.00
2035, 1832.00
2036, 1833.00
2037, 1834.00
2038, 1836.00
2039, 1836.00
2040, 1836.00
2041, 1836.00
2042, 1838.00
2043, 1839.00
2044, 1841.00
2045, 1840.00
2046, 1839.00
2047, 1841.00
2048, 1843.00
2049, 1843.00
2050, 1844.00
2051, 1844.00
2052, 1845.00
2053, 1847.00
2054, 1845.00
2055, 1845.00
2056, 1849.00
2057, 1850.00
2058, 1849.00
2059, 1849.00
2060, 1849.00
2061, 1853.00
2062, 1851.00
2063, 1851.00
2064, 1853.00
2065, 1856.00
2066, 1853.00
2067, 1857.00
2068, 1856.00
2069, 1858.00
2070, 1856.00
2071, 1858.00
2072, 1859.00
2073, 1860.00
2074, 1861.00
2075, 1862.00
2076, 1863.00
2077, 1863.00
2078, 1863.00
2079, 1865.00
2080, 1866.00
2081, 1866.00
2082, 1866.00
2083, 1866.00
2084, 1868.00
2085, 1868.00
2086, 1868.00
2087, 1869.00
2088, 1871.00
2089, 1870.00
2090, 1871.00
2091, 1872.00
2092, 1873.00
2093, 1871.00
2094, 1873.00
2095, 1874.00
2096, 1873.00
2097, 1874.00
2098, 1875.00
2099, 1875.00
2100, 1877.00
2101, 1877.00
2102, 1878.00
2103, 1877.00
2104, 1877.00
2105, 1879.00
2106, 1880.00
2107, 1880.00
2108, 1880.00
2109, 1879.00
2110, 1880.00
2111, 1882.00
2112, 1881.00
2113, 1882.00
2114, 1882.00
2115, 1885.00
2116, 1882.00
2117, 1883.00
2118, 1882.00
2119, 1885.00
2120, 1885.00
2121, 1884.00
2122, 1884.00
2123, 1886.00
2124, 1887.00
2125, 1887.00
2126, 1886.00
2127, 1886.00
2128, 1888.00
2129, 1887.00
2130, 1888.00
2131, 1888.00
2132, 1889.00
2133, 1891.00
2134, 1891.00
2135, 1889.00
2136, 1889.00
2137, 1889.00
2138, 1889.00
2139, 1892.00
2140, 1892.00
2141, 1892.00
2142, 1892.00
2143, 1893.00
2144, 1891.00
2145, 1893.00
2146, 1894.00
2147, 1893.00
2148, 1895.00
2149, 1894.00
2150, 1896.00
