FW version: 24
Log Version: 3.0.3

General Info:
       Command/Macro Performed,            Timestamp,             Device ID, COM Port, UART/I2C, Test Name, Host Major, Host Minor, Host Revision, Host Git Commit
            Single_measurement,  2023_06_28_12_27_57,       Insight2_F4_xxx,    USB-C,      USB,          ,          0,          1,             1,      4031237645

Show Spectrometer Status:
l0_version, f4_version, battery_perc, battery_mVolt, accelerometer_temp, accelerometer_x, accelerometer_y, accelerometer_z, compass_temp, compass_x, compass_y, compass_z, lamp_0, lamp_1, gain_0, gain_1
        17,         24,           49,          1917,               6624,           65132,            1148,           18776,            0,     65404,     65533,     65531,   3276,   3276,      1,      1

Temperature Statistic Info:
NTC AVG [°C], NTC2 AVG [°C]
      40.851,        40.529

Statistic Info:
M1:  num,      min,      max,   median,      AVG,      STD,M2:  num,      min,      max,   median,      AVG,      STD
     301,  2179.00,  2520.00,  2249.00,  2291.30, 106.3758,     401,  2876.00,  3088.00,  2957.00,  2965.93,  68.4508,

Measurements:
Wavelength, Data Amplitude
1350, 2245.00
1351, 2244.00
1352, 2242.00
1353, 2241.00
1354, 2241.00
1355, 2239.00
1356, 2238.00
1357, 2237.00
1358, 2235.00
1359, 2234.00
1360, 2232.00
1361, 2230.00
1362, 2228.00
1363, 2226.00
1364, 2223.00
1365, 2223.00
1366, 2221.00
1367, 2219.00
1368, 2217.00
1369, 2216.00
1370, 2215.00
1371, 2213.00
1372, 2210.00
1373, 2208.00
1374, 2208.00
1375, 2207.00
1376, 2205.00
1377, 2203.00
1378, 2201.00
1379, 2200.00
1380, 2199.00
1381, 2197.00
1382, 2196.00
1383, 2195.00
1384, 2194.00
1385, 2193.00
1386, 2193.00
1387, 2191.00
1388, 2190.00
1389, 2190.00
1390, 2190.00
1391, 2189.00
1392, 2187.00
1393, 2187.00
1394, 2187.00
1395, 2185.00
1396, 2186.00
1397, 2186.00
1398, 2184.00
1399, 2184.00
1400, 2182.00
1401, 2184.00
1402, 2183.00
1403, 2182.00
1404, 2182.00
1405, 2183.00
1406, 2181.00
1407, 2181.00
1408, 2181.00
1409, 2180.00
1410, 2181.00
1411, 2179.00
1412, 2181.00
1413, 2180.00
1414, 2181.00
1415, 2179.00
1416, 2179.00
1417, 2179.00
1418, 2180.00
1419, 2180.00
1420, 2180.00
1421, 2179.00
1422, 2179.00
1423, 2180.00
1424, 2180.00
1425, 2181.00
1426, 2180.00
1427, 2181.00
1428, 2179.00
1429, 2180.00
1430, 2181.00
1431, 2182.00
1432, 2183.00
1433, 2181.00
1434, 2183.00
1435, 2184.00
1436, 2183.00
1437, 2184.00
1438, 2184.00
1439, 2185.00
1440, 2185.00
1441, 2186.00
1442, 2186.00
1443, 2187.00
1444, 2187.00
1445, 2187.00
1446, 2188.00
1447, 2189.00
1448, 2190.00
1449, 2191.00
1450, 2191.00
1451, 2192.00
1452, 2192.00
1453, 2193.00
1454, 2194.00
1455, 2194.00
1456, 2196.00
1457, 2197.00
1458, 2198.00
1459, 2198.00
1460, 2198.00
1461, 2200.00
1462, 2202.00
1463, 2201.00
1464, 2201.00
1465, 2204.00
1466, 2204.00
1467, 2206.00
1468, 2207.00
1469, 2207.00
1470, 2210.00
1471, 2210.00
1472, 2211.00
1473, 2212.00
1474, 2214.00
1475, 2216.00
1476, 2216.00
1477, 2216.00
1478, 2219.00
1479, 2219.00
1480, 2221.00
1481, 2221.00
1482, 2223.00
1483, 2225.00
1484, 2225.00
1485, 2228.00
1486, 2228.00
1487, 2230.00
1488, 2232.00
1489, 2232.00
1490, 2233.00
1491, 2237.00
1492, 2237.00
1493, 2238.00
1494, 2241.00
1495, 2241.00
1496, 2243.00
1497, 2244.00
1498, 2246.00
1499, 2248.00
1500, 2249.00
1501, 2249.00
1502, 2250.00
1503, 2252.00
1504, 2253.00
1505, 2254.00
1506, 2256.00
1507, 2258.00
1508, 2258.00
1509, 2262.00
1510, 2262.00
1511, 2263.00
1512, 2265.00
1513, 2267.00
1514, 2268.00
1515, 2269.00
1516, 2272.00
1517, 2274.00
1518, 2275.00
1519, 2277.00
1520, 2279.00
1521, 2279.00
1522, 2282.00
1523, 2283.00
1524, 2285.00
1525, 2286.00
1526, 2289.00
1527, 2289.00
1528, 2292.00
1529, 2292.00
1530, 2294.00
1531, 2297.00
1532, 2299.00
1533, 2299.00
1534, 2302.00
1535, 2304.00
1536, 2305.00
1537, 2307.00
1538, 2309.00
1539, 2312.00
1540, 2312.00
1541, 2313.00
1542, 2315.00
1543, 2316.00
1544, 2320.00
1545, 2321.00
1546, 2324.00
1547, 2325.00
1548, 2327.00
1549, 2328.00
1550, 2331.00
1551, 2332.00
1552, 2333.00
1553, 2336.00
1554, 2338.00
1555, 2339.00
1556, 2342.00
1557, 2344.00
1558, 2345.00
1559, 2347.00
1560, 2349.00
1561, 2350.00
1562, 2354.00
1563, 2355.00
1564, 2359.00
1565, 2360.00
1566, 2361.00
1567, 2363.00
1568, 2365.00
1569, 2367.00
1570, 2370.00
1571, 2371.00
1572, 2374.00
1573, 2376.00
1574, 2376.00
1575, 2379.00
1576, 2381.00
1577, 2382.00
1578, 2385.00
1579, 2386.00
1580, 2388.00
1581, 2390.00
1582, 2391.00
1583, 2393.00
1584, 2395.00
1585, 2397.00
1586, 2398.00
1587, 2400.00
1588, 2402.00
1589, 2404.00
1590, 2405.00
1591, 2406.00
1592, 2408.00
1593, 2411.00
1594, 2412.00
1595, 2413.00
1596, 2415.00
1597, 2417.00
1598, 2419.00
1599, 2421.00
1600, 2423.00
1601, 2424.00
1602, 2427.00
1603, 2427.00
1604, 2431.00
1605, 2433.00
1606, 2433.00
1607, 2436.00
1608, 2438.00
1609, 2440.00
1610, 2442.00
1611, 2444.00
1612, 2447.00
1613, 2449.00
1614, 2450.00
1615, 2452.00
1616, 2454.00
1617, 2456.00
1618, 2459.00
1619, 2461.00
1620, 2463.00
1621, 2467.00
1622, 2467.00
1623, 2470.00
1624, 2471.00
1625, 2473.00
1626, 2477.00
1627, 2478.00
1628, 2480.00
1629, 2482.00
1630, 2484.00
1631, 2487.00
1632, 2489.00
1633, 2489.00
1634, 2491.00
1635, 2494.00
1636, 2497.00
1637, 2498.00
1638, 2500.00
1639, 2501.00
1640, 2503.00
1641, 2504.00
1642, 2506.00
1643, 2508.00
1644, 2509.00
1645, 2511.00
1646, 2513.00
1647, 2516.00
1648, 2517.00
1649, 2519.00
1650, 2520.00

1750, 3087.00
1751, 3087.00
1752, 3086.00
1753, 3085.00
1754, 3087.00
1755, 3087.00
1756, 3088.00
1757, 3085.00
1758, 3084.00
1759, 3084.00
1760, 3083.00
1761, 3084.00
1762, 3087.00
1763, 3084.00
1764, 3083.00
1765, 3083.00
1766, 3085.00
1767, 3085.00
1768, 3083.00
1769, 3082.00
1770, 3082.00
1771, 3081.00
1772, 3081.00
1773, 3081.00
1774, 3079.00
1775, 3080.00
1776, 3079.00
1777, 3077.00
1778, 3077.00
1779, 3077.00
1780, 3077.00
1781, 3075.00
1782, 3075.00
1783, 3071.00
1784, 3071.00
1785, 3073.00
1786, 3070.00
1787, 3071.00
1788, 3070.00
1789, 3069.00
1790, 3069.00
1791, 3069.00
1792, 3068.00
1793, 3067.00
1794, 3066.00
1795, 3064.00
1796, 3065.00
1797, 3064.00
1798, 3063.00
1799, 3063.00
1800, 3061.00
1801, 3060.00
1802, 3061.00
1803, 3062.00
1804, 3059.00
1805, 3060.00
1806, 3059.00
1807, 3055.00
1808, 3057.00
1809, 3053.00
1810, 3055.00
1811, 3055.00
1812, 3053.00
1813, 3051.00
1814, 3051.00
1815, 3048.00
1816, 3048.00
1817, 3049.00
1818, 3045.00
1819, 3045.00
1820, 3045.00
1821, 3041.00
1822, 3041.00
1823, 3038.00
1824, 3037.00
1825, 3036.00
1826, 3033.00
1827, 3033.00
1828, 3029.00
1829, 3027.00
1830, 3026.00
1831, 3022.00
1832, 3021.00
1833, 3017.00
1834, 3015.00
1835, 3012.00
1836, 3010.00
1837, 3008.00
1838, 3005.00
1839, 3001.00
1840, 2999.00
1841, 2998.00
1842, 2995.00
1843, 2989.00
1844, 2985.00
1845, 2987.00
1846, 2982.00
1847, 2977.00
1848, 2977.00
1849, 2971.00
1850, 2967.00
1851, 2965.00
1852, 2959.00
1853, 2957.00
1854, 2956.00
1855, 2953.00
1856, 2951.00
1857, 2946.00
1858, 2942.00
1859, 2939.00
1860, 2935.00
1861, 2932.00
1862, 2931.00
1863, 2929.00
1864, 2928.00
1865, 2923.00
1866, 2922.00
1867, 2920.00
1868, 2917.00
1869, 2915.00
1870, 2914.00
1871, 2911.00
1872, 2909.00
1873, 2909.00
1874, 2909.00
1875, 2905.00
1876, 2903.00
1877, 2903.00
1878, 2902.00
1879, 2899.00
1880, 2902.00
1881, 2899.00
1882, 2896.00
1883, 2897.00
1884, 2896.00
1885, 2893.00
1886, 2892.00
1887, 2893.00
1888, 2891.00
1889, 2889.00
1890, 2891.00
1891, 2890.00
1892, 2889.00
1893, 2890.00
1894, 2888.00
1895, 2887.00
1896, 2888.00
1897, 2887.00
1898, 2885.00
1899, 2885.00
1900, 2884.00
1901, 2883.00
1902, 2882.00
1903, 2881.00
1904, 2883.00
1905, 2881.00
1906, 2882.00
1907, 2884.00
1908, 2881.00
1909, 2879.00
1910, 2881.00
1911, 2882.00
1912, 2879.00
1913, 2879.00
1914, 2880.00
1915, 2878.00
1916, 2879.00
1917, 2878.00
1918, 2879.00
1919, 2879.00
1920, 2877.00
1921, 2879.00
1922, 2879.00
1923, 2878.00
1924, 2879.00
1925, 2879.00
1926, 2879.00
1927, 2879.00
1928, 2878.00
1929, 2878.00
1930, 2879.00
1931, 2877.00
1932, 2876.00
1933, 2877.00
1934, 2877.00
1935, 2878.00
1936, 2878.00
1937, 2879.00
1938, 2877.00
1939, 2880.00
1940, 2880.00
1941, 2880.00
1942, 2879.00
1943, 2879.00
1944, 2883.00
1945, 2881.00
1946, 2881.00
1947, 2880.00
1948, 2881.00
1949, 2884.00
1950, 2882.00
1951, 2883.00
1952, 2883.00
1953, 2884.00
1954, 2882.00
1955, 2886.00
1956, 2885.00
1957, 2885.00
1958, 2885.00
1959, 2886.00
1960, 2886.00
1961, 2888.00
1962, 2887.00
1963, 2888.00
1964, 2888.00
1965, 2893.00
1966, 2891.00
1967, 2890.00
1968, 2891.00
1969, 2891.00
1970, 2892.00
1971, 2893.00
1972, 2895.00
1973, 2897.00
1974, 2895.00
1975, 2894.00
1976, 2895.00
1977, 2900.00
1978, 2897.00
1979, 2899.00
1980, 2901.00
1981, 2897.00
1982, 2900.00
1983, 2902.00
1984, 2902.00
1985, 2901.00
1986, 2903.00
1987, 2905.00
1988, 2905.00
1989, 2904.00
1990, 2908.00
1991, 2908.00
1992, 2908.00
1993, 2908.00
1994, 2908.00
1995, 2910.00
1996, 2910.00
1997, 2911.00
1998, 2913.00
1999, 2914.00
2000, 2913.00
2001, 2914.00
2002, 2915.00
2003, 2916.00
2004, 2915.00
2005, 2918.00
2006, 2917.00
2007, 2917.00
2008, 2920.00
2009, 2920.00
2010, 2919.00
2011, 2923.00
2012, 2925.00
2013, 2922.00
2014, 2922.00
2015, 2925.00
2016, 2927.00
2017, 2926.00
2018, 2927.00
2019, 2926.00
2020, 2929.00
2021, 2928.00
2022, 2928.00
2023, 2931.00
2024, 2931.00
2025, 2931.00
2026, 2932.00
2027, 2936.00
2028, 2934.00
2029, 2935.00
2030, 2935.00
2031, 2937.00
2032, 2937.00
2033, 2939.00
2034, 2940.00
2035, 2939.00
2036, 2941.00
2037, 2938.00
2038, 2941.00
2039, 2943.00
2040, 2944.00
2041, 2945.00
2042, 2946.00
2043, 2947.00
2044, 2947.00
2045, 2950.00
2046, 2950.00
2047, 2952.00
2048, 2953.00
2049, 2954.00
2050, 2954.00
2051, 2954.00
2052, 2953.00
2053, 2956.00
2054, 2959.00
2055, 2959.00
2056, 2962.00
2057, 2961.00
2058, 2963.00
2059, 2964.00
2060, 2965.00
2061, 2966.00
2062, 2969.00
2063, 2970.00
2064, 2969.00
2065, 2971.00
2066, 2972.00
2067, 2973.00
2068, 2975.00
2069, 2975.00
2070, 2976.00
2071, 2977.00
2072, 2979.00
2073, 2981.00
2074, 2983.00
2075, 2982.00
2076, 2982.00
2077, 2983.00
2078, 2987.00
2079, 2987.00
2080, 2987.00
2081, 2989.00
2082, 2990.00
2083, 2991.00
2084, 2989.00
2085, 2996.00
2086, 2993.00
2087, 2993.00
2088, 2995.00
2089, 2995.00
2090, 2995.00
2091, 2995.00
2092, 2997.00
2093, 3000.00
2094, 3001.00
2095, 2999.00
2096, 3001.00
2097, 3002.00
2098, 3001.00
2099, 3003.00
2100, 3003.00
2101, 3005.00
2102, 3006.00
2103, 3005.00
2104, 3006.00
2105, 3007.00
2106, 3009.00
2107, 3008.00
2108, 3009.00
2109, 3010.00
2110, 3010.00
2111, 3012.00
2112, 3012.00
2113, 3014.00
2114, 3013.00
2115, 3012.00
2116, 3015.00
2117, 3013.00
2118, 3015.00
2119, 3016.00
2120, 3018.00
2121, 3017.00
2122, 3014.00
2123, 3016.00
2124, 3019.00
2125, 3016.00
2126, 3021.00
2127, 3021.00
2128, 3019.00
2129, 3022.00
2130, 3021.00
2131, 3023.00
2132, 3023.00
2133, 3022.00
2134, 3024.00
2135, 3025.00
2136, 3025.00
2137, 3024.00
2138, 3025.00
2139, 3026.00
2140, 3027.00
2141, 3026.00
2142, 3027.00
2143, 3027.00
2144, 3029.00
2145, 3028.00
2146, 3029.00
2147, 3027.00
2148, 3028.00
2149, 3031.00
2150, 3031.00
