FW version: 24
Log Version: 3.0.3

General Info:
       Command/Macro Performed,            Timestamp,             Device ID, COM Port, UART/I2C, Test Name, Host Major, Host Minor, Host Revision, Host Git Commit
            Single_measurement,  2023_06_28_12_27_37,       Insight2_F4_xxx,    USB-C,      USB,          ,          0,          1,             1,      4031237645

Show Spectrometer Status:
l0_version, f4_version, battery_perc, battery_mVolt, accelerometer_temp, accelerometer_x, accelerometer_y, accelerometer_z, compass_temp, compass_x, compass_y, compass_z, lamp_0, lamp_1, gain_0, gain_1
        17,         24,           49,          1917,               6624,           65152,            1144,           18804,            0,     65482,     65531,     65534,   2866,   2866,      1,      1

Temperature Statistic Info:
NTC AVG [°C], NTC2 AVG [°C]
      40.763,        40.381

Statistic Info:
M1:  num,      min,      max,   median,      AVG,      STD,M2:  num,      min,      max,   median,      AVG,      STD
     301,  1694.00,  1970.00,  1750.00,  1784.59,  85.6412,     401,  2317.00,  2488.00,  2384.00,  2390.67,  55.3508,

Measurements:
Wavelength, Data Amplitude
1350, 1745.00
1351, 1744.00
1352, 1742.00
1353, 1741.00
1354, 1741.00
1355, 1740.00
1356, 1739.00
1357, 1738.00
1358, 1737.00
1359, 1735.00
1360, 1735.00
1361, 1732.00
1362, 1733.00
1363, 1730.00
1364, 1729.00
1365, 1727.00
1366, 1726.00
1367, 1725.00
1368, 1723.00
1369, 1723.00
1370, 1720.00
1371, 1720.00
1372, 1718.00
1373, 1717.00
1374, 1716.00
1375, 1715.00
1376, 1713.00
1377, 1714.00
1378, 1711.00
1379, 1710.00
1380, 1709.00
1381, 1709.00
1382, 1707.00
1383, 1706.00
1384, 1705.00
1385, 1706.00
1386, 1705.00
1387, 1704.00
1388, 1703.00
1389, 1702.00
1390, 1702.00
1391, 1702.00
1392, 1701.00
1393, 1701.00
1394, 1701.00
1395, 1700.00
1396, 1699.00
1397, 1698.00
1398, 1698.00
1399, 1699.00
1400, 1698.00
1401, 1697.00
1402, 1698.00
1403, 1697.00
1404, 1697.00
1405, 1697.00
1406, 1697.00
1407, 1697.00
1408, 1697.00
1409, 1696.00
1410, 1695.00
1411, 1696.00
1412, 1695.00
1413, 1696.00
1414, 1695.00
1415, 1696.00
1416, 1695.00
1417, 1695.00
1418, 1695.00
1419, 1694.00
1420, 1695.00
1421, 1695.00
1422, 1695.00
1423, 1694.00
1424, 1696.00
1425, 1695.00
1426, 1694.00
1427, 1695.00
1428, 1695.00
1429, 1696.00
1430, 1697.00
1431, 1696.00
1432, 1698.00
1433, 1697.00
1434, 1698.00
1435, 1698.00
1436, 1698.00
1437, 1698.00
1438, 1699.00
1439, 1699.00
1440, 1700.00
1441, 1699.00
1442, 1701.00
1443, 1701.00
1444, 1701.00
1445, 1701.00
1446, 1703.00
1447, 1703.00
1448, 1704.00
1449, 1703.00
1450, 1704.00
1451, 1705.00
1452, 1706.00
1453, 1706.00
1454, 1707.00
1455, 1707.00
1456, 1708.00
1457, 1708.00
1458, 1710.00
1459, 1710.00
1460, 1710.00
1461, 1712.00
1462, 1711.00
1463, 1713.00
1464, 1714.00
1465, 1715.00
1466, 1716.00
1467, 1716.00
1468, 1718.00
1469, 1718.00
1470, 1719.00
1471, 1719.00
1472, 1721.00
1473, 1721.00
1474, 1724.00
1475, 1724.00
1476, 1726.00
1477, 1725.00
1478, 1727.00
1479, 1728.00
1480, 1729.00
1481, 1730.00
1482, 1731.00
1483, 1732.00
1484, 1732.00
1485, 1735.00
1486, 1735.00
1487, 1735.00
1488, 1737.00
1489, 1738.00
1490, 1739.00
1491, 1740.00
1492, 1741.00
1493, 1743.00
1494, 1743.00
1495, 1745.00
1496, 1745.00
1497, 1746.00
1498, 1748.00
1499, 1749.00
1500, 1750.00
1501, 1751.00
1502, 1753.00
1503, 1753.00
1504, 1754.00
1505, 1756.00
1506, 1757.00
1507, 1757.00
1508, 1759.00
1509, 1760.00
1510, 1761.00
1511, 1763.00
1512, 1765.00
1513, 1765.00
1514, 1767.00
1515, 1768.00
1516, 1770.00
1517, 1771.00
1518, 1772.00
1519, 1772.00
1520, 1774.00
1521, 1776.00
1522, 1777.00
1523, 1779.00
1524, 1781.00
1525, 1781.00
1526, 1783.00
1527, 1784.00
1528, 1785.00
1529, 1787.00
1530, 1789.00
1531, 1790.00
1532, 1790.00
1533, 1792.00
1534, 1794.00
1535, 1795.00
1536, 1796.00
1537, 1797.00
1538, 1799.00
1539, 1800.00
1540, 1802.00
1541, 1802.00
1542, 1805.00
1543, 1807.00
1544, 1807.00
1545, 1809.00
1546, 1810.00
1547, 1812.00
1548, 1813.00
1549, 1815.00
1550, 1816.00
1551, 1817.00
1552, 1818.00
1553, 1820.00
1554, 1822.00
1555, 1823.00
1556, 1825.00
1557, 1827.00
1558, 1829.00
1559, 1830.00
1560, 1831.00
1561, 1833.00
1562, 1835.00
1563, 1836.00
1564, 1837.00
1565, 1838.00
1566, 1841.00
1567, 1842.00
1568, 1844.00
1569, 1846.00
1570, 1847.00
1571, 1849.00
1572, 1850.00
1573, 1851.00
1574, 1854.00
1575, 1854.00
1576, 1857.00
1577, 1858.00
1578, 1858.00
1579, 1861.00
1580, 1862.00
1581, 1863.00
1582, 1866.00
1583, 1866.00
1584, 1868.00
1585, 1869.00
1586, 1871.00
1587, 1871.00
1588, 1873.00
1589, 1874.00
1590, 1875.00
1591, 1876.00
1592, 1879.00
1593, 1880.00
1594, 1881.00
1595, 1883.00
1596, 1885.00
1597, 1886.00
1598, 1887.00
1599, 1889.00
1600, 1890.00
1601, 1892.00
1602, 1893.00
1603, 1894.00
1604, 1897.00
1605, 1898.00
1606, 1898.00
1607, 1901.00
1608, 1902.00
1609, 1904.00
1610, 1906.00
1611, 1907.00
1612, 1909.00
1613, 1911.00
1614, 1913.00
1615, 1915.00
1616, 1916.00
1617, 1918.00
1618, 1919.00
1619, 1921.00
1620, 1922.00
1621, 1925.00
1622, 1926.00
1623, 1928.00
1624, 1930.00
1625, 1932.00
1626, 1934.00
1627, 1936.00
1628, 1936.00
1629, 1938.00
1630, 1941.00
1631, 1942.00
1632, 1943.00
1633, 1945.00
1634, 1947.00
1635, 1948.00
1636, 1949.00
1637, 1951.00
1638, 1953.00
1639, 1955.00
1640, 1955.00
1641, 1957.00
1642, 1958.00
1643, 1959.00
1644, 1961.00
1645, 1963.00
1646, 1963.00
1647, 1965.00
1648, 1966.00
1649, 1968.00
1650, 1970.00

1750, 2487.00
1751, 2486.00
1752, 2485.00
1753, 2486.00
1754, 2486.00
1755, 2488.00
1756, 2487.00
1757, 2485.00
1758, 2485.00
1759, 2485.00
1760, 2484.00
1761, 2485.00
1762, 2484.00
1763, 2485.00
1764, 2485.00
1765, 2483.00
1766, 2484.00
1767, 2483.00
1768, 2485.00
1769, 2483.00
1770, 2482.00
1771, 2482.00
1772, 2483.00
1773, 2481.00
1774, 2480.00
1775, 2483.00
1776, 2481.00
1777, 2479.00
1778, 2478.00
1779, 2480.00
1780, 2478.00
1781, 2479.00
1782, 2474.00
1783, 2477.00
1784, 2475.00
1785, 2477.00
1786, 2475.00
1787, 2473.00
1788, 2473.00
1789, 2473.00
1790, 2473.00
1791, 2473.00
1792, 2471.00
1793, 2470.00
1794, 2469.00
1795, 2470.00
1796, 2469.00
1797, 2469.00
1798, 2468.00
1799, 2466.00
1800, 2466.00
1801, 2468.00
1802, 2466.00
1803, 2466.00
1804, 2465.00
1805, 2464.00
1806, 2463.00
1807, 2464.00
1808, 2462.00
1809, 2463.00
1810, 2461.00
1811, 2461.00
1812, 2458.00
1813, 2459.00
1814, 2456.00
1815, 2458.00
1816, 2455.00
1817, 2456.00
1818, 2454.00
1819, 2453.00
1820, 2453.00
1821, 2454.00
1822, 2452.00
1823, 2448.00
1824, 2450.00
1825, 2447.00
1826, 2445.00
1827, 2443.00
1828, 2441.00
1829, 2440.00
1830, 2436.00
1831, 2437.00
1832, 2433.00
1833, 2433.00
1834, 2431.00
1835, 2429.00
1836, 2427.00
1837, 2426.00
1838, 2423.00
1839, 2420.00
1840, 2417.00
1841, 2416.00
1842, 2412.00
1843, 2409.00
1844, 2409.00
1845, 2404.00
1846, 2404.00
1847, 2398.00
1848, 2397.00
1849, 2392.00
1850, 2390.00
1851, 2390.00
1852, 2387.00
1853, 2383.00
1854, 2380.00
1855, 2379.00
1856, 2376.00
1857, 2375.00
1858, 2371.00
1859, 2369.00
1860, 2365.00
1861, 2365.00
1862, 2363.00
1863, 2361.00
1864, 2358.00
1865, 2356.00
1866, 2354.00
1867, 2354.00
1868, 2351.00
1869, 2350.00
1870, 2350.00
1871, 2346.00
1872, 2345.00
1873, 2345.00
1874, 2343.00
1875, 2341.00
1876, 2339.00
1877, 2338.00
1878, 2339.00
1879, 2336.00
1880, 2335.00
1881, 2336.00
1882, 2331.00
1883, 2333.00
1884, 2333.00
1885, 2333.00
1886, 2332.00
1887, 2330.00
1888, 2329.00
1889, 2329.00
1890, 2326.00
1891, 2328.00
1892, 2327.00
1893, 2327.00
1894, 2328.00
1895, 2325.00
1896, 2325.00
1897, 2326.00
1898, 2324.00
1899, 2324.00
1900, 2324.00
1901, 2325.00
1902, 2325.00
1903, 2323.00
1904, 2322.00
1905, 2321.00
1906, 2324.00
1907, 2321.00
1908, 2321.00
1909, 2322.00
1910, 2322.00
1911, 2322.00
1912, 2320.00
1913, 2318.00
1914, 2320.00
1915, 2322.00
1916, 2319.00
1917, 2319.00
1918, 2319.00
1919, 2319.00
1920, 2319.00
1921, 2319.00
1922, 2319.00
1923, 2321.00
1924, 2320.00
1925, 2319.00
1926, 2319.00
1927, 2319.00
1928, 2317.00
1929, 2318.00
1930, 2320.00
1931, 2322.00
1932, 2319.00
1933, 2321.00
1934, 2320.00
1935, 2320.00
1936, 2317.00
1937, 2321.00
1938, 2319.00
1939, 2321.00
1940, 2320.00
1941, 2322.00
1942, 2323.00
1943, 2322.00
1944, 2320.00
1945, 2321.00
1946, 2321.00
1947, 2325.00
1948, 2323.00
1949, 2322.00
1950, 2321.00
1951, 2322.00
1952, 2322.00
1953, 2324.00
1954, 2325.00
1955, 2323.00
1956, 2325.00
1957, 2326.00
1958, 2325.00
1959, 2325.00
1960, 2326.00
1961, 2327.00
1962, 2325.00
1963, 2328.00
1964, 2329.00
1965, 2325.00
1966, 2330.00
1967, 2331.00
1968, 2329.00
1969, 2330.00
1970, 2333.00
1971, 2331.00
1972, 2331.00
1973, 2333.00
1974, 2333.00
1975, 2333.00
1976, 2335.00
1977, 2336.00
1978, 2336.00
1979, 2336.00
1980, 2336.00
1981, 2338.00
1982, 2337.00
1983, 2338.00
1984, 2339.00
1985, 2338.00
1986, 2340.00
1987, 2343.00
1988, 2340.00
1989, 2341.00
1990, 2342.00
1991, 2343.00
1992, 2344.00
1993, 2342.00
1994, 2343.00
1995, 2345.00
1996, 2346.00
1997, 2346.00
1998, 2347.00
1999, 2348.00
2000, 2348.00
2001, 2349.00
2002, 2348.00
2003, 2351.00
2004, 2351.00
2005, 2351.00
2006, 2352.00
2007, 2351.00
2008, 2353.00
2009, 2353.00
2010, 2355.00
2011, 2355.00
2012, 2354.00
2013, 2356.00
2014, 2357.00
2015, 2358.00
2016, 2356.00
2017, 2361.00
2018, 2358.00
2019, 2359.00
2020, 2359.00
2021, 2361.00
2022, 2360.00
2023, 2360.00
2024, 2362.00
2025, 2365.00
2026, 2366.00
2027, 2365.00
2028, 2363.00
2029, 2366.00
2030, 2368.00
2031, 2366.00
2032, 2369.00
2033, 2368.00
2034, 2369.00
2035, 2370.00
2036, 2371.00
2037, 2371.00
2038, 2373.00
2039, 2373.00
2040, 2373.00
2041, 2375.00
2042, 2374.00
2043, 2374.00
2044, 2377.00
2045, 2379.00
2046, 2378.00
2047, 2380.00
2048, 2381.00
2049, 2381.00
2050, 2383.00
2051, 2382.00
2052, 2384.00
2053, 2384.00
2054, 2385.00
2055, 2387.00
2056, 2388.00
2057, 2388.00
2058, 2389.00
2059, 2393.00
2060, 2392.00
2061, 2393.00
2062, 2393.00
2063, 2394.00
2064, 2396.00
2065, 2394.00
2066, 2397.00
2067, 2399.00
2068, 2398.00
2069, 2400.00
2070, 2401.00
2071, 2400.00
2072, 2402.00
2073, 2403.00
2074, 2403.00
2075, 2406.00
2076, 2405.00
2077, 2406.00
2078, 2407.00
2079, 2407.00
2080, 2409.00
2081, 2410.00
2082, 2411.00
2083, 2412.00
2084, 2413.00
2085, 2414.00
2086, 2415.00
2087, 2414.00
2088, 2414.00
2089, 2416.00
2090, 2418.00
2091, 2417.00
2092, 2420.00
2093, 2419.00
2094, 2419.00
2095, 2419.00
2096, 2422.00
2097, 2422.00
2098, 2422.00
2099, 2424.00
2100, 2425.00
2101, 2423.00
2102, 2424.00
2103, 2425.00
2104, 2425.00
2105, 2426.00
2106, 2427.00
2107, 2429.00
2108, 2427.00
2109, 2429.00
2110, 2430.00
2111, 2429.00
2112, 2430.00
2113, 2431.00
2114, 2429.00
2115, 2430.00
2116, 2431.00
2117, 2432.00
2118, 2431.00
2119, 2431.00
2120, 2433.00
2121, 2432.00
2122, 2436.00
2123, 2435.00
2124, 2434.00
2125, 2435.00
2126, 2436.00
2127, 2437.00
2128, 2437.00
2129, 2438.00
2130, 2437.00
2131, 2438.00
2132, 2439.00
2133, 2440.00
2134, 2437.00
2135, 2439.00
2136, 2440.00
2137, 2441.00
2138, 2440.00
2139, 2442.00
2140, 2440.00
2141, 2441.00
2142, 2441.00
2143, 2443.00
2144, 2443.00
2145, 2444.00
2146, 2443.00
2147, 2443.00
2148, 2445.00
2149, 2445.00
2150, 2445.00
