FW version: 24
Log Version: 3.0.3

General Info:
       Command/Macro Performed,            Timestamp,             Device ID, COM Port, UART/I2C, Test Name, Host Major, Host Minor, Host Revision, Host Git Commit
            Single_measurement,  2023_06_28_12_26_39,       Insight2_F4_xxx,    USB-C,      USB,          ,          0,          1,             1,      4031237645

Show Spectrometer Status:
l0_version, f4_version, battery_perc, battery_mVolt, accelerometer_temp, accelerometer_x, accelerometer_y, accelerometer_z, compass_temp, compass_x, compass_y, compass_z, lamp_0, lamp_1, gain_0, gain_1
        17,         24,           49,          1906,               6608,           65140,            1180,           18812,            0,     65397,     65436,     65534,   3276,   3276,      0,      0

Temperature Statistic Info:
NTC AVG [°C], NTC2 AVG [°C]
      40.411,        40.084

Statistic Info:
M1:  num,      min,      max,   median,      AVG,      STD,M2:  num,      min,      max,   median,      AVG,      STD
     301,   754.00,   873.00,   778.00,   793.10,  36.7411,     401,   997.00,  1071.00,  1025.00,  1028.32,  23.8482,

Measurements:
Wavelength, Data Amplitude
1350, 777.00
1351, 777.00
1352, 776.00
1353, 776.00
1354, 776.00
1355, 775.00
1356, 775.00
1357, 774.00
1358, 774.00
1359, 773.00
1360, 773.00
1361, 772.00
1362, 771.00
1363, 771.00
1364, 770.00
1365, 770.00
1366, 769.00
1367, 768.00
1368, 768.00
1369, 767.00
1370, 767.00
1371, 766.00
1372, 765.00
1373, 765.00
1374, 764.00
1375, 764.00
1376, 763.00
1377, 763.00
1378, 762.00
1379, 762.00
1380, 761.00
1381, 761.00
1382, 761.00
1383, 760.00
1384, 760.00
1385, 759.00
1386, 759.00
1387, 759.00
1388, 758.00
1389, 758.00
1390, 758.00
1391, 757.00
1392, 757.00
1393, 757.00
1394, 757.00
1395, 757.00
1396, 757.00
1397, 756.00
1398, 757.00
1399, 756.00
1400, 756.00
1401, 756.00
1402, 756.00
1403, 756.00
1404, 755.00
1405, 756.00
1406, 755.00
1407, 755.00
1408, 755.00
1409, 755.00
1410, 755.00
1411, 755.00
1412, 755.00
1413, 755.00
1414, 755.00
1415, 755.00
1416, 755.00
1417, 754.00
1418, 755.00
1419, 754.00
1420, 755.00
1421, 755.00
1422, 755.00
1423, 754.00
1424, 755.00
1425, 755.00
1426, 755.00
1427, 755.00
1428, 755.00
1429, 755.00
1430, 755.00
1431, 755.00
1432, 755.00
1433, 755.00
1434, 755.00
1435, 756.00
1436, 756.00
1437, 756.00
1438, 756.00
1439, 756.00
1440, 756.00
1441, 757.00
1442, 757.00
1443, 757.00
1444, 757.00
1445, 757.00
1446, 758.00
1447, 758.00
1448, 758.00
1449, 758.00
1450, 759.00
1451, 759.00
1452, 760.00
1453, 759.00
1454, 759.00
1455, 760.00
1456, 760.00
1457, 760.00
1458, 761.00
1459, 761.00
1460, 761.00
1461, 761.00
1462, 761.00
1463, 762.00
1464, 762.00
1465, 762.00
1466, 763.00
1467, 764.00
1468, 764.00
1469, 764.00
1470, 764.00
1471, 765.00
1472, 766.00
1473, 766.00
1474, 766.00
1475, 767.00
1476, 767.00
1477, 767.00
1478, 768.00
1479, 768.00
1480, 769.00
1481, 769.00
1482, 770.00
1483, 770.00
1484, 771.00
1485, 771.00
1486, 771.00
1487, 772.00
1488, 772.00
1489, 773.00
1490, 773.00
1491, 773.00
1492, 774.00
1493, 774.00
1494, 775.00
1495, 776.00
1496, 776.00
1497, 777.00
1498, 777.00
1499, 778.00
1500, 778.00
1501, 778.00
1502, 779.00
1503, 779.00
1504, 780.00
1505, 780.00
1506, 781.00
1507, 781.00
1508, 782.00
1509, 782.00
1510, 783.00
1511, 784.00
1512, 784.00
1513, 785.00
1514, 785.00
1515, 785.00
1516, 786.00
1517, 786.00
1518, 787.00
1519, 788.00
1520, 789.00
1521, 789.00
1522, 790.00
1523, 790.00
1524, 791.00
1525, 791.00
1526, 792.00
1527, 792.00
1528, 793.00
1529, 794.00
1530, 794.00
1531, 795.00
1532, 795.00
1533, 796.00
1534, 797.00
1535, 797.00
1536, 798.00
1537, 799.00
1538, 799.00
1539, 799.00
1540, 800.00
1541, 801.00
1542, 802.00
1543, 802.00
1544, 803.00
1545, 804.00
1546, 804.00
1547, 804.00
1548, 805.00
1549, 806.00
1550, 807.00
1551, 807.00
1552, 807.00
1553, 808.00
1554, 809.00
1555, 810.00
1556, 810.00
1557, 811.00
1558, 812.00
1559, 812.00
1560, 813.00
1561, 814.00
1562, 815.00
1563, 815.00
1564, 816.00
1565, 817.00
1566, 817.00
1567, 818.00
1568, 818.00
1569, 819.00
1570, 820.00
1571, 821.00
1572, 822.00
1573, 822.00
1574, 823.00
1575, 823.00
1576, 823.00
1577, 825.00
1578, 825.00
1579, 826.00
1580, 826.00
1581, 827.00
1582, 828.00
1583, 828.00
1584, 829.00
1585, 829.00
1586, 830.00
1587, 831.00
1588, 831.00
1589, 832.00
1590, 832.00
1591, 833.00
1592, 833.00
1593, 834.00
1594, 835.00
1595, 835.00
1596, 836.00
1597, 836.00
1598, 837.00
1599, 838.00
1600, 839.00
1601, 839.00
1602, 840.00
1603, 840.00
1604, 841.00
1605, 842.00
1606, 842.00
1607, 843.00
1608, 844.00
1609, 844.00
1610, 845.00
1611, 846.00
1612, 847.00
1613, 847.00
1614, 848.00
1615, 849.00
1616, 849.00
1617, 850.00
1618, 851.00
1619, 852.00
1620, 853.00
1621, 853.00
1622, 854.00
1623, 855.00
1624, 855.00
1625, 856.00
1626, 857.00
1627, 858.00
1628, 859.00
1629, 859.00
1630, 861.00
1631, 861.00
1632, 861.00
1633, 862.00
1634, 862.00
1635, 863.00
1636, 864.00
1637, 865.00
1638, 865.00
1639, 866.00
1640, 866.00
1641, 867.00
1642, 868.00
1643, 868.00
1644, 869.00
1645, 869.00
1646, 869.00
1647, 870.00
1648, 871.00
1649, 872.00
1650, 873.00

1750, 1069.00
1751, 1069.00
1752, 1070.00
1753, 1071.00
1754, 1070.00
1755, 1070.00
1756, 1070.00
1757, 1070.00
1758, 1070.00
1759, 1070.00
1760, 1070.00
1761, 1070.00
1762, 1070.00
1763, 1070.00
1764, 1070.00
1765, 1070.00
1766, 1070.00
1767, 1069.00
1768, 1069.00
1769, 1069.00
1770, 1069.00
1771, 1069.00
1772, 1068.00
1773, 1068.00
1774, 1067.00
1775, 1068.00
1776, 1068.00
1777, 1068.00
1778, 1067.00
1779, 1067.00
1780, 1066.00
1781, 1067.00
1782, 1066.00
1783, 1066.00
1784, 1066.00
1785, 1065.00
1786, 1065.00
1787, 1065.00
1788, 1064.00
1789, 1065.00
1790, 1064.00
1791, 1064.00
1792, 1063.00
1793, 1063.00
1794, 1063.00
1795, 1063.00
1796, 1062.00
1797, 1062.00
1798, 1062.00
1799, 1062.00
1800, 1062.00
1801, 1062.00
1802, 1061.00
1803, 1061.00
1804, 1060.00
1805, 1060.00
1806, 1060.00
1807, 1061.00
1808, 1060.00
1809, 1059.00
1810, 1059.00
1811, 1059.00
1812, 1059.00
1813, 1058.00
1814, 1058.00
1815, 1057.00
1816, 1057.00
1817, 1057.00
1818, 1057.00
1819, 1056.00
1820, 1056.00
1821, 1055.00
1822, 1054.00
1823, 1054.00
1824, 1053.00
1825, 1053.00
1826, 1053.00
1827, 1051.00
1828, 1050.00
1829, 1050.00
1830, 1049.00
1831, 1048.00
1832, 1047.00
1833, 1047.00
1834, 1046.00
1835, 1045.00
1836, 1045.00
1837, 1044.00
1838, 1043.00
1839, 1041.00
1840, 1040.00
1841, 1040.00
1842, 1038.00
1843, 1037.00
1844, 1035.00
1845, 1035.00
1846, 1033.00
1847, 1033.00
1848, 1031.00
1849, 1030.00
1850, 1028.00
1851, 1028.00
1852, 1027.00
1853, 1027.00
1854, 1024.00
1855, 1024.00
1856, 1023.00
1857, 1021.00
1858, 1020.00
1859, 1019.00
1860, 1018.00
1861, 1017.00
1862, 1016.00
1863, 1015.00
1864, 1014.00
1865, 1014.00
1866, 1013.00
1867, 1013.00
1868, 1011.00
1869, 1011.00
1870, 1011.00
1871, 1010.00
1872, 1009.00
1873, 1009.00
1874, 1008.00
1875, 1008.00
1876, 1007.00
1877, 1006.00
1878, 1006.00
1879, 1006.00
1880, 1005.00
1881, 1005.00
1882, 1005.00
1883, 1004.00
1884, 1003.00
1885, 1004.00
1886, 1003.00
1887, 1003.00
1888, 1003.00
1889, 1002.00
1890, 1002.00
1891, 1002.00
1892, 1002.00
1893, 1001.00
1894, 1001.00
1895, 1001.00
1896, 1000.00
1897, 1000.00
1898, 1000.00
1899, 1000.00
1900, 1000.00
1901, 1000.00
1902, 1000.00
1903, 1000.00
1904, 1000.00
1905, 999.00
1906, 999.00
1907, 998.00
1908, 999.00
1909, 998.00
1910, 998.00
1911, 999.00
1912, 998.00
1913, 998.00
1914, 998.00
1915, 999.00
1916, 998.00
1917, 998.00
1918, 998.00
1919, 998.00
1920, 998.00
1921, 997.00
1922, 997.00
1923, 998.00
1924, 998.00
1925, 997.00
1926, 998.00
1927, 998.00
1928, 998.00
1929, 997.00
1930, 998.00
1931, 998.00
1932, 997.00
1933, 998.00
1934, 998.00
1935, 997.00
1936, 998.00
1937, 998.00
1938, 998.00
1939, 999.00
1940, 998.00
1941, 998.00
1942, 998.00
1943, 999.00
1944, 999.00
1945, 999.00
1946, 999.00
1947, 999.00
1948, 999.00
1949, 999.00
1950, 999.00
1951, 999.00
1952, 999.00
1953, 999.00
1954, 1000.00
1955, 1000.00
1956, 1000.00
1957, 1000.00
1958, 1001.00
1959, 1001.00
1960, 1001.00
1961, 1001.00
1962, 1001.00
1963, 1002.00
1964, 1002.00
1965, 1002.00
1966, 1003.00
1967, 1002.00
1968, 1003.00
1969, 1003.00
1970, 1003.00
1971, 1002.00
1972, 1003.00
1973, 1003.00
1974, 1003.00
1975, 1004.00
1976, 1004.00
1977, 1004.00
1978, 1005.00
1979, 1005.00
1980, 1005.00
1981, 1005.00
1982, 1005.00
1983, 1006.00
1984, 1006.00
1985, 1006.00
1986, 1006.00
1987, 1007.00
1988, 1007.00
1989, 1007.00
1990, 1008.00
1991, 1007.00
1992, 1008.00
1993, 1009.00
1994, 1008.00
1995, 1008.00
1996, 1008.00
1997, 1009.00
1998, 1009.00
1999, 1010.00
2000, 1011.00
2001, 1011.00
2002, 1010.00
2003, 1011.00
2004, 1011.00
2005, 1011.00
2006, 1012.00
2007, 1012.00
2008, 1012.00
2009, 1012.00
2010, 1012.00
2011, 1013.00
2012, 1013.00
2013, 1013.00
2014, 1013.00
2015, 1013.00
2016, 1014.00
2017, 1014.00
2018, 1015.00
2019, 1015.00
2020, 1014.00
2021, 1015.00
2022, 1015.00
2023, 1015.00
2024, 1015.00
2025, 1016.00
2026, 1016.00
2027, 1016.00
2028, 1016.00
2029, 1017.00
2030, 1017.00
2031, 1017.00
2032, 1018.00
2033, 1018.00
2034, 1019.00
2035, 1019.00
2036, 1019.00
2037, 1020.00
2038, 1020.00
2039, 1021.00
2040, 1021.00
2041, 1020.00
2042, 1021.00
2043, 1022.00
2044, 1022.00
2045, 1022.00
2046, 1023.00
2047, 1024.00
2048, 1024.00
2049, 1024.00
2050, 1025.00
2051, 1025.00
2052, 1025.00
2053, 1025.00
2054, 1025.00
2055, 1027.00
2056, 1026.00
2057, 1026.00
2058, 1027.00
2059, 1028.00
2060, 1028.00
2061, 1029.00
2062, 1029.00
2063, 1030.00
2064, 1030.00
2065, 1030.00
2066, 1030.00
2067, 1032.00
2068, 1032.00
2069, 1032.00
2070, 1032.00
2071, 1032.00
2072, 1033.00
2073, 1034.00
2074, 1034.00
2075, 1035.00
2076, 1034.00
2077, 1035.00
2078, 1035.00
2079, 1035.00
2080, 1036.00
2081, 1037.00
2082, 1037.00
2083, 1037.00
2084, 1037.00
2085, 1037.00
2086, 1038.00
2087, 1038.00
2088, 1038.00
2089, 1039.00
2090, 1038.00
2091, 1040.00
2092, 1040.00
2093, 1040.00
2094, 1040.00
2095, 1041.00
2096, 1041.00
2097, 1040.00
2098, 1041.00
2099, 1041.00
2100, 1041.00
2101, 1042.00
2102, 1042.00
2103, 1042.00
2104, 1043.00
2105, 1043.00
2106, 1043.00
2107, 1043.00
2108, 1043.00
2109, 1043.00
2110, 1044.00
2111, 1043.00
2112, 1044.00
2113, 1045.00
2114, 1045.00
2115, 1045.00
2116, 1045.00
2117, 1045.00
2118, 1045.00
2119, 1046.00
2120, 1046.00
2121, 1045.00
2122, 1047.00
2123, 1046.00
2124, 1046.00
2125, 1046.00
2126, 1046.00
2127, 1046.00
2128, 1047.00
2129, 1048.00
2130, 1048.00
2131, 1047.00
2132, 1048.00
2133, 1048.00
2134, 1048.00
2135, 1048.00
2136, 1048.00
2137, 1049.00
2138, 1049.00
2139, 1049.00
2140, 1049.00
2141, 1049.00
2142, 1049.00
2143, 1050.00
2144, 1050.00
2145, 1050.00
2146, 1050.00
2147, 1051.00
2148, 1050.00
2149, 1050.00
2150, 1050.00
