FW version: 24
Log Version: 3.0.3

General Info:
       Command/Macro Performed,            Timestamp,             Device ID, COM Port, UART/I2C, Test Name, Host Major, Host Minor, Host Revision, Host Git Commit
            Single_measurement,  2023_06_28_12_27_48,       Insight2_F4_xxx,    USB-C,      USB,          ,          0,          1,             1,      4031237645

Show Spectrometer Status:
l0_version, f4_version, battery_perc, battery_mVolt, accelerometer_temp, accelerometer_x, accelerometer_y, accelerometer_z, compass_temp, compass_x, compass_y, compass_z, lamp_0, lamp_1, gain_0, gain_1
        17,         24,           49,          1917,               6608,           65152,            1168,           18788,            0,     65488,     65435,     65532,   3276,   3276,      1,      1

Temperature Statistic Info:
NTC AVG [°C], NTC2 AVG [°C]
      40.938,        40.470

Statistic Info:
M1:  num,      min,      max,   median,      AVG,      STD,M2:  num,      min,      max,   median,      AVG,      STD
     301,  2180.00,  2521.00,  2250.00,  2292.24, 106.4004,     401,  2877.00,  3089.00,  2959.00,  2966.82,  68.4636,

Measurements:
Wavelength, Data Amplitude
1350, 2245.00
1351, 2245.00
1352, 2243.00
1353, 2243.00
1354, 2240.00
1355, 2239.00
1356, 2239.00
1357, 2236.00
1358, 2235.00
1359, 2233.00
1360, 2232.00
1361, 2231.00
1362, 2230.00
1363, 2227.00
1364, 2225.00
1365, 2223.00
1366, 2221.00
1367, 2221.00
1368, 2219.00
1369, 2217.00
1370, 2215.00
1371, 2213.00
1372, 2211.00
1373, 2209.00
1374, 2208.00
1375, 2207.00
1376, 2205.00
1377, 2203.00
1378, 2201.00
1379, 2202.00
1380, 2200.00
1381, 2197.00
1382, 2197.00
1383, 2197.00
1384, 2195.00
1385, 2195.00
1386, 2192.00
1387, 2192.00
1388, 2191.00
1389, 2192.00
1390, 2190.00
1391, 2190.00
1392, 2190.00
1393, 2188.00
1394, 2187.00
1395, 2188.00
1396, 2185.00
1397, 2186.00
1398, 2186.00
1399, 2185.00
1400, 2184.00
1401, 2184.00
1402, 2184.00
1403, 2183.00
1404, 2183.00
1405, 2184.00
1406, 2183.00
1407, 2182.00
1408, 2182.00
1409, 2181.00
1410, 2183.00
1411, 2181.00
1412, 2181.00
1413, 2181.00
1414, 2180.00
1415, 2181.00
1416, 2181.00
1417, 2180.00
1418, 2180.00
1419, 2181.00
1420, 2181.00
1421, 2181.00
1422, 2180.00
1423, 2181.00
1424, 2181.00
1425, 2181.00
1426, 2181.00
1427, 2181.00
1428, 2181.00
1429, 2181.00
1430, 2182.00
1431, 2182.00
1432, 2182.00
1433, 2184.00
1434, 2185.00
1435, 2185.00
1436, 2184.00
1437, 2185.00
1438, 2187.00
1439, 2185.00
1440, 2186.00
1441, 2186.00
1442, 2187.00
1443, 2188.00
1444, 2189.00
1445, 2188.00
1446, 2191.00
1447, 2191.00
1448, 2190.00
1449, 2191.00
1450, 2193.00
1451, 2192.00
1452, 2194.00
1453, 2194.00
1454, 2194.00
1455, 2195.00
1456, 2196.00
1457, 2197.00
1458, 2198.00
1459, 2199.00
1460, 2199.00
1461, 2200.00
1462, 2202.00
1463, 2202.00
1464, 2203.00
1465, 2205.00
1466, 2205.00
1467, 2205.00
1468, 2208.00
1469, 2210.00
1470, 2210.00
1471, 2212.00
1472, 2213.00
1473, 2212.00
1474, 2215.00
1475, 2217.00
1476, 2217.00
1477, 2219.00
1478, 2219.00
1479, 2220.00
1480, 2222.00
1481, 2224.00
1482, 2225.00
1483, 2225.00
1484, 2227.00
1485, 2229.00
1486, 2229.00
1487, 2231.00
1488, 2232.00
1489, 2233.00
1490, 2235.00
1491, 2237.00
1492, 2238.00
1493, 2239.00
1494, 2241.00
1495, 2241.00
1496, 2243.00
1497, 2245.00
1498, 2247.00
1499, 2248.00
1500, 2250.00
1501, 2250.00
1502, 2251.00
1503, 2253.00
1504, 2254.00
1505, 2255.00
1506, 2257.00
1507, 2259.00
1508, 2261.00
1509, 2262.00
1510, 2264.00
1511, 2265.00
1512, 2267.00
1513, 2268.00
1514, 2269.00
1515, 2272.00
1516, 2273.00
1517, 2274.00
1518, 2276.00
1519, 2277.00
1520, 2279.00
1521, 2280.00
1522, 2283.00
1523, 2284.00
1524, 2285.00
1525, 2287.00
1526, 2289.00
1527, 2291.00
1528, 2293.00
1529, 2294.00
1530, 2296.00
1531, 2298.00
1532, 2299.00
1533, 2302.00
1534, 2302.00
1535, 2305.00
1536, 2305.00
1537, 2308.00
1538, 2310.00
1539, 2311.00
1540, 2313.00
1541, 2314.00
1542, 2316.00
1543, 2320.00
1544, 2320.00
1545, 2323.00
1546, 2323.00
1547, 2326.00
1548, 2327.00
1549, 2329.00
1550, 2331.00
1551, 2332.00
1552, 2335.00
1553, 2336.00
1554, 2338.00
1555, 2340.00
1556, 2342.00
1557, 2344.00
1558, 2346.00
1559, 2347.00
1560, 2350.00
1561, 2353.00
1562, 2354.00
1563, 2355.00
1564, 2358.00
1565, 2360.00
1566, 2362.00
1567, 2365.00
1568, 2367.00
1569, 2368.00
1570, 2372.00
1571, 2372.00
1572, 2375.00
1573, 2376.00
1574, 2378.00
1575, 2380.00
1576, 2381.00
1577, 2383.00
1578, 2385.00
1579, 2387.00
1580, 2389.00
1581, 2391.00
1582, 2393.00
1583, 2394.00
1584, 2396.00
1585, 2398.00
1586, 2399.00
1587, 2402.00
1588, 2402.00
1589, 2404.00
1590, 2406.00
1591, 2409.00
1592, 2409.00
1593, 2412.00
1594, 2413.00
1595, 2415.00
1596, 2417.00
1597, 2418.00
1598, 2419.00
1599, 2423.00
1600, 2423.00
1601, 2425.00
1602, 2428.00
1603, 2429.00
1604, 2431.00
1605, 2433.00
1606, 2434.00
1607, 2437.00
1608, 2439.00
1609, 2440.00
1610, 2443.00
1611, 2446.00
1612, 2447.00
1613, 2449.00
1614, 2452.00
1615, 2454.00
1616, 2456.00
1617, 2457.00
1618, 2460.00
1619, 2462.00
1620, 2465.00
1621, 2467.00
1622, 2469.00
1623, 2471.00
1624, 2473.00
1625, 2475.00
1626, 2477.00
1627, 2479.00
1628, 2481.00
1629, 2483.00
1630, 2485.00
1631, 2487.00
1632, 2489.00
1633, 2491.00
1634, 2493.00
1635, 2495.00
1636, 2497.00
1637, 2498.00
1638, 2500.00
1639, 2503.00
1640, 2504.00
1641, 2506.00
1642, 2507.00
1643, 2509.00
1644, 2511.00
1645, 2513.00
1646, 2515.00
1647, 2515.00
1648, 2518.00
1649, 2519.00
1650, 2521.00

1750, 3087.00
1751, 3088.00
1752, 3087.00
1753, 3089.00
1754, 3087.00
1755, 3088.00
1756, 3087.00
1757, 3089.00
1758, 3088.00
1759, 3087.00
1760, 3087.00
1761, 3087.00
1762, 3084.00
1763, 3085.00
1764, 3085.00
1765, 3083.00
1766, 3086.00
1767, 3083.00
1768, 3084.00
1769, 3084.00
1770, 3083.00
1771, 3082.00
1772, 3082.00
1773, 3082.00
1774, 3081.00
1775, 3080.00
1776, 3078.00
1777, 3078.00
1778, 3078.00
1779, 3080.00
1780, 3078.00
1781, 3078.00
1782, 3074.00
1783, 3075.00
1784, 3076.00
1785, 3073.00
1786, 3073.00
1787, 3070.00
1788, 3071.00
1789, 3069.00
1790, 3068.00
1791, 3069.00
1792, 3067.00
1793, 3068.00
1794, 3067.00
1795, 3067.00
1796, 3065.00
1797, 3063.00
1798, 3065.00
1799, 3063.00
1800, 3064.00
1801, 3061.00
1802, 3063.00
1803, 3061.00
1804, 3059.00
1805, 3059.00
1806, 3059.00
1807, 3058.00
1808, 3059.00
1809, 3055.00
1810, 3055.00
1811, 3055.00
1812, 3055.00
1813, 3053.00
1814, 3052.00
1815, 3050.00
1816, 3049.00
1817, 3047.00
1818, 3048.00
1819, 3046.00
1820, 3043.00
1821, 3044.00
1822, 3042.00
1823, 3039.00
1824, 3038.00
1825, 3035.00
1826, 3033.00
1827, 3033.00
1828, 3029.00
1829, 3028.00
1830, 3027.00
1831, 3021.00
1832, 3020.00
1833, 3019.00
1834, 3017.00
1835, 3014.00
1836, 3012.00
1837, 3008.00
1838, 3007.00
1839, 3002.00
1840, 3001.00
1841, 2997.00
1842, 2995.00
1843, 2992.00
1844, 2987.00
1845, 2983.00
1846, 2982.00
1847, 2978.00
1848, 2974.00
1849, 2969.00
1850, 2968.00
1851, 2966.00
1852, 2961.00
1853, 2959.00
1854, 2956.00
1855, 2952.00
1856, 2951.00
1857, 2944.00
1858, 2944.00
1859, 2942.00
1860, 2939.00
1861, 2932.00
1862, 2933.00
1863, 2929.00
1864, 2929.00
1865, 2923.00
1866, 2925.00
1867, 2918.00
1868, 2917.00
1869, 2917.00
1870, 2913.00
1871, 2912.00
1872, 2910.00
1873, 2909.00
1874, 2907.00
1875, 2906.00
1876, 2907.00
1877, 2903.00
1878, 2901.00
1879, 2900.00
1880, 2899.00
1881, 2897.00
1882, 2899.00
1883, 2897.00
1884, 2895.00
1885, 2895.00
1886, 2893.00
1887, 2894.00
1888, 2893.00
1889, 2891.00
1890, 2890.00
1891, 2891.00
1892, 2890.00
1893, 2890.00
1894, 2888.00
1895, 2889.00
1896, 2888.00
1897, 2887.00
1898, 2887.00
1899, 2886.00
1900, 2885.00
1901, 2885.00
1902, 2884.00
1903, 2884.00
1904, 2881.00
1905, 2884.00
1906, 2882.00
1907, 2884.00
1908, 2881.00
1909, 2884.00
1910, 2881.00
1911, 2880.00
1912, 2881.00
1913, 2881.00
1914, 2880.00
1915, 2879.00
1916, 2881.00
1917, 2878.00
1918, 2880.00
1919, 2880.00
1920, 2879.00
1921, 2878.00
1922, 2880.00
1923, 2878.00
1924, 2879.00
1925, 2880.00
1926, 2878.00
1927, 2877.00
1928, 2879.00
1929, 2880.00
1930, 2879.00
1931, 2880.00
1932, 2881.00
1933, 2881.00
1934, 2879.00
1935, 2879.00
1936, 2880.00
1937, 2879.00
1938, 2882.00
1939, 2880.00
1940, 2880.00
1941, 2881.00
1942, 2880.00
1943, 2880.00
1944, 2880.00
1945, 2880.00
1946, 2881.00
1947, 2882.00
1948, 2883.00
1949, 2881.00
1950, 2884.00
1951, 2883.00
1952, 2882.00
1953, 2886.00
1954, 2885.00
1955, 2885.00
1956, 2885.00
1957, 2886.00
1958, 2886.00
1959, 2885.00
1960, 2890.00
1961, 2888.00
1962, 2890.00
1963, 2889.00
1964, 2891.00
1965, 2889.00
1966, 2891.00
1967, 2893.00
1968, 2893.00
1969, 2894.00
1970, 2893.00
1971, 2895.00
1972, 2894.00
1973, 2897.00
1974, 2897.00
1975, 2898.00
1976, 2898.00
1977, 2898.00
1978, 2900.00
1979, 2901.00
1980, 2900.00
1981, 2902.00
1982, 2902.00
1983, 2903.00
1984, 2904.00
1985, 2903.00
1986, 2903.00
1987, 2905.00
1988, 2905.00
1989, 2908.00
1990, 2905.00
1991, 2910.00
1992, 2909.00
1993, 2909.00
1994, 2910.00
1995, 2911.00
1996, 2911.00
1997, 2913.00
1998, 2913.00
1999, 2913.00
2000, 2915.00
2001, 2915.00
2002, 2918.00
2003, 2917.00
2004, 2919.00
2005, 2919.00
2006, 2920.00
2007, 2920.00
2008, 2919.00
2009, 2920.00
2010, 2922.00
2011, 2923.00
2012, 2924.00
2013, 2924.00
2014, 2923.00
2015, 2925.00
2016, 2923.00
2017, 2927.00
2018, 2926.00
2019, 2929.00
2020, 2929.00
2021, 2929.00
2022, 2931.00
2023, 2929.00
2024, 2932.00
2025, 2929.00
2026, 2934.00
2027, 2935.00
2028, 2934.00
2029, 2936.00
2030, 2935.00
2031, 2936.00
2032, 2938.00
2033, 2940.00
2034, 2940.00
2035, 2941.00
2036, 2942.00
2037, 2941.00
2038, 2942.00
2039, 2944.00
2040, 2947.00
2041, 2945.00
2042, 2947.00
2043, 2948.00
2044, 2950.00
2045, 2952.00
2046, 2953.00
2047, 2952.00
2048, 2954.00
2049, 2954.00
2050, 2955.00
2051, 2959.00
2052, 2958.00
2053, 2957.00
2054, 2961.00
2055, 2961.00
2056, 2963.00
2057, 2962.00
2058, 2964.00
2059, 2964.00
2060, 2966.00
2061, 2965.00
2062, 2969.00
2063, 2969.00
2064, 2972.00
2065, 2971.00
2066, 2973.00
2067, 2974.00
2068, 2975.00
2069, 2977.00
2070, 2978.00
2071, 2977.00
2072, 2979.00
2073, 2981.00
2074, 2980.00
2075, 2981.00
2076, 2985.00
2077, 2984.00
2078, 2987.00
2079, 2986.00
2080, 2988.00
2081, 2989.00
2082, 2989.00
2083, 2991.00
2084, 2992.00
2085, 2993.00
2086, 2994.00
2087, 2994.00
2088, 2997.00
2089, 2996.00
2090, 3000.00
2091, 2997.00
2092, 2997.00
2093, 2999.00
2094, 2999.00
2095, 3003.00
2096, 3002.00
2097, 3002.00
2098, 3005.00
2099, 3003.00
2100, 3004.00
2101, 3004.00
2102, 3004.00
2103, 3005.00
2104, 3007.00
2105, 3009.00
2106, 3010.00
2107, 3010.00
2108, 3012.00
2109, 3013.00
2110, 3013.00
2111, 3012.00
2112, 3015.00
2113, 3013.00
2114, 3014.00
2115, 3015.00
2116, 3015.00
2117, 3015.00
2118, 3017.00
2119, 3016.00
2120, 3017.00
2121, 3016.00
2122, 3018.00
2123, 3019.00
2124, 3019.00
2125, 3019.00
2126, 3020.00
2127, 3023.00
2128, 3023.00
2129, 3023.00
2130, 3020.00
2131, 3023.00
2132, 3024.00
2133, 3023.00
2134, 3024.00
2135, 3026.00
2136, 3025.00
2137, 3025.00
2138, 3026.00
2139, 3025.00
2140, 3027.00
2141, 3026.00
2142, 3027.00
2143, 3028.00
2144, 3026.00
2145, 3029.00
2146, 3030.00
2147, 3028.00
2148, 3031.00
2149, 3031.00
2150, 3029.00
