FW version: 24
Log Version: 3.0.3

General Info:
       Command/Macro Performed,            Timestamp,             Device ID, COM Port, UART/I2C, Test Name, Host Major, Host Minor, Host Revision, Host Git Commit
            Single_measurement,  2023_07_18_10_57_07,       Insight2_F4_xxx,    USB-C,      USB,          ,          0,          1,             1,      4031237645

Show Spectrometer Status:
l0_version, f4_version, battery_perc, battery_mVolt, accelerometer_temp, accelerometer_x, accelerometer_y, accelerometer_z, compass_temp, compass_x, compass_y, compass_z, lamp_0, lamp_1, gain_0, gain_1
        17,         24,           72,          1986,               6112,           65256,            1076,           18808,            0,     65515,     65269,     18938,   2866,   2866,      1,      1

Temperature Statistic Info:
NTC AVG [°C], NTC2 AVG [°C]
      38.595,        38.275

Statistic Info:
M1:  num,      min,      max,   median,      AVG,      STD,M2:  num,      min,      max,   median,      AVG,      STD
     301,  1368.00,  1582.00,  1410.00,  1438.22,  66.3576,     401,  1842.00,  1969.00,  1893.00,  1897.54,  41.2495,

Measurements:
Wavelength, Data Amplitude
1350, 1409.00
1351, 1407.00
1352, 1407.00
1353, 1407.00
1354, 1404.00
1355, 1403.00
1356, 1404.00
1357, 1402.00
1358, 1402.00
1359, 1400.00
1360, 1399.00
1361, 1399.00
1362, 1399.00
1363, 1397.00
1364, 1395.00
1365, 1395.00
1366, 1393.00
1367, 1394.00
1368, 1391.00
1369, 1390.00
1370, 1391.00
1371, 1389.00
1372, 1387.00
1373, 1386.00
1374, 1386.00
1375, 1383.00
1376, 1385.00
1377, 1382.00
1378, 1382.00
1379, 1381.00
1380, 1381.00
1381, 1380.00
1382, 1378.00
1383, 1378.00
1384, 1378.00
1385, 1377.00
1386, 1376.00
1387, 1375.00
1388, 1375.00
1389, 1374.00
1390, 1374.00
1391, 1375.00
1392, 1374.00
1393, 1373.00
1394, 1372.00
1395, 1373.00
1396, 1372.00
1397, 1372.00
1398, 1372.00
1399, 1371.00
1400, 1371.00
1401, 1371.00
1402, 1371.00
1403, 1370.00
1404, 1371.00
1405, 1371.00
1406, 1369.00
1407, 1369.00
1408, 1370.00
1409, 1368.00
1410, 1369.00
1411, 1369.00
1412, 1370.00
1413, 1369.00
1414, 1369.00
1415, 1369.00
1416, 1369.00
1417, 1369.00
1418, 1370.00
1419, 1369.00
1420, 1369.00
1421, 1369.00
1422, 1369.00
1423, 1370.00
1424, 1370.00
1425, 1369.00
1426, 1370.00
1427, 1369.00
1428, 1370.00
1429, 1369.00
1430, 1370.00
1431, 1370.00
1432, 1370.00
1433, 1371.00
1434, 1371.00
1435, 1371.00
1436, 1371.00
1437, 1371.00
1438, 1372.00
1439, 1373.00
1440, 1373.00
1441, 1373.00
1442, 1373.00
1443, 1373.00
1444, 1373.00
1445, 1374.00
1446, 1374.00
1447, 1374.00
1448, 1374.00
1449, 1375.00
1450, 1377.00
1451, 1376.00
1452, 1377.00
1453, 1377.00
1454, 1377.00
1455, 1378.00
1456, 1379.00
1457, 1378.00
1458, 1380.00
1459, 1380.00
1460, 1381.00
1461, 1381.00
1462, 1382.00
1463, 1383.00
1464, 1383.00
1465, 1383.00
1466, 1384.00
1467, 1385.00
1468, 1385.00
1469, 1386.00
1470, 1386.00
1471, 1387.00
1472, 1388.00
1473, 1390.00
1474, 1389.00
1475, 1390.00
1476, 1391.00
1477, 1392.00
1478, 1393.00
1479, 1394.00
1480, 1395.00
1481, 1395.00
1482, 1396.00
1483, 1397.00
1484, 1398.00
1485, 1398.00
1486, 1399.00
1487, 1399.00
1488, 1401.00
1489, 1401.00
1490, 1402.00
1491, 1403.00
1492, 1404.00
1493, 1405.00
1494, 1406.00
1495, 1407.00
1496, 1407.00
1497, 1409.00
1498, 1409.00
1499, 1410.00
1500, 1410.00
1501, 1412.00
1502, 1413.00
1503, 1414.00
1504, 1415.00
1505, 1415.00
1506, 1417.00
1507, 1418.00
1508, 1419.00
1509, 1419.00
1510, 1421.00
1511, 1421.00
1512, 1421.00
1513, 1423.00
1514, 1425.00
1515, 1425.00
1516, 1427.00
1517, 1426.00
1518, 1428.00
1519, 1429.00
1520, 1431.00
1521, 1431.00
1522, 1432.00
1523, 1433.00
1524, 1435.00
1525, 1436.00
1526, 1436.00
1527, 1437.00
1528, 1440.00
1529, 1439.00
1530, 1441.00
1531, 1443.00
1532, 1443.00
1533, 1444.00
1534, 1445.00
1535, 1447.00
1536, 1448.00
1537, 1449.00
1538, 1450.00
1539, 1450.00
1540, 1451.00
1541, 1454.00
1542, 1455.00
1543, 1456.00
1544, 1457.00
1545, 1458.00
1546, 1458.00
1547, 1460.00
1548, 1461.00
1549, 1463.00
1550, 1463.00
1551, 1464.00
1552, 1465.00
1553, 1467.00
1554, 1467.00
1555, 1468.00
1556, 1470.00
1557, 1472.00
1558, 1472.00
1559, 1473.00
1560, 1474.00
1561, 1476.00
1562, 1477.00
1563, 1478.00
1564, 1480.00
1565, 1481.00
1566, 1482.00
1567, 1483.00
1568, 1485.00
1569, 1486.00
1570, 1487.00
1571, 1488.00
1572, 1489.00
1573, 1490.00
1574, 1491.00
1575, 1492.00
1576, 1494.00
1577, 1495.00
1578, 1496.00
1579, 1497.00
1580, 1498.00
1581, 1498.00
1582, 1501.00
1583, 1501.00
1584, 1502.00
1585, 1503.00
1586, 1505.00
1587, 1505.00
1588, 1506.00
1589, 1508.00
1590, 1509.00
1591, 1510.00
1592, 1511.00
1593, 1512.00
1594, 1513.00
1595, 1514.00
1596, 1515.00
1597, 1517.00
1598, 1518.00
1599, 1518.00
1600, 1520.00
1601, 1521.00
1602, 1522.00
1603, 1524.00
1604, 1524.00
1605, 1525.00
1606, 1528.00
1607, 1529.00
1608, 1529.00
1609, 1530.00
1610, 1532.00
1611, 1533.00
1612, 1535.00
1613, 1535.00
1614, 1538.00
1615, 1539.00
1616, 1540.00
1617, 1541.00
1618, 1543.00
1619, 1544.00
1620, 1545.00
1621, 1547.00
1622, 1548.00
1623, 1550.00
1624, 1551.00
1625, 1552.00
1626, 1553.00
1627, 1555.00
1628, 1556.00
1629, 1557.00
1630, 1558.00
1631, 1559.00
1632, 1561.00
1633, 1562.00
1634, 1563.00
1635, 1565.00
1636, 1566.00
1637, 1567.00
1638, 1569.00
1639, 1569.00
1640, 1571.00
1641, 1572.00
1642, 1573.00
1643, 1574.00
1644, 1575.00
1645, 1576.00
1646, 1577.00
1647, 1578.00
1648, 1579.00
1649, 1581.00
1650, 1582.00

1750, 1968.00
1751, 1967.00
1752, 1967.00
1753, 1966.00
1754, 1969.00
1755, 1967.00
1756, 1967.00
1757, 1966.00
1758, 1967.00
1759, 1968.00
1760, 1967.00
1761, 1969.00
1762, 1968.00
1763, 1967.00
1764, 1968.00
1765, 1967.00
1766, 1966.00
1767, 1967.00
1768, 1967.00
1769, 1967.00
1770, 1965.00
1771, 1967.00
1772, 1967.00
1773, 1965.00
1774, 1966.00
1775, 1965.00
1776, 1964.00
1777, 1965.00
1778, 1962.00
1779, 1964.00
1780, 1964.00
1781, 1961.00
1782, 1961.00
1783, 1962.00
1784, 1960.00
1785, 1960.00
1786, 1961.00
1787, 1959.00
1788, 1959.00
1789, 1959.00
1790, 1958.00
1791, 1957.00
1792, 1957.00
1793, 1958.00
1794, 1957.00
1795, 1957.00
1796, 1955.00
1797, 1956.00
1798, 1954.00
1799, 1954.00
1800, 1954.00
1801, 1954.00
1802, 1952.00
1803, 1953.00
1804, 1952.00
1805, 1950.00
1806, 1950.00
1807, 1951.00
1808, 1951.00
1809, 1950.00
1810, 1950.00
1811, 1951.00
1812, 1949.00
1813, 1947.00
1814, 1949.00
1815, 1947.00
1816, 1946.00
1817, 1947.00
1818, 1946.00
1819, 1946.00
1820, 1942.00
1821, 1942.00
1822, 1942.00
1823, 1940.00
1824, 1940.00
1825, 1939.00
1826, 1936.00
1827, 1936.00
1828, 1934.00
1829, 1933.00
1830, 1934.00
1831, 1932.00
1832, 1930.00
1833, 1929.00
1834, 1927.00
1835, 1925.00
1836, 1925.00
1837, 1922.00
1838, 1922.00
1839, 1919.00
1840, 1918.00
1841, 1916.00
1842, 1915.00
1843, 1913.00
1844, 1910.00
1845, 1909.00
1846, 1906.00
1847, 1906.00
1848, 1902.00
1849, 1901.00
1850, 1899.00
1851, 1898.00
1852, 1895.00
1853, 1892.00
1854, 1892.00
1855, 1890.00
1856, 1888.00
1857, 1886.00
1858, 1883.00
1859, 1881.00
1860, 1882.00
1861, 1877.00
1862, 1877.00
1863, 1876.00
1864, 1876.00
1865, 1870.00
1866, 1871.00
1867, 1871.00
1868, 1867.00
1869, 1867.00
1870, 1866.00
1871, 1865.00
1872, 1863.00
1873, 1864.00
1874, 1862.00
1875, 1861.00
1876, 1859.00
1877, 1859.00
1878, 1858.00
1879, 1857.00
1880, 1858.00
1881, 1857.00
1882, 1855.00
1883, 1853.00
1884, 1856.00
1885, 1852.00
1886, 1853.00
1887, 1852.00
1888, 1853.00
1889, 1852.00
1890, 1850.00
1891, 1852.00
1892, 1851.00
1893, 1848.00
1894, 1849.00
1895, 1851.00
1896, 1849.00
1897, 1850.00
1898, 1848.00
1899, 1848.00
1900, 1849.00
1901, 1847.00
1902, 1847.00
1903, 1846.00
1904, 1846.00
1905, 1847.00
1906, 1847.00
1907, 1846.00
1908, 1846.00
1909, 1846.00
1910, 1846.00
1911, 1844.00
1912, 1843.00
1913, 1845.00
1914, 1844.00
1915, 1844.00
1916, 1844.00
1917, 1845.00
1918, 1844.00
1919, 1842.00
1920, 1843.00
1921, 1845.00
1922, 1843.00
1923, 1843.00
1924, 1844.00
1925, 1844.00
1926, 1843.00
1927, 1842.00
1928, 1843.00
1929, 1843.00
1930, 1846.00
1931, 1845.00
1932, 1845.00
1933, 1844.00
1934, 1844.00
1935, 1845.00
1936, 1845.00
1937, 1845.00
1938, 1845.00
1939, 1845.00
1940, 1846.00
1941, 1844.00
1942, 1845.00
1943, 1846.00
1944, 1845.00
1945, 1845.00
1946, 1847.00
1947, 1846.00
1948, 1845.00
1949, 1847.00
1950, 1845.00
1951, 1848.00
1952, 1847.00
1953, 1846.00
1954, 1849.00
1955, 1850.00
1956, 1848.00
1957, 1849.00
1958, 1848.00
1959, 1848.00
1960, 1850.00
1961, 1850.00
1962, 1850.00
1963, 1851.00
1964, 1852.00
1965, 1851.00
1966, 1854.00
1967, 1855.00
1968, 1851.00
1969, 1854.00
1970, 1852.00
1971, 1853.00
1972, 1854.00
1973, 1854.00
1974, 1854.00
1975, 1855.00
1976, 1856.00
1977, 1856.00
1978, 1856.00
1979, 1857.00
1980, 1855.00
1981, 1857.00
1982, 1857.00
1983, 1860.00
1984, 1860.00
1985, 1858.00
1986, 1859.00
1987, 1862.00
1988, 1860.00
1989, 1861.00
1990, 1862.00
1991, 1862.00
1992, 1862.00
1993, 1864.00
1994, 1863.00
1995, 1863.00
1996, 1863.00
1997, 1865.00
1998, 1866.00
1999, 1869.00
2000, 1866.00
2001, 1867.00
2002, 1866.00
2003, 1869.00
2004, 1867.00
2005, 1868.00
2006, 1867.00
2007, 1869.00
2008, 1869.00
2009, 1869.00
2010, 1870.00
2011, 1871.00
2012, 1873.00
2013, 1872.00
2014, 1872.00
2015, 1874.00
2016, 1873.00
2017, 1872.00
2018, 1875.00
2019, 1872.00
2020, 1875.00
2021, 1874.00
2022, 1877.00
2023, 1873.00
2024, 1877.00
2025, 1875.00
2026, 1878.00
2027, 1878.00
2028, 1878.00
2029, 1877.00
2030, 1879.00
2031, 1879.00
2032, 1880.00
2033, 1879.00
2034, 1881.00
2035, 1884.00
2036, 1883.00
2037, 1884.00
2038, 1884.00
2039, 1884.00
2040, 1884.00
2041, 1885.00
2042, 1884.00
2043, 1887.00
2044, 1887.00
2045, 1887.00
2046, 1889.00
2047, 1888.00
2048, 1889.00
2049, 1891.00
2050, 1889.00
2051, 1892.00
2052, 1892.00
2053, 1893.00
2054, 1894.00
2055, 1894.00
2056, 1895.00
2057, 1895.00
2058, 1897.00
2059, 1898.00
2060, 1899.00
2061, 1899.00
2062, 1898.00
2063, 1900.00
2064, 1902.00
2065, 1902.00
2066, 1902.00
2067, 1902.00
2068, 1904.00
2069, 1906.00
2070, 1906.00
2071, 1907.00
2072, 1905.00
2073, 1907.00
2074, 1906.00
2075, 1909.00
2076, 1909.00
2077, 1909.00
2078, 1909.00
2079, 1912.00
2080, 1911.00
2081, 1911.00
2082, 1913.00
2083, 1914.00
2084, 1914.00
2085, 1915.00
2086, 1916.00
2087, 1915.00
2088, 1917.00
2089, 1918.00
2090, 1918.00
2091, 1919.00
2092, 1919.00
2093, 1919.00
2094, 1919.00
2095, 1921.00
2096, 1919.00
2097, 1922.00
2098, 1922.00
2099, 1921.00
2100, 1923.00
2101, 1924.00
2102, 1923.00
2103, 1924.00
2104, 1924.00
2105, 1924.00
2106, 1924.00
2107, 1926.00
2108, 1924.00
2109, 1926.00
2110, 1926.00
2111, 1926.00
2112, 1927.00
2113, 1927.00
2114, 1928.00
2115, 1929.00
2116, 1928.00
2117, 1928.00
2118, 1930.00
2119, 1930.00
2120, 1929.00
2121, 1928.00
2122, 1930.00
2123, 1930.00
2124, 1931.00
2125, 1932.00
2126, 1932.00
2127, 1931.00
2128, 1932.00
2129, 1932.00
2130, 1932.00
2131, 1932.00
2132, 1935.00
2133, 1933.00
2134, 1935.00
2135, 1935.00
2136, 1936.00
2137, 1935.00
2138, 1936.00
2139, 1936.00
2140, 1935.00
2141, 1937.00
2142, 1936.00
2143, 1936.00
2144, 1936.00
2145, 1937.00
2146, 1937.00
2147, 1937.00
2148, 1938.00
2149, 1937.00
2150, 1937.00
