FW version: 24
Log Version: 3.0.3

General Info:
       Command/Macro Performed,            Timestamp,             Device ID, COM Port, UART/I2C, Test Name, Host Major, Host Minor, Host Revision, Host Git Commit
            Single_measurement,  2023_07_18_10_56_17,       Insight2_F4_xxx,    USB-C,      USB,          ,          0,          1,             1,      4031237645

Show Spectrometer Status:
l0_version, f4_version, battery_perc, battery_mVolt, accelerometer_temp, accelerometer_x, accelerometer_y, accelerometer_z, compass_temp, compass_x, compass_y, compass_z, lamp_0, lamp_1, gain_0, gain_1
        17,         24,           72,          1987,               6112,           65304,             984,           18820,            0,     65437,     65528,     18926,   3276,   3276,      0,      0

Temperature Statistic Info:
NTC AVG [°C], NTC2 AVG [°C]
      38.304,        38.070

Statistic Info:
M1:  num,      min,      max,   median,      AVG,      STD,M2:  num,      min,      max,   median,      AVG,      STD
     301,   608.00,   699.00,   626.00,   637.82,  28.3183,     401,   792.00,   846.00,   813.00,   814.85,  17.6397,

Measurements:
Wavelength, Data Amplitude
1350, 626.00
1351, 626.00
1352, 626.00
1353, 625.00
1354, 625.00
1355, 624.00
1356, 624.00
1357, 624.00
1358, 624.00
1359, 623.00
1360, 622.00
1361, 622.00
1362, 622.00
1363, 621.00
1364, 621.00
1365, 620.00
1366, 619.00
1367, 619.00
1368, 619.00
1369, 618.00
1370, 618.00
1371, 618.00
1372, 617.00
1373, 616.00
1374, 616.00
1375, 616.00
1376, 615.00
1377, 615.00
1378, 614.00
1379, 614.00
1380, 613.00
1381, 613.00
1382, 613.00
1383, 612.00
1384, 612.00
1385, 612.00
1386, 612.00
1387, 611.00
1388, 612.00
1389, 611.00
1390, 610.00
1391, 611.00
1392, 611.00
1393, 611.00
1394, 610.00
1395, 610.00
1396, 610.00
1397, 610.00
1398, 610.00
1399, 610.00
1400, 609.00
1401, 609.00
1402, 609.00
1403, 609.00
1404, 609.00
1405, 609.00
1406, 609.00
1407, 609.00
1408, 609.00
1409, 609.00
1410, 609.00
1411, 608.00
1412, 609.00
1413, 608.00
1414, 608.00
1415, 608.00
1416, 608.00
1417, 608.00
1418, 608.00
1419, 608.00
1420, 608.00
1421, 609.00
1422, 608.00
1423, 608.00
1424, 608.00
1425, 608.00
1426, 608.00
1427, 608.00
1428, 608.00
1429, 609.00
1430, 609.00
1431, 608.00
1432, 608.00
1433, 609.00
1434, 609.00
1435, 609.00
1436, 609.00
1437, 609.00
1438, 609.00
1439, 610.00
1440, 610.00
1441, 610.00
1442, 610.00
1443, 610.00
1444, 610.00
1445, 611.00
1446, 610.00
1447, 611.00
1448, 611.00
1449, 611.00
1450, 611.00
1451, 611.00
1452, 611.00
1453, 611.00
1454, 612.00
1455, 612.00
1456, 612.00
1457, 612.00
1458, 613.00
1459, 613.00
1460, 613.00
1461, 613.00
1462, 613.00
1463, 614.00
1464, 613.00
1465, 614.00
1466, 614.00
1467, 615.00
1468, 615.00
1469, 615.00
1470, 615.00
1471, 616.00
1472, 616.00
1473, 616.00
1474, 617.00
1475, 618.00
1476, 617.00
1477, 618.00
1478, 618.00
1479, 619.00
1480, 619.00
1481, 619.00
1482, 620.00
1483, 620.00
1484, 620.00
1485, 621.00
1486, 621.00
1487, 621.00
1488, 621.00
1489, 622.00
1490, 622.00
1491, 622.00
1492, 623.00
1493, 623.00
1494, 623.00
1495, 624.00
1496, 625.00
1497, 625.00
1498, 625.00
1499, 625.00
1500, 626.00
1501, 626.00
1502, 627.00
1503, 627.00
1504, 627.00
1505, 628.00
1506, 628.00
1507, 629.00
1508, 629.00
1509, 629.00
1510, 630.00
1511, 630.00
1512, 631.00
1513, 631.00
1514, 631.00
1515, 632.00
1516, 632.00
1517, 633.00
1518, 633.00
1519, 634.00
1520, 634.00
1521, 634.00
1522, 635.00
1523, 636.00
1524, 636.00
1525, 636.00
1526, 637.00
1527, 637.00
1528, 638.00
1529, 638.00
1530, 638.00
1531, 639.00
1532, 640.00
1533, 640.00
1534, 641.00
1535, 641.00
1536, 642.00
1537, 642.00
1538, 643.00
1539, 643.00
1540, 643.00
1541, 644.00
1542, 644.00
1543, 644.00
1544, 645.00
1545, 646.00
1546, 646.00
1547, 647.00
1548, 647.00
1549, 648.00
1550, 648.00
1551, 649.00
1552, 649.00
1553, 650.00
1554, 650.00
1555, 651.00
1556, 651.00
1557, 652.00
1558, 652.00
1559, 652.00
1560, 653.00
1561, 654.00
1562, 654.00
1563, 655.00
1564, 656.00
1565, 656.00
1566, 656.00
1567, 657.00
1568, 657.00
1569, 658.00
1570, 659.00
1571, 659.00
1572, 659.00
1573, 660.00
1574, 660.00
1575, 661.00
1576, 661.00
1577, 662.00
1578, 662.00
1579, 663.00
1580, 664.00
1581, 664.00
1582, 664.00
1583, 665.00
1584, 665.00
1585, 666.00
1586, 666.00
1587, 666.00
1588, 667.00
1589, 667.00
1590, 668.00
1591, 669.00
1592, 669.00
1593, 669.00
1594, 670.00
1595, 670.00
1596, 671.00
1597, 671.00
1598, 672.00
1599, 672.00
1600, 673.00
1601, 673.00
1602, 673.00
1603, 675.00
1604, 675.00
1605, 675.00
1606, 675.00
1607, 676.00
1608, 677.00
1609, 678.00
1610, 678.00
1611, 679.00
1612, 679.00
1613, 680.00
1614, 681.00
1615, 681.00
1616, 682.00
1617, 681.00
1618, 682.00
1619, 683.00
1620, 684.00
1621, 685.00
1622, 685.00
1623, 685.00
1624, 686.00
1625, 686.00
1626, 687.00
1627, 688.00
1628, 688.00
1629, 689.00
1630, 689.00
1631, 690.00
1632, 691.00
1633, 691.00
1634, 691.00
1635, 693.00
1636, 692.00
1637, 693.00
1638, 693.00
1639, 694.00
1640, 694.00
1641, 695.00
1642, 696.00
1643, 696.00
1644, 696.00
1645, 697.00
1646, 697.00
1647, 697.00
1648, 698.00
1649, 698.00
1650, 699.00

1750, 846.00
1751, 845.00
1752, 846.00
1753, 845.00
1754, 845.00
1755, 845.00
1756, 846.00
1757, 846.00
1758, 846.00
1759, 845.00
1760, 846.00
1761, 846.00
1762, 845.00
1763, 845.00
1764, 846.00
1765, 845.00
1766, 845.00
1767, 845.00
1768, 845.00
1769, 845.00
1770, 844.00
1771, 845.00
1772, 844.00
1773, 844.00
1774, 844.00
1775, 844.00
1776, 844.00
1777, 844.00
1778, 843.00
1779, 843.00
1780, 843.00
1781, 843.00
1782, 844.00
1783, 843.00
1784, 843.00
1785, 841.00
1786, 842.00
1787, 841.00
1788, 841.00
1789, 842.00
1790, 841.00
1791, 841.00
1792, 841.00
1793, 841.00
1794, 840.00
1795, 840.00
1796, 840.00
1797, 840.00
1798, 840.00
1799, 839.00
1800, 839.00
1801, 839.00
1802, 839.00
1803, 838.00
1804, 839.00
1805, 839.00
1806, 838.00
1807, 838.00
1808, 838.00
1809, 838.00
1810, 838.00
1811, 838.00
1812, 837.00
1813, 837.00
1814, 837.00
1815, 836.00
1816, 836.00
1817, 836.00
1818, 836.00
1819, 835.00
1820, 835.00
1821, 834.00
1822, 834.00
1823, 833.00
1824, 833.00
1825, 833.00
1826, 832.00
1827, 832.00
1828, 832.00
1829, 830.00
1830, 830.00
1831, 830.00
1832, 829.00
1833, 829.00
1834, 828.00
1835, 829.00
1836, 827.00
1837, 826.00
1838, 826.00
1839, 825.00
1840, 825.00
1841, 823.00
1842, 823.00
1843, 822.00
1844, 821.00
1845, 820.00
1846, 820.00
1847, 818.00
1848, 818.00
1849, 817.00
1850, 816.00
1851, 815.00
1852, 814.00
1853, 813.00
1854, 812.00
1855, 812.00
1856, 811.00
1857, 810.00
1858, 809.00
1859, 808.00
1860, 808.00
1861, 807.00
1862, 806.00
1863, 806.00
1864, 805.00
1865, 804.00
1866, 804.00
1867, 803.00
1868, 803.00
1869, 803.00
1870, 802.00
1871, 801.00
1872, 801.00
1873, 801.00
1874, 801.00
1875, 799.00
1876, 800.00
1877, 799.00
1878, 799.00
1879, 798.00
1880, 798.00
1881, 797.00
1882, 797.00
1883, 796.00
1884, 797.00
1885, 796.00
1886, 796.00
1887, 795.00
1888, 796.00
1889, 796.00
1890, 796.00
1891, 795.00
1892, 795.00
1893, 795.00
1894, 795.00
1895, 794.00
1896, 795.00
1897, 794.00
1898, 794.00
1899, 794.00
1900, 794.00
1901, 794.00
1902, 794.00
1903, 793.00
1904, 793.00
1905, 793.00
1906, 794.00
1907, 793.00
1908, 793.00
1909, 793.00
1910, 793.00
1911, 793.00
1912, 792.00
1913, 792.00
1914, 792.00
1915, 792.00
1916, 792.00
1917, 792.00
1918, 792.00
1919, 792.00
1920, 792.00
1921, 792.00
1922, 792.00
1923, 792.00
1924, 792.00
1925, 792.00
1926, 792.00
1927, 793.00
1928, 792.00
1929, 793.00
1930, 792.00
1931, 792.00
1932, 792.00
1933, 793.00
1934, 793.00
1935, 792.00
1936, 792.00
1937, 792.00
1938, 793.00
1939, 793.00
1940, 793.00
1941, 792.00
1942, 793.00
1943, 792.00
1944, 793.00
1945, 792.00
1946, 793.00
1947, 794.00
1948, 793.00
1949, 793.00
1950, 793.00
1951, 793.00
1952, 793.00
1953, 794.00
1954, 793.00
1955, 794.00
1956, 794.00
1957, 794.00
1958, 794.00
1959, 794.00
1960, 795.00
1961, 795.00
1962, 794.00
1963, 795.00
1964, 795.00
1965, 795.00
1966, 795.00
1967, 795.00
1968, 795.00
1969, 795.00
1970, 796.00
1971, 796.00
1972, 796.00
1973, 796.00
1974, 796.00
1975, 797.00
1976, 797.00
1977, 797.00
1978, 797.00
1979, 798.00
1980, 797.00
1981, 797.00
1982, 798.00
1983, 797.00
1984, 799.00
1985, 799.00
1986, 798.00
1987, 799.00
1988, 799.00
1989, 799.00
1990, 800.00
1991, 799.00
1992, 800.00
1993, 800.00
1994, 800.00
1995, 800.00
1996, 801.00
1997, 801.00
1998, 801.00
1999, 801.00
2000, 801.00
2001, 802.00
2002, 802.00
2003, 802.00
2004, 802.00
2005, 802.00
2006, 802.00
2007, 803.00
2008, 803.00
2009, 803.00
2010, 803.00
2011, 802.00
2012, 804.00
2013, 803.00
2014, 804.00
2015, 804.00
2016, 804.00
2017, 803.00
2018, 804.00
2019, 805.00
2020, 805.00
2021, 805.00
2022, 805.00
2023, 806.00
2024, 805.00
2025, 806.00
2026, 806.00
2027, 806.00
2028, 806.00
2029, 807.00
2030, 807.00
2031, 807.00
2032, 808.00
2033, 808.00
2034, 808.00
2035, 808.00
2036, 808.00
2037, 808.00
2038, 809.00
2039, 809.00
2040, 809.00
2041, 809.00
2042, 810.00
2043, 810.00
2044, 810.00
2045, 811.00
2046, 811.00
2047, 812.00
2048, 811.00
2049, 811.00
2050, 812.00
2051, 812.00
2052, 812.00
2053, 813.00
2054, 813.00
2055, 813.00
2056, 814.00
2057, 814.00
2058, 813.00
2059, 815.00
2060, 815.00
2061, 814.00
2062, 815.00
2063, 816.00
2064, 816.00
2065, 816.00
2066, 816.00
2067, 817.00
2068, 817.00
2069, 817.00
2070, 817.00
2071, 818.00
2072, 819.00
2073, 818.00
2074, 819.00
2075, 819.00
2076, 819.00
2077, 820.00
2078, 819.00
2079, 820.00
2080, 821.00
2081, 820.00
2082, 821.00
2083, 821.00
2084, 821.00
2085, 821.00
2086, 822.00
2087, 822.00
2088, 822.00
2089, 822.00
2090, 822.00
2091, 823.00
2092, 823.00
2093, 824.00
2094, 824.00
2095, 823.00
2096, 824.00
2097, 824.00
2098, 824.00
2099, 825.00
2100, 825.00
2101, 825.00
2102, 825.00
2103, 825.00
2104, 825.00
2105, 825.00
2106, 826.00
2107, 826.00
2108, 826.00
2109, 827.00
2110, 826.00
2111, 827.00
2112, 827.00
2113, 828.00
2114, 827.00
2115, 827.00
2116, 827.00
2117, 827.00
2118, 827.00
2119, 827.00
2120, 827.00
2121, 829.00
2122, 828.00
2123, 828.00
2124, 829.00
2125, 829.00
2126, 829.00
2127, 829.00
2128, 829.00
2129, 829.00
2130, 829.00
2131, 829.00
2132, 829.00
2133, 829.00
2134, 829.00
2135, 830.00
2136, 830.00
2137, 830.00
2138, 830.00
2139, 831.00
2140, 830.00
2141, 830.00
2142, 831.00
2143, 830.00
2144, 831.00
2145, 830.00
2146, 831.00
2147, 831.00
2148, 831.00
2149, 832.00
2150, 831.00
