FW version: 24
Log Version: 3.0.3

General Info:
       Command/Macro Performed,            Timestamp,             Device ID, COM Port, UART/I2C, Test Name, Host Major, Host Minor, Host Revision, Host Git Commit
            Single_measurement,  2023_07_18_10_57_35,       Insight2_F4_xxx,    USB-C,      USB,          ,          0,          1,             1,      4031237645

Show Spectrometer Status:
l0_version, f4_version, battery_perc, battery_mVolt, accelerometer_temp, accelerometer_x, accelerometer_y, accelerometer_z, compass_temp, compass_x, compass_y, compass_z, lamp_0, lamp_1, gain_0, gain_1
        17,         24,           72,          1986,               6128,           65328,            1072,           18812,            0,     65465,     65273,     18943,   3276,   3276,      1,      1

Temperature Statistic Info:
NTC AVG [°C], NTC2 AVG [°C]
      38.768,        38.479

Statistic Info:
M1:  num,      min,      max,   median,      AVG,      STD,M2:  num,      min,      max,   median,      AVG,      STD
     301,  1757.00,  2023.00,  1810.00,  1844.56,  82.4796,     401,  2285.00,  2443.00,  2349.00,  2353.25,  50.8179,

Measurements:
Wavelength, Data Amplitude
1350, 1810.00
1351, 1808.00
1352, 1808.00
1353, 1807.00
1354, 1805.00
1355, 1805.00
1356, 1805.00
1357, 1803.00
1358, 1801.00
1359, 1801.00
1360, 1799.00
1361, 1798.00
1362, 1797.00
1363, 1795.00
1364, 1793.00
1365, 1792.00
1366, 1790.00
1367, 1791.00
1368, 1789.00
1369, 1786.00
1370, 1786.00
1371, 1783.00
1372, 1783.00
1373, 1781.00
1374, 1779.00
1375, 1780.00
1376, 1777.00
1377, 1777.00
1378, 1774.00
1379, 1775.00
1380, 1773.00
1381, 1772.00
1382, 1771.00
1383, 1770.00
1384, 1769.00
1385, 1769.00
1386, 1768.00
1387, 1766.00
1388, 1766.00
1389, 1766.00
1390, 1765.00
1391, 1766.00
1392, 1764.00
1393, 1764.00
1394, 1763.00
1395, 1764.00
1396, 1764.00
1397, 1763.00
1398, 1763.00
1399, 1761.00
1400, 1761.00
1401, 1762.00
1402, 1761.00
1403, 1761.00
1404, 1762.00
1405, 1761.00
1406, 1759.00
1407, 1760.00
1408, 1760.00
1409, 1759.00
1410, 1759.00
1411, 1758.00
1412, 1759.00
1413, 1759.00
1414, 1757.00
1415, 1759.00
1416, 1758.00
1417, 1759.00
1418, 1759.00
1419, 1758.00
1420, 1759.00
1421, 1758.00
1422, 1758.00
1423, 1758.00
1424, 1758.00
1425, 1758.00
1426, 1758.00
1427, 1758.00
1428, 1758.00
1429, 1759.00
1430, 1761.00
1431, 1759.00
1432, 1761.00
1433, 1760.00
1434, 1760.00
1435, 1760.00
1436, 1761.00
1437, 1761.00
1438, 1760.00
1439, 1760.00
1440, 1762.00
1441, 1762.00
1442, 1763.00
1443, 1763.00
1444, 1763.00
1445, 1764.00
1446, 1765.00
1447, 1765.00
1448, 1765.00
1449, 1765.00
1450, 1767.00
1451, 1767.00
1452, 1768.00
1453, 1769.00
1454, 1769.00
1455, 1770.00
1456, 1770.00
1457, 1770.00
1458, 1772.00
1459, 1772.00
1460, 1772.00
1461, 1774.00
1462, 1774.00
1463, 1774.00
1464, 1775.00
1465, 1775.00
1466, 1777.00
1467, 1777.00
1468, 1778.00
1469, 1779.00
1470, 1780.00
1471, 1781.00
1472, 1783.00
1473, 1783.00
1474, 1784.00
1475, 1785.00
1476, 1786.00
1477, 1787.00
1478, 1787.00
1479, 1789.00
1480, 1788.00
1481, 1790.00
1482, 1791.00
1483, 1791.00
1484, 1794.00
1485, 1795.00
1486, 1795.00
1487, 1797.00
1488, 1797.00
1489, 1800.00
1490, 1799.00
1491, 1800.00
1492, 1802.00
1493, 1803.00
1494, 1803.00
1495, 1805.00
1496, 1806.00
1497, 1806.00
1498, 1808.00
1499, 1810.00
1500, 1810.00
1501, 1811.00
1502, 1812.00
1503, 1814.00
1504, 1815.00
1505, 1816.00
1506, 1816.00
1507, 1819.00
1508, 1819.00
1509, 1821.00
1510, 1821.00
1511, 1823.00
1512, 1825.00
1513, 1825.00
1514, 1826.00
1515, 1828.00
1516, 1829.00
1517, 1830.00
1518, 1832.00
1519, 1834.00
1520, 1835.00
1521, 1834.00
1522, 1837.00
1523, 1837.00
1524, 1839.00
1525, 1841.00
1526, 1843.00
1527, 1844.00
1528, 1845.00
1529, 1846.00
1530, 1848.00
1531, 1849.00
1532, 1851.00
1533, 1851.00
1534, 1853.00
1535, 1853.00
1536, 1856.00
1537, 1857.00
1538, 1857.00
1539, 1859.00
1540, 1861.00
1541, 1864.00
1542, 1864.00
1543, 1866.00
1544, 1868.00
1545, 1869.00
1546, 1869.00
1547, 1871.00
1548, 1872.00
1549, 1874.00
1550, 1875.00
1551, 1876.00
1552, 1877.00
1553, 1879.00
1554, 1880.00
1555, 1882.00
1556, 1883.00
1557, 1885.00
1558, 1887.00
1559, 1889.00
1560, 1890.00
1561, 1890.00
1562, 1893.00
1563, 1894.00
1564, 1895.00
1565, 1897.00
1566, 1899.00
1567, 1901.00
1568, 1901.00
1569, 1903.00
1570, 1906.00
1571, 1907.00
1572, 1908.00
1573, 1910.00
1574, 1911.00
1575, 1912.00
1576, 1913.00
1577, 1915.00
1578, 1917.00
1579, 1917.00
1580, 1919.00
1581, 1921.00
1582, 1922.00
1583, 1924.00
1584, 1924.00
1585, 1926.00
1586, 1927.00
1587, 1929.00
1588, 1930.00
1589, 1932.00
1590, 1932.00
1591, 1934.00
1592, 1935.00
1593, 1938.00
1594, 1938.00
1595, 1939.00
1596, 1940.00
1597, 1943.00
1598, 1943.00
1599, 1945.00
1600, 1947.00
1601, 1949.00
1602, 1948.00
1603, 1951.00
1604, 1952.00
1605, 1954.00
1606, 1955.00
1607, 1957.00
1608, 1958.00
1609, 1959.00
1610, 1961.00
1611, 1963.00
1612, 1965.00
1613, 1966.00
1614, 1967.00
1615, 1969.00
1616, 1971.00
1617, 1973.00
1618, 1974.00
1619, 1977.00
1620, 1978.00
1621, 1980.00
1622, 1982.00
1623, 1983.00
1624, 1985.00
1625, 1987.00
1626, 1989.00
1627, 1989.00
1628, 1990.00
1629, 1993.00
1630, 1995.00
1631, 1995.00
1632, 1997.00
1633, 1999.00
1634, 2000.00
1635, 2002.00
1636, 2003.00
1637, 2005.00
1638, 2006.00
1639, 2007.00
1640, 2009.00
1641, 2009.00
1642, 2012.00
1643, 2013.00
1644, 2014.00
1645, 2015.00
1646, 2016.00
1647, 2017.00
1648, 2020.00
1649, 2021.00
1650, 2023.00

1750, 2442.00
1751, 2443.00
1752, 2440.00
1753, 2442.00
1754, 2442.00
1755, 2441.00
1756, 2440.00
1757, 2441.00
1758, 2442.00
1759, 2440.00
1760, 2441.00
1761, 2442.00
1762, 2441.00
1763, 2441.00
1764, 2441.00
1765, 2440.00
1766, 2440.00
1767, 2440.00
1768, 2437.00
1769, 2439.00
1770, 2438.00
1771, 2439.00
1772, 2438.00
1773, 2438.00
1774, 2437.00
1775, 2436.00
1776, 2436.00
1777, 2434.00
1778, 2434.00
1779, 2434.00
1780, 2435.00
1781, 2434.00
1782, 2434.00
1783, 2435.00
1784, 2432.00
1785, 2432.00
1786, 2433.00
1787, 2429.00
1788, 2430.00
1789, 2429.00
1790, 2429.00
1791, 2428.00
1792, 2427.00
1793, 2426.00
1794, 2426.00
1795, 2426.00
1796, 2425.00
1797, 2425.00
1798, 2425.00
1799, 2423.00
1800, 2425.00
1801, 2424.00
1802, 2422.00
1803, 2422.00
1804, 2422.00
1805, 2421.00
1806, 2420.00
1807, 2421.00
1808, 2419.00
1809, 2420.00
1810, 2419.00
1811, 2415.00
1812, 2415.00
1813, 2416.00
1814, 2415.00
1815, 2415.00
1816, 2415.00
1817, 2414.00
1818, 2413.00
1819, 2411.00
1820, 2410.00
1821, 2411.00
1822, 2409.00
1823, 2407.00
1824, 2406.00
1825, 2405.00
1826, 2402.00
1827, 2401.00
1828, 2401.00
1829, 2399.00
1830, 2398.00
1831, 2395.00
1832, 2393.00
1833, 2393.00
1834, 2391.00
1835, 2389.00
1836, 2388.00
1837, 2386.00
1838, 2382.00
1839, 2381.00
1840, 2378.00
1841, 2376.00
1842, 2375.00
1843, 2372.00
1844, 2370.00
1845, 2368.00
1846, 2366.00
1847, 2362.00
1848, 2360.00
1849, 2357.00
1850, 2353.00
1851, 2353.00
1852, 2350.00
1853, 2349.00
1854, 2345.00
1855, 2343.00
1856, 2340.00
1857, 2339.00
1858, 2336.00
1859, 2336.00
1860, 2333.00
1861, 2329.00
1862, 2327.00
1863, 2325.00
1864, 2324.00
1865, 2324.00
1866, 2323.00
1867, 2318.00
1868, 2317.00
1869, 2315.00
1870, 2316.00
1871, 2313.00
1872, 2311.00
1873, 2308.00
1874, 2310.00
1875, 2309.00
1876, 2306.00
1877, 2305.00
1878, 2305.00
1879, 2304.00
1880, 2304.00
1881, 2303.00
1882, 2301.00
1883, 2300.00
1884, 2301.00
1885, 2300.00
1886, 2298.00
1887, 2298.00
1888, 2298.00
1889, 2297.00
1890, 2297.00
1891, 2297.00
1892, 2296.00
1893, 2297.00
1894, 2295.00
1895, 2293.00
1896, 2295.00
1897, 2293.00
1898, 2293.00
1899, 2294.00
1900, 2292.00
1901, 2293.00
1902, 2292.00
1903, 2291.00
1904, 2293.00
1905, 2291.00
1906, 2291.00
1907, 2291.00
1908, 2288.00
1909, 2289.00
1910, 2290.00
1911, 2290.00
1912, 2288.00
1913, 2290.00
1914, 2289.00
1915, 2288.00
1916, 2288.00
1917, 2289.00
1918, 2289.00
1919, 2287.00
1920, 2289.00
1921, 2288.00
1922, 2289.00
1923, 2287.00
1924, 2287.00
1925, 2285.00
1926, 2287.00
1927, 2289.00
1928, 2288.00
1929, 2287.00
1930, 2287.00
1931, 2288.00
1932, 2288.00
1933, 2287.00
1934, 2288.00
1935, 2288.00
1936, 2289.00
1937, 2286.00
1938, 2289.00
1939, 2290.00
1940, 2288.00
1941, 2289.00
1942, 2290.00
1943, 2289.00
1944, 2290.00
1945, 2289.00
1946, 2291.00
1947, 2290.00
1948, 2291.00
1949, 2290.00
1950, 2291.00
1951, 2290.00
1952, 2293.00
1953, 2293.00
1954, 2290.00
1955, 2293.00
1956, 2293.00
1957, 2292.00
1958, 2293.00
1959, 2294.00
1960, 2294.00
1961, 2295.00
1962, 2295.00
1963, 2295.00
1964, 2296.00
1965, 2295.00
1966, 2297.00
1967, 2296.00
1968, 2297.00
1969, 2299.00
1970, 2298.00
1971, 2301.00
1972, 2300.00
1973, 2301.00
1974, 2301.00
1975, 2303.00
1976, 2301.00
1977, 2301.00
1978, 2303.00
1979, 2302.00
1980, 2305.00
1981, 2303.00
1982, 2305.00
1983, 2305.00
1984, 2307.00
1985, 2305.00
1986, 2308.00
1987, 2306.00
1988, 2307.00
1989, 2308.00
1990, 2310.00
1991, 2308.00
1992, 2309.00
1993, 2313.00
1994, 2311.00
1995, 2312.00
1996, 2312.00
1997, 2311.00
1998, 2313.00
1999, 2313.00
2000, 2315.00
2001, 2314.00
2002, 2313.00
2003, 2314.00
2004, 2318.00
2005, 2317.00
2006, 2318.00
2007, 2319.00
2008, 2317.00
2009, 2319.00
2010, 2318.00
2011, 2321.00
2012, 2321.00
2013, 2320.00
2014, 2321.00
2015, 2321.00
2016, 2323.00
2017, 2322.00
2018, 2323.00
2019, 2323.00
2020, 2325.00
2021, 2327.00
2022, 2324.00
2023, 2327.00
2024, 2327.00
2025, 2327.00
2026, 2329.00
2027, 2327.00
2028, 2330.00
2029, 2330.00
2030, 2332.00
2031, 2330.00
2032, 2333.00
2033, 2331.00
2034, 2332.00
2035, 2333.00
2036, 2335.00
2037, 2336.00
2038, 2335.00
2039, 2336.00
2040, 2336.00
2041, 2337.00
2042, 2339.00
2043, 2340.00
2044, 2340.00
2045, 2340.00
2046, 2341.00
2047, 2343.00
2048, 2344.00
2049, 2346.00
2050, 2345.00
2051, 2347.00
2052, 2347.00
2053, 2348.00
2054, 2349.00
2055, 2350.00
2056, 2349.00
2057, 2351.00
2058, 2351.00
2059, 2352.00
2060, 2352.00
2061, 2354.00
2062, 2355.00
2063, 2355.00
2064, 2358.00
2065, 2359.00
2066, 2359.00
2067, 2360.00
2068, 2361.00
2069, 2360.00
2070, 2362.00
2071, 2363.00
2072, 2362.00
2073, 2364.00
2074, 2365.00
2075, 2365.00
2076, 2368.00
2077, 2367.00
2078, 2367.00
2079, 2368.00
2080, 2371.00
2081, 2370.00
2082, 2372.00
2083, 2373.00
2084, 2373.00
2085, 2373.00
2086, 2374.00
2087, 2375.00
2088, 2375.00
2089, 2376.00
2090, 2379.00
2091, 2378.00
2092, 2377.00
2093, 2379.00
2094, 2379.00
2095, 2379.00
2096, 2378.00
2097, 2381.00
2098, 2380.00
2099, 2383.00
2100, 2383.00
2101, 2384.00
2102, 2383.00
2103, 2384.00
2104, 2383.00
2105, 2385.00
2106, 2385.00
2107, 2386.00
2108, 2386.00
2109, 2387.00
2110, 2388.00
2111, 2387.00
2112, 2388.00
2113, 2388.00
2114, 2390.00
2115, 2390.00
2116, 2390.00
2117, 2390.00
2118, 2392.00
2119, 2391.00
2120, 2390.00
2121, 2391.00
2122, 2393.00
2123, 2394.00
2124, 2393.00
2125, 2395.00
2126, 2394.00
2127, 2395.00
2128, 2396.00
2129, 2394.00
2130, 2395.00
2131, 2393.00
2132, 2396.00
2133, 2396.00
2134, 2395.00
2135, 2395.00
2136, 2397.00
2137, 2397.00
2138, 2398.00
2139, 2398.00
2140, 2398.00
2141, 2401.00
2142, 2400.00
2143, 2400.00
2144, 2398.00
2145, 2400.00
2146, 2399.00
2147, 2401.00
2148, 2400.00
2149, 2403.00
2150, 2401.00
