FW version: 24
Log Version: 3.0.3

General Info:
       Command/Macro Performed,            Timestamp,             Device ID, COM Port, UART/I2C, Test Name, Host Major, Host Minor, Host Revision, Host Git Commit
            Single_measurement,  2023_07_18_10_56_29,       Insight2_F4_xxx,    USB-C,      USB,          ,          0,          1,             1,      4031237645

Show Spectrometer Status:
l0_version, f4_version, battery_perc, battery_mVolt, accelerometer_temp, accelerometer_x, accelerometer_y, accelerometer_z, compass_temp, compass_x, compass_y, compass_z, lamp_0, lamp_1, gain_0, gain_1
        17,         24,           72,          1986,               6112,           65272,            1088,           18784,            0,     65528,     65244,     18920,   2047,   2047,      1,      1

Temperature Statistic Info:
NTC AVG [°C], NTC2 AVG [°C]
      38.362,        38.040

Statistic Info:
M1:  num,      min,      max,   median,      AVG,      STD,M2:  num,      min,      max,   median,      AVG,      STD
     301,   701.00,   817.00,   726.00,   740.19,  36.7976,     401,  1035.00,  1108.00,  1067.00,  1068.44,  23.5280,

Measurements:
Wavelength, Data Amplitude
1350, 721.00
1351, 720.00
1352, 719.00
1353, 719.00
1354, 718.00
1355, 718.00
1356, 717.00
1357, 716.00
1358, 718.00
1359, 717.00
1360, 717.00
1361, 715.00
1362, 716.00
1363, 715.00
1364, 714.00
1365, 714.00
1366, 713.00
1367, 713.00
1368, 711.00
1369, 711.00
1370, 711.00
1371, 711.00
1372, 709.00
1373, 709.00
1374, 709.00
1375, 709.00
1376, 708.00
1377, 707.00
1378, 707.00
1379, 707.00
1380, 706.00
1381, 706.00
1382, 706.00
1383, 706.00
1384, 705.00
1385, 705.00
1386, 705.00
1387, 706.00
1388, 704.00
1389, 704.00
1390, 704.00
1391, 704.00
1392, 703.00
1393, 703.00
1394, 702.00
1395, 702.00
1396, 702.00
1397, 702.00
1398, 702.00
1399, 703.00
1400, 702.00
1401, 702.00
1402, 702.00
1403, 703.00
1404, 703.00
1405, 702.00
1406, 702.00
1407, 701.00
1408, 701.00
1409, 701.00
1410, 702.00
1411, 701.00
1412, 702.00
1413, 702.00
1414, 702.00
1415, 701.00
1416, 701.00
1417, 702.00
1418, 702.00
1419, 702.00
1420, 701.00
1421, 701.00
1422, 701.00
1423, 701.00
1424, 702.00
1425, 702.00
1426, 702.00
1427, 702.00
1428, 702.00
1429, 703.00
1430, 702.00
1431, 702.00
1432, 702.00
1433, 702.00
1434, 703.00
1435, 703.00
1436, 703.00
1437, 703.00
1438, 703.00
1439, 704.00
1440, 703.00
1441, 703.00
1442, 705.00
1443, 704.00
1444, 705.00
1445, 705.00
1446, 706.00
1447, 705.00
1448, 705.00
1449, 706.00
1450, 706.00
1451, 706.00
1452, 706.00
1453, 707.00
1454, 707.00
1455, 707.00
1456, 708.00
1457, 708.00
1458, 708.00
1459, 708.00
1460, 709.00
1461, 709.00
1462, 709.00
1463, 709.00
1464, 710.00
1465, 710.00
1466, 711.00
1467, 710.00
1468, 712.00
1469, 712.00
1470, 713.00
1471, 712.00
1472, 713.00
1473, 713.00
1474, 714.00
1475, 714.00
1476, 714.00
1477, 715.00
1478, 716.00
1479, 716.00
1480, 716.00
1481, 717.00
1482, 717.00
1483, 718.00
1484, 719.00
1485, 719.00
1486, 719.00
1487, 721.00
1488, 720.00
1489, 720.00
1490, 722.00
1491, 722.00
1492, 722.00
1493, 723.00
1494, 724.00
1495, 723.00
1496, 724.00
1497, 726.00
1498, 726.00
1499, 726.00
1500, 727.00
1501, 726.00
1502, 727.00
1503, 728.00
1504, 729.00
1505, 729.00
1506, 730.00
1507, 730.00
1508, 731.00
1509, 731.00
1510, 731.00
1511, 732.00
1512, 732.00
1513, 733.00
1514, 734.00
1515, 735.00
1516, 734.00
1517, 735.00
1518, 737.00
1519, 737.00
1520, 737.00
1521, 738.00
1522, 739.00
1523, 739.00
1524, 740.00
1525, 741.00
1526, 742.00
1527, 742.00
1528, 743.00
1529, 743.00
1530, 744.00
1531, 744.00
1532, 745.00
1533, 746.00
1534, 746.00
1535, 745.00
1536, 748.00
1537, 748.00
1538, 749.00
1539, 749.00
1540, 750.00
1541, 751.00
1542, 751.00
1543, 752.00
1544, 752.00
1545, 753.00
1546, 753.00
1547, 754.00
1548, 754.00
1549, 755.00
1550, 756.00
1551, 757.00
1552, 757.00
1553, 758.00
1554, 757.00
1555, 758.00
1556, 759.00
1557, 760.00
1558, 760.00
1559, 760.00
1560, 762.00
1561, 762.00
1562, 763.00
1563, 763.00
1564, 764.00
1565, 766.00
1566, 765.00
1567, 766.00
1568, 765.00
1569, 767.00
1570, 768.00
1571, 768.00
1572, 769.00
1573, 770.00
1574, 771.00
1575, 771.00
1576, 772.00
1577, 772.00
1578, 773.00
1579, 773.00
1580, 773.00
1581, 775.00
1582, 776.00
1583, 776.00
1584, 776.00
1585, 777.00
1586, 776.00
1587, 778.00
1588, 778.00
1589, 779.00
1590, 779.00
1591, 780.00
1592, 780.00
1593, 781.00
1594, 782.00
1595, 783.00
1596, 783.00
1597, 784.00
1598, 784.00
1599, 785.00
1600, 786.00
1601, 786.00
1602, 787.00
1603, 787.00
1604, 787.00
1605, 789.00
1606, 789.00
1607, 790.00
1608, 791.00
1609, 792.00
1610, 792.00
1611, 793.00
1612, 793.00
1613, 794.00
1614, 795.00
1615, 796.00
1616, 797.00
1617, 797.00
1618, 797.00
1619, 798.00
1620, 800.00
1621, 800.00
1622, 801.00
1623, 802.00
1624, 802.00
1625, 803.00
1626, 803.00
1627, 804.00
1628, 805.00
1629, 805.00
1630, 806.00
1631, 807.00
1632, 807.00
1633, 808.00
1634, 808.00
1635, 810.00
1636, 810.00
1637, 810.00
1638, 811.00
1639, 811.00
1640, 811.00
1641, 813.00
1642, 812.00
1643, 814.00
1644, 814.00
1645, 815.00
1646, 815.00
1647, 815.00
1648, 816.00
1649, 816.00
1650, 817.00

1750, 1106.00
1751, 1108.00
1752, 1106.00
1753, 1107.00
1754, 1105.00
1755, 1106.00
1756, 1106.00
1757, 1107.00
1758, 1106.00
1759, 1105.00
1760, 1105.00
1761, 1108.00
1762, 1106.00
1763, 1107.00
1764, 1107.00
1765, 1105.00
1766, 1107.00
1767, 1106.00
1768, 1108.00
1769, 1106.00
1770, 1105.00
1771, 1106.00
1772, 1106.00
1773, 1105.00
1774, 1103.00
1775, 1105.00
1776, 1104.00
1777, 1106.00
1778, 1105.00
1779, 1105.00
1780, 1105.00
1781, 1104.00
1782, 1103.00
1783, 1103.00
1784, 1103.00
1785, 1103.00
1786, 1102.00
1787, 1102.00
1788, 1102.00
1789, 1102.00
1790, 1100.00
1791, 1101.00
1792, 1101.00
1793, 1102.00
1794, 1101.00
1795, 1101.00
1796, 1099.00
1797, 1099.00
1798, 1098.00
1799, 1100.00
1800, 1099.00
1801, 1098.00
1802, 1097.00
1803, 1099.00
1804, 1100.00
1805, 1099.00
1806, 1097.00
1807, 1098.00
1808, 1097.00
1809, 1096.00
1810, 1097.00
1811, 1097.00
1812, 1095.00
1813, 1095.00
1814, 1096.00
1815, 1096.00
1816, 1095.00
1817, 1094.00
1818, 1094.00
1819, 1095.00
1820, 1092.00
1821, 1094.00
1822, 1092.00
1823, 1092.00
1824, 1092.00
1825, 1090.00
1826, 1089.00
1827, 1090.00
1828, 1089.00
1829, 1089.00
1830, 1089.00
1831, 1087.00
1832, 1087.00
1833, 1085.00
1834, 1085.00
1835, 1085.00
1836, 1084.00
1837, 1082.00
1838, 1081.00
1839, 1080.00
1840, 1081.00
1841, 1078.00
1842, 1076.00
1843, 1076.00
1844, 1075.00
1845, 1075.00
1846, 1073.00
1847, 1069.00
1848, 1071.00
1849, 1071.00
1850, 1068.00
1851, 1068.00
1852, 1068.00
1853, 1067.00
1854, 1065.00
1855, 1062.00
1856, 1061.00
1857, 1063.00
1858, 1058.00
1859, 1060.00
1860, 1057.00
1861, 1057.00
1862, 1057.00
1863, 1055.00
1864, 1054.00
1865, 1054.00
1866, 1052.00
1867, 1052.00
1868, 1050.00
1869, 1050.00
1870, 1049.00
1871, 1050.00
1872, 1048.00
1873, 1049.00
1874, 1048.00
1875, 1047.00
1876, 1045.00
1877, 1046.00
1878, 1046.00
1879, 1046.00
1880, 1044.00
1881, 1043.00
1882, 1044.00
1883, 1043.00
1884, 1044.00
1885, 1042.00
1886, 1044.00
1887, 1043.00
1888, 1043.00
1889, 1043.00
1890, 1041.00
1891, 1041.00
1892, 1042.00
1893, 1041.00
1894, 1041.00
1895, 1040.00
1896, 1040.00
1897, 1041.00
1898, 1040.00
1899, 1041.00
1900, 1039.00
1901, 1040.00
1902, 1040.00
1903, 1039.00
1904, 1040.00
1905, 1039.00
1906, 1039.00
1907, 1040.00
1908, 1039.00
1909, 1037.00
1910, 1038.00
1911, 1038.00
1912, 1037.00
1913, 1038.00
1914, 1038.00
1915, 1037.00
1916, 1038.00
1917, 1039.00
1918, 1038.00
1919, 1037.00
1920, 1037.00
1921, 1038.00
1922, 1039.00
1923, 1037.00
1924, 1039.00
1925, 1036.00
1926, 1037.00
1927, 1035.00
1928, 1038.00
1929, 1038.00
1930, 1038.00
1931, 1038.00
1932, 1038.00
1933, 1038.00
1934, 1039.00
1935, 1036.00
1936, 1039.00
1937, 1038.00
1938, 1037.00
1939, 1035.00
1940, 1038.00
1941, 1039.00
1942, 1039.00
1943, 1038.00
1944, 1038.00
1945, 1038.00
1946, 1039.00
1947, 1041.00
1948, 1040.00
1949, 1038.00
1950, 1038.00
1951, 1039.00
1952, 1038.00
1953, 1039.00
1954, 1039.00
1955, 1039.00
1956, 1040.00
1957, 1042.00
1958, 1040.00
1959, 1039.00
1960, 1041.00
1961, 1040.00
1962, 1041.00
1963, 1041.00
1964, 1041.00
1965, 1042.00
1966, 1040.00
1967, 1043.00
1968, 1042.00
1969, 1043.00
1970, 1042.00
1971, 1043.00
1972, 1041.00
1973, 1043.00
1974, 1043.00
1975, 1044.00
1976, 1044.00
1977, 1045.00
1978, 1044.00
1979, 1045.00
1980, 1044.00
1981, 1045.00
1982, 1046.00
1983, 1046.00
1984, 1046.00
1985, 1047.00
1986, 1046.00
1987, 1047.00
1988, 1047.00
1989, 1047.00
1990, 1047.00
1991, 1048.00
1992, 1049.00
1993, 1049.00
1994, 1049.00
1995, 1050.00
1996, 1050.00
1997, 1050.00
1998, 1049.00
1999, 1050.00
2000, 1050.00
2001, 1051.00
2002, 1051.00
2003, 1052.00
2004, 1053.00
2005, 1051.00
2006, 1052.00
2007, 1052.00
2008, 1051.00
2009, 1053.00
2010, 1053.00
2011, 1055.00
2012, 1052.00
2013, 1053.00
2014, 1054.00
2015, 1052.00
2016, 1055.00
2017, 1056.00
2018, 1055.00
2019, 1058.00
2020, 1055.00
2021, 1056.00
2022, 1056.00
2023, 1056.00
2024, 1056.00
2025, 1056.00
2026, 1057.00
2027, 1057.00
2028, 1058.00
2029, 1058.00
2030, 1059.00
2031, 1057.00
2032, 1059.00
2033, 1058.00
2034, 1059.00
2035, 1061.00
2036, 1060.00
2037, 1060.00
2038, 1061.00
2039, 1063.00
2040, 1062.00
2041, 1063.00
2042, 1060.00
2043, 1061.00
2044, 1062.00
2045, 1066.00
2046, 1063.00
2047, 1065.00
2048, 1064.00
2049, 1064.00
2050, 1066.00
2051, 1065.00
2052, 1067.00
2053, 1067.00
2054, 1066.00
2055, 1069.00
2056, 1069.00
2057, 1068.00
2058, 1068.00
2059, 1070.00
2060, 1071.00
2061, 1069.00
2062, 1071.00
2063, 1071.00
2064, 1072.00
2065, 1073.00
2066, 1071.00
2067, 1073.00
2068, 1073.00
2069, 1074.00
2070, 1074.00
2071, 1075.00
2072, 1075.00
2073, 1075.00
2074, 1075.00
2075, 1076.00
2076, 1077.00
2077, 1077.00
2078, 1077.00
2079, 1077.00
2080, 1079.00
2081, 1079.00
2082, 1078.00
2083, 1080.00
2084, 1079.00
2085, 1080.00
2086, 1080.00
2087, 1082.00
2088, 1081.00
2089, 1081.00
2090, 1082.00
2091, 1081.00
2092, 1082.00
2093, 1082.00
2094, 1084.00
2095, 1081.00
2096, 1083.00
2097, 1084.00
2098, 1085.00
2099, 1086.00
2100, 1085.00
2101, 1085.00
2102, 1084.00
2103, 1086.00
2104, 1085.00
2105, 1085.00
2106, 1087.00
2107, 1088.00
2108, 1087.00
2109, 1084.00
2110, 1088.00
2111, 1087.00
2112, 1088.00
2113, 1086.00
2114, 1088.00
2115, 1088.00
2116, 1088.00
2117, 1089.00
2118, 1089.00
2119, 1090.00
2120, 1090.00
2121, 1089.00
2122, 1090.00
2123, 1088.00
2124, 1089.00
2125, 1089.00
2126, 1089.00
2127, 1091.00
2128, 1090.00
2129, 1091.00
2130, 1090.00
2131, 1091.00
2132, 1090.00
2133, 1092.00
2134, 1092.00
2135, 1091.00
2136, 1093.00
2137, 1092.00
2138, 1091.00
2139, 1089.00
2140, 1094.00
2141, 1092.00
2142, 1094.00
2143, 1094.00
2144, 1092.00
2145, 1094.00
2146, 1096.00
2147, 1096.00
2148, 1094.00
2149, 1094.00
2150, 1095.00
