FW version: 24
Log Version: 3.0.3

General Info:
       Command/Macro Performed,            Timestamp,             Device ID, COM Port, UART/I2C, Test Name, Host Major, Host Minor, Host Revision, Host Git Commit
            Single_measurement,  2023_06_29_11_19_28,       Insight2_F4_xxx,    USB-C,      USB,          ,          0,          1,             1,      4031237645

Show Spectrometer Status:
l0_version, f4_version, battery_perc, battery_mVolt, accelerometer_temp, accelerometer_x, accelerometer_y, accelerometer_z, compass_temp, compass_x, compass_y, compass_z, lamp_0, lamp_1, gain_0, gain_1
        17,         24,           94,          2075,               5472,           65424,           65468,           18484,            0,     65497,     65532,     65460,   2457,   2457,      1,      1

Temperature Statistic Info:
NTC AVG [°C], NTC2 AVG [°C]
      36.465,        36.149

Statistic Info:
M1:  num,      min,      max,   median,      AVG,      STD,M2:  num,      min,      max,   median,      AVG,      STD
     301,  1153.00,  1345.00,  1192.00,  1216.03,  59.1347,     401,  1623.00,  1737.00,  1670.00,  1673.19,  37.3780,

Measurements:
Wavelength, Data Amplitude
1350, 1187.00
1351, 1188.00
1352, 1186.00
1353, 1186.00
1354, 1185.00
1355, 1183.00
1356, 1184.00
1357, 1183.00
1358, 1183.00
1359, 1182.00
1360, 1181.00
1361, 1180.00
1362, 1180.00
1363, 1179.00
1364, 1178.00
1365, 1177.00
1366, 1176.00
1367, 1175.00
1368, 1174.00
1369, 1173.00
1370, 1173.00
1371, 1171.00
1372, 1170.00
1373, 1170.00
1374, 1169.00
1375, 1168.00
1376, 1167.00
1377, 1167.00
1378, 1166.00
1379, 1165.00
1380, 1165.00
1381, 1163.00
1382, 1164.00
1383, 1162.00
1384, 1162.00
1385, 1161.00
1386, 1160.00
1387, 1160.00
1388, 1160.00
1389, 1158.00
1390, 1158.00
1391, 1158.00
1392, 1158.00
1393, 1158.00
1394, 1157.00
1395, 1157.00
1396, 1157.00
1397, 1157.00
1398, 1157.00
1399, 1157.00
1400, 1157.00
1401, 1156.00
1402, 1156.00
1403, 1155.00
1404, 1155.00
1405, 1155.00
1406, 1155.00
1407, 1156.00
1408, 1155.00
1409, 1155.00
1410, 1155.00
1411, 1154.00
1412, 1156.00
1413, 1154.00
1414, 1153.00
1415, 1154.00
1416, 1154.00
1417, 1154.00
1418, 1155.00
1419, 1155.00
1420, 1154.00
1421, 1155.00
1422, 1155.00
1423, 1155.00
1424, 1155.00
1425, 1155.00
1426, 1155.00
1427, 1155.00
1428, 1155.00
1429, 1155.00
1430, 1155.00
1431, 1156.00
1432, 1155.00
1433, 1155.00
1434, 1155.00
1435, 1156.00
1436, 1157.00
1437, 1157.00
1438, 1156.00
1439, 1157.00
1440, 1157.00
1441, 1158.00
1442, 1157.00
1443, 1158.00
1444, 1160.00
1445, 1159.00
1446, 1159.00
1447, 1159.00
1448, 1160.00
1449, 1160.00
1450, 1161.00
1451, 1159.00
1452, 1161.00
1453, 1161.00
1454, 1162.00
1455, 1162.00
1456, 1162.00
1457, 1163.00
1458, 1164.00
1459, 1164.00
1460, 1165.00
1461, 1166.00
1462, 1166.00
1463, 1167.00
1464, 1167.00
1465, 1167.00
1466, 1168.00
1467, 1169.00
1468, 1170.00
1469, 1169.00
1470, 1171.00
1471, 1171.00
1472, 1171.00
1473, 1173.00
1474, 1173.00
1475, 1174.00
1476, 1174.00
1477, 1175.00
1478, 1176.00
1479, 1176.00
1480, 1177.00
1481, 1177.00
1482, 1179.00
1483, 1179.00
1484, 1181.00
1485, 1181.00
1486, 1181.00
1487, 1182.00
1488, 1183.00
1489, 1184.00
1490, 1185.00
1491, 1186.00
1492, 1186.00
1493, 1187.00
1494, 1188.00
1495, 1189.00
1496, 1190.00
1497, 1190.00
1498, 1191.00
1499, 1192.00
1500, 1192.00
1501, 1193.00
1502, 1194.00
1503, 1196.00
1504, 1195.00
1505, 1197.00
1506, 1198.00
1507, 1198.00
1508, 1199.00
1509, 1200.00
1510, 1201.00
1511, 1202.00
1512, 1202.00
1513, 1203.00
1514, 1204.00
1515, 1205.00
1516, 1206.00
1517, 1206.00
1518, 1207.00
1519, 1209.00
1520, 1209.00
1521, 1210.00
1522, 1212.00
1523, 1213.00
1524, 1214.00
1525, 1213.00
1526, 1214.00
1527, 1216.00
1528, 1217.00
1529, 1218.00
1530, 1218.00
1531, 1220.00
1532, 1221.00
1533, 1222.00
1534, 1223.00
1535, 1223.00
1536, 1225.00
1537, 1226.00
1538, 1227.00
1539, 1227.00
1540, 1228.00
1541, 1229.00
1542, 1231.00
1543, 1231.00
1544, 1232.00
1545, 1233.00
1546, 1234.00
1547, 1234.00
1548, 1237.00
1549, 1237.00
1550, 1238.00
1551, 1240.00
1552, 1240.00
1553, 1241.00
1554, 1243.00
1555, 1243.00
1556, 1244.00
1557, 1245.00
1558, 1247.00
1559, 1247.00
1560, 1248.00
1561, 1249.00
1562, 1249.00
1563, 1251.00
1564, 1251.00
1565, 1254.00
1566, 1254.00
1567, 1255.00
1568, 1256.00
1569, 1258.00
1570, 1259.00
1571, 1260.00
1572, 1262.00
1573, 1262.00
1574, 1263.00
1575, 1264.00
1576, 1264.00
1577, 1265.00
1578, 1268.00
1579, 1268.00
1580, 1269.00
1581, 1271.00
1582, 1271.00
1583, 1271.00
1584, 1273.00
1585, 1275.00
1586, 1275.00
1587, 1275.00
1588, 1277.00
1589, 1278.00
1590, 1279.00
1591, 1280.00
1592, 1280.00
1593, 1282.00
1594, 1282.00
1595, 1284.00
1596, 1283.00
1597, 1286.00
1598, 1287.00
1599, 1288.00
1600, 1288.00
1601, 1290.00
1602, 1290.00
1603, 1291.00
1604, 1292.00
1605, 1294.00
1606, 1294.00
1607, 1296.00
1608, 1297.00
1609, 1298.00
1610, 1299.00
1611, 1300.00
1612, 1302.00
1613, 1303.00
1614, 1305.00
1615, 1306.00
1616, 1307.00
1617, 1308.00
1618, 1309.00
1619, 1311.00
1620, 1312.00
1621, 1313.00
1622, 1315.00
1623, 1316.00
1624, 1316.00
1625, 1318.00
1626, 1319.00
1627, 1320.00
1628, 1321.00
1629, 1322.00
1630, 1324.00
1631, 1325.00
1632, 1326.00
1633, 1327.00
1634, 1328.00
1635, 1329.00
1636, 1329.00
1637, 1331.00
1638, 1332.00
1639, 1334.00
1640, 1335.00
1641, 1335.00
1642, 1335.00
1643, 1337.00
1644, 1337.00
1645, 1340.00
1646, 1340.00
1647, 1341.00
1648, 1342.00
1649, 1343.00
1650, 1345.00

1750, 1735.00
1751, 1736.00
1752, 1736.00
1753, 1735.00
1754, 1737.00
1755, 1737.00
1756, 1736.00
1757, 1736.00
1758, 1735.00
1759, 1735.00
1760, 1736.00
1761, 1735.00
1762, 1734.00
1763, 1736.00
1764, 1735.00
1765, 1735.00
1766, 1736.00
1767, 1734.00
1768, 1735.00
1769, 1736.00
1770, 1735.00
1771, 1734.00
1772, 1735.00
1773, 1734.00
1774, 1735.00
1775, 1734.00
1776, 1734.00
1777, 1732.00
1778, 1730.00
1779, 1732.00
1780, 1732.00
1781, 1732.00
1782, 1731.00
1783, 1730.00
1784, 1730.00
1785, 1729.00
1786, 1728.00
1787, 1730.00
1788, 1729.00
1789, 1729.00
1790, 1729.00
1791, 1728.00
1792, 1727.00
1793, 1728.00
1794, 1726.00
1795, 1727.00
1796, 1726.00
1797, 1726.00
1798, 1726.00
1799, 1724.00
1800, 1722.00
1801, 1722.00
1802, 1725.00
1803, 1723.00
1804, 1723.00
1805, 1722.00
1806, 1723.00
1807, 1722.00
1808, 1720.00
1809, 1721.00
1810, 1720.00
1811, 1721.00
1812, 1721.00
1813, 1718.00
1814, 1721.00
1815, 1718.00
1816, 1716.00
1817, 1717.00
1818, 1717.00
1819, 1716.00
1820, 1716.00
1821, 1716.00
1822, 1715.00
1823, 1713.00
1824, 1714.00
1825, 1713.00
1826, 1709.00
1827, 1708.00
1828, 1710.00
1829, 1707.00
1830, 1707.00
1831, 1704.00
1832, 1705.00
1833, 1702.00
1834, 1702.00
1835, 1701.00
1836, 1698.00
1837, 1697.00
1838, 1695.00
1839, 1695.00
1840, 1692.00
1841, 1692.00
1842, 1689.00
1843, 1688.00
1844, 1685.00
1845, 1684.00
1846, 1683.00
1847, 1683.00
1848, 1681.00
1849, 1677.00
1850, 1675.00
1851, 1673.00
1852, 1671.00
1853, 1670.00
1854, 1669.00
1855, 1668.00
1856, 1667.00
1857, 1663.00
1858, 1663.00
1859, 1661.00
1860, 1658.00
1861, 1656.00
1862, 1655.00
1863, 1654.00
1864, 1654.00
1865, 1651.00
1866, 1650.00
1867, 1649.00
1868, 1647.00
1869, 1648.00
1870, 1645.00
1871, 1644.00
1872, 1643.00
1873, 1643.00
1874, 1644.00
1875, 1640.00
1876, 1639.00
1877, 1639.00
1878, 1639.00
1879, 1637.00
1880, 1636.00
1881, 1638.00
1882, 1634.00
1883, 1634.00
1884, 1635.00
1885, 1636.00
1886, 1633.00
1887, 1634.00
1888, 1632.00
1889, 1633.00
1890, 1632.00
1891, 1630.00
1892, 1631.00
1893, 1629.00
1894, 1629.00
1895, 1629.00
1896, 1629.00
1897, 1629.00
1898, 1629.00
1899, 1629.00
1900, 1627.00
1901, 1629.00
1902, 1626.00
1903, 1628.00
1904, 1627.00
1905, 1626.00
1906, 1625.00
1907, 1628.00
1908, 1629.00
1909, 1626.00
1910, 1627.00
1911, 1624.00
1912, 1626.00
1913, 1627.00
1914, 1625.00
1915, 1625.00
1916, 1625.00
1917, 1625.00
1918, 1626.00
1919, 1624.00
1920, 1623.00
1921, 1625.00
1922, 1625.00
1923, 1625.00
1924, 1624.00
1925, 1625.00
1926, 1625.00
1927, 1624.00
1928, 1624.00
1929, 1623.00
1930, 1626.00
1931, 1625.00
1932, 1625.00
1933, 1625.00
1934, 1625.00
1935, 1626.00
1936, 1625.00
1937, 1625.00
1938, 1626.00
1939, 1626.00
1940, 1625.00
1941, 1627.00
1942, 1625.00
1943, 1625.00
1944, 1625.00
1945, 1625.00
1946, 1625.00
1947, 1626.00
1948, 1627.00
1949, 1627.00
1950, 1625.00
1951, 1628.00
1952, 1626.00
1953, 1628.00
1954, 1628.00
1955, 1629.00
1956, 1628.00
1957, 1628.00
1958, 1629.00
1959, 1629.00
1960, 1628.00
1961, 1628.00
1962, 1632.00
1963, 1631.00
1964, 1631.00
1965, 1631.00
1966, 1632.00
1967, 1631.00
1968, 1633.00
1969, 1632.00
1970, 1632.00
1971, 1633.00
1972, 1634.00
1973, 1633.00
1974, 1635.00
1975, 1636.00
1976, 1634.00
1977, 1634.00
1978, 1633.00
1979, 1636.00
1980, 1636.00
1981, 1637.00
1982, 1637.00
1983, 1638.00
1984, 1638.00
1985, 1639.00
1986, 1638.00
1987, 1639.00
1988, 1639.00
1989, 1639.00
1990, 1640.00
1991, 1641.00
1992, 1641.00
1993, 1641.00
1994, 1641.00
1995, 1641.00
1996, 1643.00
1997, 1642.00
1998, 1642.00
1999, 1643.00
2000, 1645.00
2001, 1644.00
2002, 1645.00
2003, 1643.00
2004, 1645.00
2005, 1646.00
2006, 1646.00
2007, 1647.00
2008, 1647.00
2009, 1647.00
2010, 1648.00
2011, 1648.00
2012, 1649.00
2013, 1650.00
2014, 1649.00
2015, 1652.00
2016, 1650.00
2017, 1652.00
2018, 1652.00
2019, 1651.00
2020, 1653.00
2021, 1652.00
2022, 1653.00
2023, 1653.00
2024, 1655.00
2025, 1653.00
2026, 1655.00
2027, 1655.00
2028, 1654.00
2029, 1658.00
2030, 1655.00
2031, 1657.00
2032, 1657.00
2033, 1658.00
2034, 1659.00
2035, 1659.00
2036, 1659.00
2037, 1659.00
2038, 1660.00
2039, 1660.00
2040, 1661.00
2041, 1662.00
2042, 1662.00
2043, 1663.00
2044, 1665.00
2045, 1665.00
2046, 1663.00
2047, 1665.00
2048, 1664.00
2049, 1666.00
2050, 1667.00
2051, 1666.00
2052, 1669.00
2053, 1668.00
2054, 1670.00
2055, 1670.00
2056, 1671.00
2057, 1671.00
2058, 1672.00
2059, 1672.00
2060, 1673.00
2061, 1674.00
2062, 1676.00
2063, 1676.00
2064, 1675.00
2065, 1677.00
2066, 1677.00
2067, 1677.00
2068, 1678.00
2069, 1677.00
2070, 1679.00
2071, 1680.00
2072, 1680.00
2073, 1681.00
2074, 1683.00
2075, 1683.00
2076, 1683.00
2077, 1683.00
2078, 1684.00
2079, 1684.00
2080, 1684.00
2081, 1687.00
2082, 1687.00
2083, 1687.00
2084, 1689.00
2085, 1688.00
2086, 1690.00
2087, 1690.00
2088, 1692.00
2089, 1691.00
2090, 1692.00
2091, 1692.00
2092, 1691.00
2093, 1692.00
2094, 1691.00
2095, 1694.00
2096, 1694.00
2097, 1695.00
2098, 1695.00
2099, 1696.00
2100, 1697.00
2101, 1695.00
2102, 1695.00
2103, 1698.00
2104, 1699.00
2105, 1698.00
2106, 1698.00
2107, 1698.00
2108, 1699.00
2109, 1698.00
2110, 1699.00
2111, 1699.00
2112, 1701.00
2113, 1701.00
2114, 1701.00
2115, 1699.00
2116, 1701.00
2117, 1700.00
2118, 1701.00
2119, 1701.00
2120, 1703.00
2121, 1703.00
2122, 1702.00
2123, 1704.00
2124, 1706.00
2125, 1704.00
2126, 1706.00
2127, 1705.00
2128, 1703.00
2129, 1707.00
2130, 1704.00
2131, 1705.00
2132, 1707.00
2133, 1707.00
2134, 1707.00
2135, 1708.00
2136, 1708.00
2137, 1707.00
2138, 1708.00
2139, 1708.00
2140, 1708.00
2141, 1709.00
2142, 1708.00
2143, 1706.00
2144, 1708.00
2145, 1708.00
2146, 1709.00
2147, 1710.00
2148, 1709.00
2149, 1710.00
2150, 1709.00
