FW version: 24
Log Version: 3.0.3

General Info:
       Command/Macro Performed,            Timestamp,             Device ID, COM Port, UART/I2C, Test Name, Host Major, Host Minor, Host Revision, Host Git Commit
            Single_measurement,  2023_06_29_11_19_47,       Insight2_F4_xxx,    USB-C,      USB,          ,          0,          1,             1,      4031237645

Show Spectrometer Status:
l0_version, f4_version, battery_perc, battery_mVolt, accelerometer_temp, accelerometer_x, accelerometer_y, accelerometer_z, compass_temp, compass_x, compass_y, compass_z, lamp_0, lamp_1, gain_0, gain_1
        17,         24,           94,          2077,               5488,           65444,           65500,           18344,            0,     65533,     65500,     65470,   2866,   2866,      1,      1

Temperature Statistic Info:
NTC AVG [°C], NTC2 AVG [°C]
      36.580,        36.236

Statistic Info:
M1:  num,      min,      max,   median,      AVG,      STD,M2:  num,      min,      max,   median,      AVG,      STD
     301,  1556.00,  1802.00,  1605.00,  1636.03,  76.4910,     401,  2100.00,  2247.00,  2159.00,  2163.49,  48.1432,

Measurements:
Wavelength, Data Amplitude
1350, 1602.00
1351, 1601.00
1352, 1600.00
1353, 1600.00
1354, 1598.00
1355, 1598.00
1356, 1597.00
1357, 1595.00
1358, 1596.00
1359, 1594.00
1360, 1593.00
1361, 1592.00
1362, 1592.00
1363, 1590.00
1364, 1587.00
1365, 1588.00
1366, 1587.00
1367, 1586.00
1368, 1585.00
1369, 1582.00
1370, 1582.00
1371, 1580.00
1372, 1579.00
1373, 1577.00
1374, 1578.00
1375, 1576.00
1376, 1575.00
1377, 1573.00
1378, 1572.00
1379, 1571.00
1380, 1570.00
1381, 1570.00
1382, 1570.00
1383, 1568.00
1384, 1566.00
1385, 1566.00
1386, 1565.00
1387, 1564.00
1388, 1563.00
1389, 1564.00
1390, 1563.00
1391, 1563.00
1392, 1562.00
1393, 1562.00
1394, 1561.00
1395, 1561.00
1396, 1560.00
1397, 1559.00
1398, 1559.00
1399, 1558.00
1400, 1559.00
1401, 1559.00
1402, 1558.00
1403, 1558.00
1404, 1558.00
1405, 1558.00
1406, 1558.00
1407, 1558.00
1408, 1557.00
1409, 1557.00
1410, 1556.00
1411, 1557.00
1412, 1557.00
1413, 1557.00
1414, 1556.00
1415, 1557.00
1416, 1556.00
1417, 1557.00
1418, 1556.00
1419, 1556.00
1420, 1557.00
1421, 1556.00
1422, 1556.00
1423, 1557.00
1424, 1556.00
1425, 1556.00
1426, 1556.00
1427, 1557.00
1428, 1557.00
1429, 1557.00
1430, 1557.00
1431, 1558.00
1432, 1559.00
1433, 1557.00
1434, 1558.00
1435, 1557.00
1436, 1558.00
1437, 1559.00
1438, 1559.00
1439, 1558.00
1440, 1559.00
1441, 1559.00
1442, 1561.00
1443, 1560.00
1444, 1561.00
1445, 1562.00
1446, 1562.00
1447, 1562.00
1448, 1563.00
1449, 1563.00
1450, 1564.00
1451, 1564.00
1452, 1565.00
1453, 1565.00
1454, 1565.00
1455, 1567.00
1456, 1567.00
1457, 1567.00
1458, 1567.00
1459, 1569.00
1460, 1569.00
1461, 1570.00
1462, 1571.00
1463, 1570.00
1464, 1572.00
1465, 1573.00
1466, 1573.00
1467, 1574.00
1468, 1575.00
1469, 1575.00
1470, 1576.00
1471, 1578.00
1472, 1578.00
1473, 1579.00
1474, 1580.00
1475, 1581.00
1476, 1581.00
1477, 1581.00
1478, 1583.00
1479, 1583.00
1480, 1585.00
1481, 1586.00
1482, 1587.00
1483, 1588.00
1484, 1589.00
1485, 1590.00
1486, 1590.00
1487, 1591.00
1488, 1592.00
1489, 1593.00
1490, 1594.00
1491, 1595.00
1492, 1596.00
1493, 1598.00
1494, 1600.00
1495, 1600.00
1496, 1600.00
1497, 1602.00
1498, 1603.00
1499, 1605.00
1500, 1605.00
1501, 1605.00
1502, 1607.00
1503, 1608.00
1504, 1609.00
1505, 1609.00
1506, 1610.00
1507, 1612.00
1508, 1613.00
1509, 1614.00
1510, 1615.00
1511, 1617.00
1512, 1617.00
1513, 1618.00
1514, 1619.00
1515, 1622.00
1516, 1623.00
1517, 1624.00
1518, 1623.00
1519, 1625.00
1520, 1627.00
1521, 1629.00
1522, 1628.00
1523, 1630.00
1524, 1632.00
1525, 1633.00
1526, 1635.00
1527, 1636.00
1528, 1637.00
1529, 1638.00
1530, 1639.00
1531, 1640.00
1532, 1641.00
1533, 1643.00
1534, 1643.00
1535, 1645.00
1536, 1647.00
1537, 1648.00
1538, 1648.00
1539, 1651.00
1540, 1651.00
1541, 1653.00
1542, 1653.00
1543, 1655.00
1544, 1656.00
1545, 1657.00
1546, 1659.00
1547, 1659.00
1548, 1662.00
1549, 1662.00
1550, 1663.00
1551, 1664.00
1552, 1666.00
1553, 1668.00
1554, 1668.00
1555, 1669.00
1556, 1671.00
1557, 1673.00
1558, 1673.00
1559, 1676.00
1560, 1677.00
1561, 1679.00
1562, 1680.00
1563, 1682.00
1564, 1683.00
1565, 1685.00
1566, 1685.00
1567, 1687.00
1568, 1688.00
1569, 1689.00
1570, 1691.00
1571, 1693.00
1572, 1695.00
1573, 1696.00
1574, 1697.00
1575, 1698.00
1576, 1699.00
1577, 1701.00
1578, 1702.00
1579, 1703.00
1580, 1705.00
1581, 1705.00
1582, 1708.00
1583, 1708.00
1584, 1710.00
1585, 1711.00
1586, 1713.00
1587, 1713.00
1588, 1715.00
1589, 1717.00
1590, 1717.00
1591, 1718.00
1592, 1720.00
1593, 1722.00
1594, 1723.00
1595, 1723.00
1596, 1724.00
1597, 1726.00
1598, 1727.00
1599, 1728.00
1600, 1729.00
1601, 1732.00
1602, 1731.00
1603, 1734.00
1604, 1736.00
1605, 1736.00
1606, 1738.00
1607, 1740.00
1608, 1741.00
1609, 1742.00
1610, 1744.00
1611, 1746.00
1612, 1746.00
1613, 1749.00
1614, 1750.00
1615, 1753.00
1616, 1753.00
1617, 1755.00
1618, 1757.00
1619, 1757.00
1620, 1759.00
1621, 1761.00
1622, 1763.00
1623, 1764.00
1624, 1766.00
1625, 1768.00
1626, 1770.00
1627, 1771.00
1628, 1773.00
1629, 1774.00
1630, 1775.00
1631, 1777.00
1632, 1778.00
1633, 1781.00
1634, 1782.00
1635, 1783.00
1636, 1783.00
1637, 1786.00
1638, 1787.00
1639, 1789.00
1640, 1790.00
1641, 1790.00
1642, 1791.00
1643, 1793.00
1644, 1795.00
1645, 1796.00
1646, 1797.00
1647, 1798.00
1648, 1799.00
1649, 1801.00
1650, 1802.00

1750, 2245.00
1751, 2247.00
1752, 2244.00
1753, 2246.00
1754, 2245.00
1755, 2245.00
1756, 2246.00
1757, 2247.00
1758, 2246.00
1759, 2245.00
1760, 2244.00
1761, 2247.00
1762, 2246.00
1763, 2247.00
1764, 2247.00
1765, 2245.00
1766, 2245.00
1767, 2246.00
1768, 2245.00
1769, 2245.00
1770, 2244.00
1771, 2245.00
1772, 2243.00
1773, 2243.00
1774, 2242.00
1775, 2242.00
1776, 2242.00
1777, 2242.00
1778, 2241.00
1779, 2239.00
1780, 2239.00
1781, 2240.00
1782, 2237.00
1783, 2237.00
1784, 2237.00
1785, 2239.00
1786, 2237.00
1787, 2237.00
1788, 2236.00
1789, 2235.00
1790, 2236.00
1791, 2234.00
1792, 2234.00
1793, 2234.00
1794, 2232.00
1795, 2232.00
1796, 2233.00
1797, 2233.00
1798, 2231.00
1799, 2230.00
1800, 2230.00
1801, 2229.00
1802, 2231.00
1803, 2229.00
1804, 2231.00
1805, 2229.00
1806, 2228.00
1807, 2226.00
1808, 2226.00
1809, 2226.00
1810, 2226.00
1811, 2226.00
1812, 2223.00
1813, 2224.00
1814, 2223.00
1815, 2223.00
1816, 2222.00
1817, 2220.00
1818, 2220.00
1819, 2222.00
1820, 2219.00
1821, 2218.00
1822, 2218.00
1823, 2215.00
1824, 2215.00
1825, 2214.00
1826, 2212.00
1827, 2211.00
1828, 2210.00
1829, 2207.00
1830, 2206.00
1831, 2205.00
1832, 2204.00
1833, 2201.00
1834, 2200.00
1835, 2199.00
1836, 2198.00
1837, 2195.00
1838, 2193.00
1839, 2192.00
1840, 2190.00
1841, 2188.00
1842, 2186.00
1843, 2183.00
1844, 2181.00
1845, 2178.00
1846, 2177.00
1847, 2174.00
1848, 2171.00
1849, 2169.00
1850, 2167.00
1851, 2163.00
1852, 2163.00
1853, 2162.00
1854, 2158.00
1855, 2158.00
1856, 2155.00
1857, 2152.00
1858, 2151.00
1859, 2148.00
1860, 2145.00
1861, 2143.00
1862, 2140.00
1863, 2141.00
1864, 2138.00
1865, 2136.00
1866, 2136.00
1867, 2133.00
1868, 2132.00
1869, 2131.00
1870, 2127.00
1871, 2128.00
1872, 2125.00
1873, 2123.00
1874, 2123.00
1875, 2123.00
1876, 2120.00
1877, 2119.00
1878, 2121.00
1879, 2118.00
1880, 2115.00
1881, 2116.00
1882, 2116.00
1883, 2113.00
1884, 2114.00
1885, 2114.00
1886, 2112.00
1887, 2113.00
1888, 2112.00
1889, 2112.00
1890, 2112.00
1891, 2108.00
1892, 2110.00
1893, 2109.00
1894, 2108.00
1895, 2108.00
1896, 2108.00
1897, 2107.00
1898, 2108.00
1899, 2107.00
1900, 2104.00
1901, 2107.00
1902, 2105.00
1903, 2104.00
1904, 2104.00
1905, 2105.00
1906, 2106.00
1907, 2105.00
1908, 2104.00
1909, 2104.00
1910, 2104.00
1911, 2104.00
1912, 2104.00
1913, 2103.00
1914, 2101.00
1915, 2101.00
1916, 2102.00
1917, 2101.00
1918, 2103.00
1919, 2102.00
1920, 2103.00
1921, 2102.00
1922, 2103.00
1923, 2102.00
1924, 2101.00
1925, 2101.00
1926, 2101.00
1927, 2100.00
1928, 2102.00
1929, 2101.00
1930, 2101.00
1931, 2101.00
1932, 2101.00
1933, 2101.00
1934, 2103.00
1935, 2101.00
1936, 2104.00
1937, 2101.00
1938, 2102.00
1939, 2101.00
1940, 2101.00
1941, 2102.00
1942, 2101.00
1943, 2102.00
1944, 2103.00
1945, 2103.00
1946, 2102.00
1947, 2103.00
1948, 2104.00
1949, 2104.00
1950, 2103.00
1951, 2102.00
1952, 2106.00
1953, 2105.00
1954, 2105.00
1955, 2105.00
1956, 2105.00
1957, 2106.00
1958, 2106.00
1959, 2106.00
1960, 2105.00
1961, 2107.00
1962, 2109.00
1963, 2109.00
1964, 2107.00
1965, 2109.00
1966, 2109.00
1967, 2110.00
1968, 2110.00
1969, 2113.00
1970, 2110.00
1971, 2112.00
1972, 2111.00
1973, 2113.00
1974, 2112.00
1975, 2114.00
1976, 2113.00
1977, 2114.00
1978, 2115.00
1979, 2115.00
1980, 2116.00
1981, 2116.00
1982, 2118.00
1983, 2117.00
1984, 2117.00
1985, 2120.00
1986, 2120.00
1987, 2121.00
1988, 2119.00
1989, 2121.00
1990, 2120.00
1991, 2121.00
1992, 2123.00
1993, 2124.00
1994, 2123.00
1995, 2124.00
1996, 2124.00
1997, 2125.00
1998, 2125.00
1999, 2125.00
2000, 2125.00
2001, 2126.00
2002, 2127.00
2003, 2126.00
2004, 2128.00
2005, 2128.00
2006, 2130.00
2007, 2131.00
2008, 2131.00
2009, 2131.00
2010, 2130.00
2011, 2132.00
2012, 2132.00
2013, 2132.00
2014, 2134.00
2015, 2133.00
2016, 2134.00
2017, 2134.00
2018, 2135.00
2019, 2135.00
2020, 2135.00
2021, 2136.00
2022, 2136.00
2023, 2139.00
2024, 2137.00
2025, 2136.00
2026, 2139.00
2027, 2139.00
2028, 2140.00
2029, 2141.00
2030, 2141.00
2031, 2142.00
2032, 2143.00
2033, 2142.00
2034, 2144.00
2035, 2144.00
2036, 2144.00
2037, 2146.00
2038, 2147.00
2039, 2147.00
2040, 2146.00
2041, 2148.00
2042, 2149.00
2043, 2148.00
2044, 2151.00
2045, 2149.00
2046, 2151.00
2047, 2151.00
2048, 2153.00
2049, 2153.00
2050, 2155.00
2051, 2157.00
2052, 2157.00
2053, 2159.00
2054, 2158.00
2055, 2160.00
2056, 2162.00
2057, 2161.00
2058, 2160.00
2059, 2163.00
2060, 2163.00
2061, 2163.00
2062, 2166.00
2063, 2166.00
2064, 2167.00
2065, 2167.00
2066, 2168.00
2067, 2168.00
2068, 2169.00
2069, 2171.00
2070, 2171.00
2071, 2173.00
2072, 2173.00
2073, 2173.00
2074, 2174.00
2075, 2175.00
2076, 2177.00
2077, 2176.00
2078, 2177.00
2079, 2178.00
2080, 2179.00
2081, 2179.00
2082, 2181.00
2083, 2181.00
2084, 2180.00
2085, 2182.00
2086, 2181.00
2087, 2184.00
2088, 2183.00
2089, 2184.00
2090, 2185.00
2091, 2187.00
2092, 2187.00
2093, 2187.00
2094, 2188.00
2095, 2189.00
2096, 2189.00
2097, 2188.00
2098, 2190.00
2099, 2190.00
2100, 2191.00
2101, 2192.00
2102, 2190.00
2103, 2193.00
2104, 2193.00
2105, 2193.00
2106, 2193.00
2107, 2194.00
2108, 2196.00
2109, 2195.00
2110, 2195.00
2111, 2197.00
2112, 2197.00
2113, 2197.00
2114, 2196.00
2115, 2196.00
2116, 2198.00
2117, 2197.00
2118, 2199.00
2119, 2200.00
2120, 2200.00
2121, 2198.00
2122, 2200.00
2123, 2201.00
2124, 2200.00
2125, 2202.00
2126, 2201.00
2127, 2202.00
2128, 2201.00
2129, 2203.00
2130, 2203.00
2131, 2200.00
2132, 2203.00
2133, 2204.00
2134, 2203.00
2135, 2205.00
2136, 2205.00
2137, 2205.00
2138, 2205.00
2139, 2204.00
2140, 2206.00
2141, 2207.00
2142, 2206.00
2143, 2207.00
2144, 2206.00
2145, 2209.00
2146, 2208.00
2147, 2208.00
2148, 2208.00
2149, 2209.00
2150, 2208.00
