FW version: 24
Log Version: 3.0.3

General Info:
       Command/Macro Performed,            Timestamp,             Device ID, COM Port, UART/I2C, Test Name, Host Major, Host Minor, Host Revision, Host Git Commit
            Single_measurement,  2023_06_29_11_18_53,       Insight2_F4_xxx,    USB-C,      USB,          ,          0,          1,             1,      4031237645

Show Spectrometer Status:
l0_version, f4_version, battery_perc, battery_mVolt, accelerometer_temp, accelerometer_x, accelerometer_y, accelerometer_z, compass_temp, compass_x, compass_y, compass_z, lamp_0, lamp_1, gain_0, gain_1
        17,         24,           94,          2075,               5456,           65444,           65448,           18404,            0,     65534,     65530,     65534,   3276,   3276,      0,      0

Temperature Statistic Info:
NTC AVG [°C], NTC2 AVG [°C]
      36.207,        35.948

Statistic Info:
M1:  num,      min,      max,   median,      AVG,      STD,M2:  num,      min,      max,   median,      AVG,      STD
     301,   690.00,   796.00,   712.00,   725.06,  32.7989,     401,   901.00,   964.00,   925.00,   927.87,  20.6067,

Measurements:
Wavelength, Data Amplitude
1350, 711.00
1351, 711.00
1352, 711.00
1353, 711.00
1354, 710.00
1355, 710.00
1356, 710.00
1357, 709.00
1358, 709.00
1359, 708.00
1360, 708.00
1361, 707.00
1362, 707.00
1363, 707.00
1364, 706.00
1365, 705.00
1366, 705.00
1367, 705.00
1368, 704.00
1369, 703.00
1370, 703.00
1371, 702.00
1372, 702.00
1373, 701.00
1374, 701.00
1375, 700.00
1376, 699.00
1377, 698.00
1378, 698.00
1379, 698.00
1380, 697.00
1381, 698.00
1382, 697.00
1383, 696.00
1384, 696.00
1385, 695.00
1386, 695.00
1387, 695.00
1388, 694.00
1389, 695.00
1390, 694.00
1391, 693.00
1392, 694.00
1393, 694.00
1394, 693.00
1395, 693.00
1396, 693.00
1397, 693.00
1398, 693.00
1399, 692.00
1400, 692.00
1401, 692.00
1402, 692.00
1403, 692.00
1404, 692.00
1405, 692.00
1406, 691.00
1407, 692.00
1408, 691.00
1409, 691.00
1410, 691.00
1411, 691.00
1412, 691.00
1413, 691.00
1414, 691.00
1415, 691.00
1416, 691.00
1417, 691.00
1418, 691.00
1419, 691.00
1420, 690.00
1421, 691.00
1422, 690.00
1423, 691.00
1424, 691.00
1425, 691.00
1426, 691.00
1427, 690.00
1428, 690.00
1429, 691.00
1430, 691.00
1431, 691.00
1432, 691.00
1433, 691.00
1434, 692.00
1435, 691.00
1436, 692.00
1437, 692.00
1438, 692.00
1439, 692.00
1440, 692.00
1441, 692.00
1442, 692.00
1443, 692.00
1444, 693.00
1445, 693.00
1446, 693.00
1447, 693.00
1448, 693.00
1449, 693.00
1450, 694.00
1451, 694.00
1452, 694.00
1453, 694.00
1454, 694.00
1455, 695.00
1456, 695.00
1457, 695.00
1458, 696.00
1459, 695.00
1460, 696.00
1461, 696.00
1462, 697.00
1463, 697.00
1464, 697.00
1465, 698.00
1466, 698.00
1467, 698.00
1468, 698.00
1469, 699.00
1470, 699.00
1471, 699.00
1472, 700.00
1473, 700.00
1474, 700.00
1475, 701.00
1476, 701.00
1477, 702.00
1478, 702.00
1479, 702.00
1480, 703.00
1481, 703.00
1482, 704.00
1483, 704.00
1484, 705.00
1485, 705.00
1486, 705.00
1487, 706.00
1488, 706.00
1489, 706.00
1490, 707.00
1491, 707.00
1492, 708.00
1493, 708.00
1494, 708.00
1495, 709.00
1496, 710.00
1497, 710.00
1498, 711.00
1499, 711.00
1500, 712.00
1501, 712.00
1502, 712.00
1503, 712.00
1504, 713.00
1505, 713.00
1506, 714.00
1507, 714.00
1508, 715.00
1509, 715.00
1510, 716.00
1511, 716.00
1512, 717.00
1513, 718.00
1514, 717.00
1515, 718.00
1516, 718.00
1517, 719.00
1518, 720.00
1519, 720.00
1520, 721.00
1521, 721.00
1522, 722.00
1523, 722.00
1524, 722.00
1525, 723.00
1526, 724.00
1527, 724.00
1528, 725.00
1529, 725.00
1530, 726.00
1531, 726.00
1532, 726.00
1533, 727.00
1534, 728.00
1535, 729.00
1536, 729.00
1537, 730.00
1538, 730.00
1539, 731.00
1540, 731.00
1541, 732.00
1542, 732.00
1543, 733.00
1544, 733.00
1545, 734.00
1546, 734.00
1547, 735.00
1548, 735.00
1549, 736.00
1550, 737.00
1551, 738.00
1552, 738.00
1553, 739.00
1554, 739.00
1555, 740.00
1556, 740.00
1557, 741.00
1558, 741.00
1559, 742.00
1560, 743.00
1561, 743.00
1562, 744.00
1563, 745.00
1564, 745.00
1565, 746.00
1566, 747.00
1567, 747.00
1568, 747.00
1569, 748.00
1570, 749.00
1571, 750.00
1572, 750.00
1573, 750.00
1574, 751.00
1575, 751.00
1576, 752.00
1577, 753.00
1578, 753.00
1579, 754.00
1580, 754.00
1581, 755.00
1582, 755.00
1583, 757.00
1584, 757.00
1585, 757.00
1586, 758.00
1587, 759.00
1588, 759.00
1589, 759.00
1590, 760.00
1591, 761.00
1592, 761.00
1593, 762.00
1594, 762.00
1595, 763.00
1596, 763.00
1597, 764.00
1598, 764.00
1599, 765.00
1600, 766.00
1601, 766.00
1602, 767.00
1603, 767.00
1604, 768.00
1605, 769.00
1606, 769.00
1607, 769.00
1608, 770.00
1609, 770.00
1610, 771.00
1611, 772.00
1612, 773.00
1613, 773.00
1614, 774.00
1615, 775.00
1616, 776.00
1617, 776.00
1618, 777.00
1619, 778.00
1620, 778.00
1621, 779.00
1622, 779.00
1623, 780.00
1624, 781.00
1625, 781.00
1626, 782.00
1627, 783.00
1628, 784.00
1629, 785.00
1630, 785.00
1631, 786.00
1632, 786.00
1633, 787.00
1634, 787.00
1635, 788.00
1636, 788.00
1637, 789.00
1638, 790.00
1639, 790.00
1640, 791.00
1641, 791.00
1642, 792.00
1643, 793.00
1644, 793.00
1645, 794.00
1646, 794.00
1647, 794.00
1648, 795.00
1649, 795.00
1650, 796.00

1750, 964.00
1751, 964.00
1752, 964.00
1753, 964.00
1754, 964.00
1755, 964.00
1756, 964.00
1757, 963.00
1758, 964.00
1759, 963.00
1760, 964.00
1761, 964.00
1762, 964.00
1763, 963.00
1764, 964.00
1765, 964.00
1766, 963.00
1767, 963.00
1768, 963.00
1769, 963.00
1770, 963.00
1771, 962.00
1772, 963.00
1773, 963.00
1774, 963.00
1775, 962.00
1776, 962.00
1777, 962.00
1778, 962.00
1779, 962.00
1780, 962.00
1781, 961.00
1782, 961.00
1783, 960.00
1784, 961.00
1785, 960.00
1786, 959.00
1787, 960.00
1788, 960.00
1789, 959.00
1790, 959.00
1791, 958.00
1792, 959.00
1793, 958.00
1794, 958.00
1795, 958.00
1796, 957.00
1797, 957.00
1798, 957.00
1799, 957.00
1800, 957.00
1801, 957.00
1802, 957.00
1803, 956.00
1804, 956.00
1805, 956.00
1806, 956.00
1807, 955.00
1808, 955.00
1809, 955.00
1810, 955.00
1811, 955.00
1812, 955.00
1813, 955.00
1814, 954.00
1815, 954.00
1816, 954.00
1817, 953.00
1818, 952.00
1819, 953.00
1820, 952.00
1821, 952.00
1822, 950.00
1823, 951.00
1824, 950.00
1825, 950.00
1826, 949.00
1827, 949.00
1828, 947.00
1829, 948.00
1830, 947.00
1831, 947.00
1832, 945.00
1833, 945.00
1834, 945.00
1835, 943.00
1836, 943.00
1837, 942.00
1838, 941.00
1839, 941.00
1840, 940.00
1841, 939.00
1842, 938.00
1843, 936.00
1844, 936.00
1845, 935.00
1846, 934.00
1847, 933.00
1848, 932.00
1849, 931.00
1850, 930.00
1851, 929.00
1852, 928.00
1853, 927.00
1854, 925.00
1855, 924.00
1856, 925.00
1857, 923.00
1858, 923.00
1859, 921.00
1860, 921.00
1861, 920.00
1862, 918.00
1863, 919.00
1864, 917.00
1865, 916.00
1866, 915.00
1867, 916.00
1868, 915.00
1869, 914.00
1870, 913.00
1871, 913.00
1872, 912.00
1873, 912.00
1874, 911.00
1875, 911.00
1876, 911.00
1877, 910.00
1878, 909.00
1879, 908.00
1880, 908.00
1881, 909.00
1882, 909.00
1883, 908.00
1884, 907.00
1885, 907.00
1886, 906.00
1887, 906.00
1888, 906.00
1889, 906.00
1890, 906.00
1891, 905.00
1892, 906.00
1893, 905.00
1894, 905.00
1895, 905.00
1896, 904.00
1897, 904.00
1898, 904.00
1899, 904.00
1900, 904.00
1901, 904.00
1902, 903.00
1903, 903.00
1904, 904.00
1905, 903.00
1906, 903.00
1907, 903.00
1908, 903.00
1909, 902.00
1910, 902.00
1911, 902.00
1912, 902.00
1913, 902.00
1914, 903.00
1915, 903.00
1916, 902.00
1917, 901.00
1918, 902.00
1919, 902.00
1920, 901.00
1921, 901.00
1922, 902.00
1923, 902.00
1924, 902.00
1925, 901.00
1926, 902.00
1927, 901.00
1928, 902.00
1929, 901.00
1930, 901.00
1931, 901.00
1932, 902.00
1933, 901.00
1934, 901.00
1935, 902.00
1936, 901.00
1937, 902.00
1938, 901.00
1939, 902.00
1940, 901.00
1941, 902.00
1942, 901.00
1943, 902.00
1944, 902.00
1945, 902.00
1946, 902.00
1947, 903.00
1948, 902.00
1949, 902.00
1950, 903.00
1951, 903.00
1952, 903.00
1953, 903.00
1954, 903.00
1955, 902.00
1956, 903.00
1957, 904.00
1958, 904.00
1959, 903.00
1960, 904.00
1961, 904.00
1962, 904.00
1963, 904.00
1964, 904.00
1965, 905.00
1966, 905.00
1967, 906.00
1968, 905.00
1969, 906.00
1970, 905.00
1971, 906.00
1972, 906.00
1973, 906.00
1974, 906.00
1975, 906.00
1976, 906.00
1977, 907.00
1978, 907.00
1979, 908.00
1980, 908.00
1981, 908.00
1982, 908.00
1983, 909.00
1984, 908.00
1985, 908.00
1986, 909.00
1987, 909.00
1988, 909.00
1989, 910.00
1990, 910.00
1991, 910.00
1992, 909.00
1993, 910.00
1994, 910.00
1995, 911.00
1996, 911.00
1997, 912.00
1998, 912.00
1999, 911.00
2000, 911.00
2001, 912.00
2002, 912.00
2003, 913.00
2004, 912.00
2005, 913.00
2006, 913.00
2007, 913.00
2008, 913.00
2009, 914.00
2010, 914.00
2011, 914.00
2012, 914.00
2013, 914.00
2014, 915.00
2015, 914.00
2016, 915.00
2017, 915.00
2018, 915.00
2019, 915.00
2020, 916.00
2021, 916.00
2022, 917.00
2023, 917.00
2024, 917.00
2025, 917.00
2026, 917.00
2027, 918.00
2028, 917.00
2029, 918.00
2030, 918.00
2031, 918.00
2032, 919.00
2033, 919.00
2034, 919.00
2035, 919.00
2036, 919.00
2037, 920.00
2038, 920.00
2039, 920.00
2040, 920.00
2041, 921.00
2042, 922.00
2043, 922.00
2044, 922.00
2045, 922.00
2046, 922.00
2047, 923.00
2048, 923.00
2049, 923.00
2050, 924.00
2051, 924.00
2052, 925.00
2053, 925.00
2054, 925.00
2055, 925.00
2056, 926.00
2057, 927.00
2058, 926.00
2059, 927.00
2060, 927.00
2061, 927.00
2062, 927.00
2063, 928.00
2064, 928.00
2065, 928.00
2066, 929.00
2067, 930.00
2068, 930.00
2069, 930.00
2070, 930.00
2071, 931.00
2072, 931.00
2073, 931.00
2074, 932.00
2075, 932.00
2076, 933.00
2077, 933.00
2078, 933.00
2079, 933.00
2080, 933.00
2081, 934.00
2082, 934.00
2083, 935.00
2084, 934.00
2085, 936.00
2086, 935.00
2087, 936.00
2088, 936.00
2089, 936.00
2090, 936.00
2091, 937.00
2092, 937.00
2093, 937.00
2094, 938.00
2095, 937.00
2096, 938.00
2097, 938.00
2098, 938.00
2099, 938.00
2100, 939.00
2101, 940.00
2102, 939.00
2103, 940.00
2104, 940.00
2105, 940.00
2106, 940.00
2107, 940.00
2108, 940.00
2109, 941.00
2110, 941.00
2111, 941.00
2112, 940.00
2113, 941.00
2114, 941.00
2115, 941.00
2116, 942.00
2117, 942.00
2118, 942.00
2119, 942.00
2120, 943.00
2121, 943.00
2122, 942.00
2123, 942.00
2124, 942.00
2125, 943.00
2126, 942.00
2127, 943.00
2128, 943.00
2129, 944.00
2130, 944.00
2131, 944.00
2132, 944.00
2133, 944.00
2134, 944.00
2135, 944.00
2136, 945.00
2137, 945.00
2138, 945.00
2139, 945.00
2140, 945.00
2141, 945.00
2142, 946.00
2143, 946.00
2144, 945.00
2145, 946.00
2146, 946.00
2147, 945.00
2148, 947.00
2149, 946.00
2150, 946.00
