FW version: 24
Log Version: 3.0.3

General Info:
       Command/Macro Performed,            Timestamp,             Device ID, COM Port, UART/I2C, Test Name, Host Major, Host Minor, Host Revision, Host Git Commit
            Single_measurement,  2023_06_28_12_46_27,       Insight2_F4_xxx,    USB-C,      USB,          ,          0,          1,             1,      4031237645

Show Spectrometer Status:
l0_version, f4_version, battery_perc, battery_mVolt, accelerometer_temp, accelerometer_x, accelerometer_y, accelerometer_z, compass_temp, compass_x, compass_y, compass_z, lamp_0, lamp_1, gain_0, gain_1
        17,         24,           50,          1921,               6400,               0,             368,           18732,            0,     65361,     65523,     65535,   2047,   2047,      1,      1

Temperature Statistic Info:
NTC AVG [°C], NTC2 AVG [°C]
      39.617,        39.323

Statistic Info:
M1:  num,      min,      max,   median,      AVG,      STD,M2:  num,      min,      max,   median,      AVG,      STD
     301,   753.00,   870.00,   781.00,   793.24,  37.4948,     401,  1141.00,  1214.00,  1180.00,  1178.75,  25.0869,

Measurements:
Wavelength, Data Amplitude
1350, 764.00
1351, 766.00
1352, 765.00
1353, 765.00
1354, 764.00
1355, 764.00
1356, 764.00
1357, 764.00
1358, 763.00
1359, 764.00
1360, 763.00
1361, 763.00
1362, 763.00
1363, 761.00
1364, 761.00
1365, 761.00
1366, 761.00
1367, 761.00
1368, 761.00
1369, 760.00
1370, 761.00
1371, 760.00
1372, 760.00
1373, 759.00
1374, 758.00
1375, 759.00
1376, 759.00
1377, 757.00
1378, 757.00
1379, 757.00
1380, 757.00
1381, 756.00
1382, 757.00
1383, 756.00
1384, 755.00
1385, 756.00
1386, 755.00
1387, 755.00
1388, 756.00
1389, 755.00
1390, 754.00
1391, 754.00
1392, 755.00
1393, 755.00
1394, 754.00
1395, 754.00
1396, 754.00
1397, 754.00
1398, 754.00
1399, 754.00
1400, 754.00
1401, 755.00
1402, 754.00
1403, 754.00
1404, 753.00
1405, 755.00
1406, 753.00
1407, 753.00
1408, 753.00
1409, 754.00
1410, 754.00
1411, 754.00
1412, 754.00
1413, 754.00
1414, 754.00
1415, 754.00
1416, 753.00
1417, 753.00
1418, 753.00
1419, 754.00
1420, 753.00
1421, 755.00
1422, 754.00
1423, 754.00
1424, 754.00
1425, 755.00
1426, 754.00
1427, 755.00
1428, 753.00
1429, 754.00
1430, 755.00
1431, 755.00
1432, 756.00
1433, 756.00
1434, 756.00
1435, 756.00
1436, 756.00
1437, 757.00
1438, 756.00
1439, 757.00
1440, 757.00
1441, 758.00
1442, 757.00
1443, 758.00
1444, 758.00
1445, 759.00
1446, 758.00
1447, 759.00
1448, 758.00
1449, 759.00
1450, 759.00
1451, 760.00
1452, 760.00
1453, 760.00
1454, 761.00
1455, 761.00
1456, 762.00
1457, 762.00
1458, 762.00
1459, 762.00
1460, 763.00
1461, 764.00
1462, 763.00
1463, 764.00
1464, 764.00
1465, 765.00
1466, 765.00
1467, 766.00
1468, 766.00
1469, 767.00
1470, 766.00
1471, 767.00
1472, 767.00
1473, 768.00
1474, 768.00
1475, 769.00
1476, 770.00
1477, 770.00
1478, 771.00
1479, 771.00
1480, 771.00
1481, 772.00
1482, 772.00
1483, 774.00
1484, 773.00
1485, 773.00
1486, 775.00
1487, 775.00
1488, 776.00
1489, 776.00
1490, 776.00
1491, 777.00
1492, 778.00
1493, 778.00
1494, 779.00
1495, 780.00
1496, 779.00
1497, 780.00
1498, 780.00
1499, 781.00
1500, 781.00
1501, 782.00
1502, 783.00
1503, 782.00
1504, 783.00
1505, 784.00
1506, 784.00
1507, 785.00
1508, 786.00
1509, 787.00
1510, 786.00
1511, 787.00
1512, 788.00
1513, 788.00
1514, 788.00
1515, 789.00
1516, 789.00
1517, 791.00
1518, 791.00
1519, 792.00
1520, 792.00
1521, 793.00
1522, 794.00
1523, 795.00
1524, 795.00
1525, 795.00
1526, 796.00
1527, 796.00
1528, 797.00
1529, 798.00
1530, 798.00
1531, 799.00
1532, 799.00
1533, 800.00
1534, 801.00
1535, 800.00
1536, 802.00
1537, 803.00
1538, 803.00
1539, 804.00
1540, 804.00
1541, 806.00
1542, 805.00
1543, 805.00
1544, 807.00
1545, 806.00
1546, 808.00
1547, 807.00
1548, 809.00
1549, 809.00
1550, 809.00
1551, 811.00
1552, 810.00
1553, 811.00
1554, 811.00
1555, 812.00
1556, 813.00
1557, 813.00
1558, 814.00
1559, 814.00
1560, 815.00
1561, 816.00
1562, 817.00
1563, 817.00
1564, 817.00
1565, 818.00
1566, 818.00
1567, 820.00
1568, 821.00
1569, 821.00
1570, 822.00
1571, 822.00
1572, 822.00
1573, 823.00
1574, 825.00
1575, 825.00
1576, 824.00
1577, 825.00
1578, 827.00
1579, 827.00
1580, 827.00
1581, 828.00
1582, 829.00
1583, 829.00
1584, 829.00
1585, 830.00
1586, 831.00
1587, 831.00
1588, 832.00
1589, 833.00
1590, 834.00
1591, 834.00
1592, 834.00
1593, 835.00
1594, 836.00
1595, 836.00
1596, 837.00
1597, 837.00
1598, 838.00
1599, 837.00
1600, 839.00
1601, 839.00
1602, 840.00
1603, 841.00
1604, 843.00
1605, 843.00
1606, 843.00
1607, 843.00
1608, 844.00
1609, 845.00
1610, 846.00
1611, 847.00
1612, 848.00
1613, 847.00
1614, 848.00
1615, 849.00
1616, 851.00
1617, 850.00
1618, 852.00
1619, 852.00
1620, 853.00
1621, 854.00
1622, 854.00
1623, 855.00
1624, 855.00
1625, 856.00
1626, 857.00
1627, 857.00
1628, 858.00
1629, 860.00
1630, 860.00
1631, 860.00
1632, 862.00
1633, 862.00
1634, 863.00
1635, 863.00
1636, 864.00
1637, 864.00
1638, 865.00
1639, 865.00
1640, 865.00
1641, 866.00
1642, 867.00
1643, 867.00
1644, 868.00
1645, 868.00
1646, 869.00
1647, 869.00
1648, 869.00
1649, 870.00
1650, 870.00

1750, 1211.00
1751, 1212.00
1752, 1211.00
1753, 1214.00
1754, 1213.00
1755, 1212.00
1756, 1212.00
1757, 1212.00
1758, 1213.00
1759, 1212.00
1760, 1212.00
1761, 1210.00
1762, 1212.00
1763, 1211.00
1764, 1212.00
1765, 1212.00
1766, 1212.00
1767, 1212.00
1768, 1211.00
1769, 1211.00
1770, 1212.00
1771, 1212.00
1772, 1211.00
1773, 1210.00
1774, 1211.00
1775, 1211.00
1776, 1209.00
1777, 1210.00
1778, 1210.00
1779, 1210.00
1780, 1209.00
1781, 1209.00
1782, 1209.00
1783, 1210.00
1784, 1209.00
1785, 1208.00
1786, 1209.00
1787, 1208.00
1788, 1208.00
1789, 1208.00
1790, 1208.00
1791, 1208.00
1792, 1206.00
1793, 1207.00
1794, 1206.00
1795, 1207.00
1796, 1206.00
1797, 1206.00
1798, 1205.00
1799, 1205.00
1800, 1207.00
1801, 1206.00
1802, 1206.00
1803, 1206.00
1804, 1204.00
1805, 1206.00
1806, 1205.00
1807, 1205.00
1808, 1204.00
1809, 1205.00
1810, 1203.00
1811, 1203.00
1812, 1203.00
1813, 1204.00
1814, 1203.00
1815, 1203.00
1816, 1204.00
1817, 1202.00
1818, 1203.00
1819, 1204.00
1820, 1203.00
1821, 1203.00
1822, 1201.00
1823, 1201.00
1824, 1199.00
1825, 1200.00
1826, 1199.00
1827, 1199.00
1828, 1198.00
1829, 1199.00
1830, 1198.00
1831, 1195.00
1832, 1197.00
1833, 1193.00
1834, 1196.00
1835, 1196.00
1836, 1193.00
1837, 1193.00
1838, 1192.00
1839, 1193.00
1840, 1189.00
1841, 1188.00
1842, 1190.00
1843, 1188.00
1844, 1184.00
1845, 1183.00
1846, 1185.00
1847, 1183.00
1848, 1182.00
1849, 1181.00
1850, 1179.00
1851, 1177.00
1852, 1178.00
1853, 1175.00
1854, 1172.00
1855, 1173.00
1856, 1173.00
1857, 1170.00
1858, 1168.00
1859, 1168.00
1860, 1168.00
1861, 1164.00
1862, 1166.00
1863, 1163.00
1864, 1163.00
1865, 1161.00
1866, 1163.00
1867, 1160.00
1868, 1162.00
1869, 1158.00
1870, 1157.00
1871, 1157.00
1872, 1154.00
1873, 1157.00
1874, 1153.00
1875, 1154.00
1876, 1153.00
1877, 1151.00
1878, 1151.00
1879, 1153.00
1880, 1151.00
1881, 1151.00
1882, 1149.00
1883, 1148.00
1884, 1149.00
1885, 1149.00
1886, 1148.00
1887, 1149.00
1888, 1147.00
1889, 1147.00
1890, 1147.00
1891, 1145.00
1892, 1146.00
1893, 1146.00
1894, 1146.00
1895, 1147.00
1896, 1144.00
1897, 1146.00
1898, 1145.00
1899, 1145.00
1900, 1144.00
1901, 1145.00
1902, 1142.00
1903, 1144.00
1904, 1144.00
1905, 1144.00
1906, 1144.00
1907, 1143.00
1908, 1145.00
1909, 1144.00
1910, 1143.00
1911, 1144.00
1912, 1141.00
1913, 1144.00
1914, 1143.00
1915, 1143.00
1916, 1144.00
1917, 1143.00
1918, 1142.00
1919, 1142.00
1920, 1142.00
1921, 1142.00
1922, 1143.00
1923, 1143.00
1924, 1143.00
1925, 1142.00
1926, 1144.00
1927, 1143.00
1928, 1144.00
1929, 1142.00
1930, 1142.00
1931, 1144.00
1932, 1144.00
1933, 1143.00
1934, 1142.00
1935, 1144.00
1936, 1145.00
1937, 1145.00
1938, 1144.00
1939, 1142.00
1940, 1144.00
1941, 1144.00
1942, 1144.00
1943, 1147.00
1944, 1145.00
1945, 1145.00
1946, 1145.00
1947, 1145.00
1948, 1145.00
1949, 1144.00
1950, 1145.00
1951, 1146.00
1952, 1145.00
1953, 1147.00
1954, 1147.00
1955, 1146.00
1956, 1147.00
1957, 1146.00
1958, 1146.00
1959, 1148.00
1960, 1148.00
1961, 1149.00
1962, 1149.00
1963, 1149.00
1964, 1150.00
1965, 1147.00
1966, 1149.00
1967, 1150.00
1968, 1152.00
1969, 1151.00
1970, 1153.00
1971, 1152.00
1972, 1152.00
1973, 1151.00
1974, 1153.00
1975, 1152.00
1976, 1153.00
1977, 1153.00
1978, 1154.00
1979, 1153.00
1980, 1154.00
1981, 1155.00
1982, 1155.00
1983, 1156.00
1984, 1157.00
1985, 1155.00
1986, 1157.00
1987, 1157.00
1988, 1157.00
1989, 1158.00
1990, 1158.00
1991, 1158.00
1992, 1159.00
1993, 1158.00
1994, 1160.00
1995, 1162.00
1996, 1160.00
1997, 1160.00
1998, 1161.00
1999, 1162.00
2000, 1160.00
2001, 1164.00
2002, 1162.00
2003, 1163.00
2004, 1164.00
2005, 1164.00
2006, 1162.00
2007, 1162.00
2008, 1164.00
2009, 1164.00
2010, 1165.00
2011, 1165.00
2012, 1166.00
2013, 1165.00
2014, 1167.00
2015, 1167.00
2016, 1167.00
2017, 1167.00
2018, 1169.00
2019, 1167.00
2020, 1168.00
2021, 1169.00
2022, 1170.00
2023, 1168.00
2024, 1169.00
2025, 1169.00
2026, 1169.00
2027, 1170.00
2028, 1171.00
2029, 1171.00
2030, 1171.00
2031, 1173.00
2032, 1173.00
2033, 1172.00
2034, 1172.00
2035, 1173.00
2036, 1174.00
2037, 1173.00
2038, 1176.00
2039, 1175.00
2040, 1176.00
2041, 1175.00
2042, 1177.00
2043, 1176.00
2044, 1177.00
2045, 1178.00
2046, 1180.00
2047, 1178.00
2048, 1178.00
2049, 1179.00
2050, 1180.00
2051, 1182.00
2052, 1184.00
2053, 1184.00
2054, 1182.00
2055, 1182.00
2056, 1182.00
2057, 1184.00
2058, 1184.00
2059, 1185.00
2060, 1185.00
2061, 1186.00
2062, 1186.00
2063, 1188.00
2064, 1186.00
2065, 1187.00
2066, 1186.00
2067, 1190.00
2068, 1189.00
2069, 1193.00
2070, 1188.00
2071, 1191.00
2072, 1190.00
2073, 1191.00
2074, 1192.00
2075, 1191.00
2076, 1192.00
2077, 1195.00
2078, 1194.00
2079, 1195.00
2080, 1194.00
2081, 1196.00
2082, 1195.00
2083, 1196.00
2084, 1197.00
2085, 1198.00
2086, 1197.00
2087, 1196.00
2088, 1199.00
2089, 1199.00
2090, 1198.00
2091, 1199.00
2092, 1201.00
2093, 1198.00
2094, 1200.00
2095, 1200.00
2096, 1202.00
2097, 1199.00
2098, 1201.00
2099, 1201.00
2100, 1201.00
2101, 1203.00
2102, 1202.00
2103, 1201.00
2104, 1203.00
2105, 1202.00
2106, 1203.00
2107, 1203.00
2108, 1204.00
2109, 1203.00
2110, 1205.00
2111, 1205.00
2112, 1205.00
2113, 1203.00
2114, 1206.00
2115, 1206.00
2116, 1205.00
2117, 1205.00
2118, 1204.00
2119, 1206.00
2120, 1208.00
2121, 1207.00
2122, 1206.00
2123, 1207.00
2124, 1206.00
2125, 1207.00
2126, 1209.00
2127, 1208.00
2128, 1207.00
2129, 1207.00
2130, 1209.00
2131, 1207.00
2132, 1208.00
2133, 1208.00
2134, 1210.00
2135, 1209.00
2136, 1210.00
2137, 1209.00
2138, 1207.00
2139, 1210.00
2140, 1211.00
2141, 1210.00
2142, 1211.00
2143, 1210.00
2144, 1209.00
2145, 1211.00
2146, 1210.00
2147, 1211.00
2148, 1211.00
2149, 1210.00
2150, 1209.00
