FW version: 24
Log Version: 3.0.3

General Info:
       Command/Macro Performed,            Timestamp,             Device ID, COM Port, UART/I2C, Test Name, Host Major, Host Minor, Host Revision, Host Git Commit
            Single_measurement,  2023_06_28_12_46_08,       Insight2_F4_xxx,    USB-C,      USB,          ,          0,          1,             1,      4031237645

Show Spectrometer Status:
l0_version, f4_version, battery_perc, battery_mVolt, accelerometer_temp, accelerometer_x, accelerometer_y, accelerometer_z, compass_temp, compass_x, compass_y, compass_z, lamp_0, lamp_1, gain_0, gain_1
        17,         24,           50,          1921,               6400,              28,             336,           18704,            0,     65372,     65488,     65526,   3276,   3276,      0,      0

Temperature Statistic Info:
NTC AVG [°C], NTC2 AVG [°C]
      39.529,        39.264

Statistic Info:
M1:  num,      min,      max,   median,      AVG,      STD,M2:  num,      min,      max,   median,      AVG,      STD
     301,   652.00,   745.00,   672.00,   682.89,  28.7055,     401,   871.00,   927.00,   899.00,   898.06,  18.4174,

Measurements:
Wavelength, Data Amplitude
1350, 666.00
1351, 665.00
1352, 665.00
1353, 665.00
1354, 664.00
1355, 664.00
1356, 664.00
1357, 664.00
1358, 663.00
1359, 663.00
1360, 663.00
1361, 663.00
1362, 663.00
1363, 662.00
1364, 662.00
1365, 662.00
1366, 661.00
1367, 661.00
1368, 661.00
1369, 660.00
1370, 660.00
1371, 659.00
1372, 659.00
1373, 658.00
1374, 658.00
1375, 658.00
1376, 658.00
1377, 658.00
1378, 657.00
1379, 657.00
1380, 657.00
1381, 656.00
1382, 656.00
1383, 656.00
1384, 656.00
1385, 656.00
1386, 656.00
1387, 655.00
1388, 654.00
1389, 655.00
1390, 654.00
1391, 655.00
1392, 654.00
1393, 655.00
1394, 653.00
1395, 654.00
1396, 654.00
1397, 653.00
1398, 653.00
1399, 653.00
1400, 653.00
1401, 654.00
1402, 653.00
1403, 653.00
1404, 653.00
1405, 653.00
1406, 653.00
1407, 653.00
1408, 653.00
1409, 653.00
1410, 653.00
1411, 653.00
1412, 653.00
1413, 653.00
1414, 653.00
1415, 652.00
1416, 652.00
1417, 652.00
1418, 653.00
1419, 652.00
1420, 653.00
1421, 652.00
1422, 652.00
1423, 653.00
1424, 653.00
1425, 653.00
1426, 653.00
1427, 653.00
1428, 653.00
1429, 654.00
1430, 653.00
1431, 653.00
1432, 653.00
1433, 653.00
1434, 654.00
1435, 654.00
1436, 654.00
1437, 654.00
1438, 655.00
1439, 655.00
1440, 655.00
1441, 655.00
1442, 655.00
1443, 655.00
1444, 656.00
1445, 656.00
1446, 656.00
1447, 656.00
1448, 656.00
1449, 656.00
1450, 656.00
1451, 657.00
1452, 657.00
1453, 657.00
1454, 658.00
1455, 658.00
1456, 658.00
1457, 658.00
1458, 659.00
1459, 659.00
1460, 659.00
1461, 659.00
1462, 659.00
1463, 659.00
1464, 660.00
1465, 661.00
1466, 661.00
1467, 661.00
1468, 661.00
1469, 661.00
1470, 662.00
1471, 662.00
1472, 662.00
1473, 663.00
1474, 663.00
1475, 664.00
1476, 663.00
1477, 664.00
1478, 665.00
1479, 665.00
1480, 665.00
1481, 665.00
1482, 666.00
1483, 666.00
1484, 667.00
1485, 667.00
1486, 667.00
1487, 668.00
1488, 668.00
1489, 669.00
1490, 669.00
1491, 669.00
1492, 670.00
1493, 669.00
1494, 670.00
1495, 671.00
1496, 671.00
1497, 672.00
1498, 672.00
1499, 672.00
1500, 672.00
1501, 673.00
1502, 674.00
1503, 674.00
1504, 674.00
1505, 675.00
1506, 675.00
1507, 675.00
1508, 676.00
1509, 676.00
1510, 676.00
1511, 677.00
1512, 677.00
1513, 678.00
1514, 678.00
1515, 678.00
1516, 679.00
1517, 679.00
1518, 680.00
1519, 680.00
1520, 681.00
1521, 681.00
1522, 681.00
1523, 682.00
1524, 683.00
1525, 683.00
1526, 683.00
1527, 683.00
1528, 684.00
1529, 685.00
1530, 685.00
1531, 685.00
1532, 686.00
1533, 686.00
1534, 687.00
1535, 687.00
1536, 688.00
1537, 688.00
1538, 689.00
1539, 689.00
1540, 689.00
1541, 691.00
1542, 690.00
1543, 691.00
1544, 691.00
1545, 692.00
1546, 692.00
1547, 692.00
1548, 693.00
1549, 694.00
1550, 694.00
1551, 694.00
1552, 695.00
1553, 696.00
1554, 696.00
1555, 696.00
1556, 697.00
1557, 697.00
1558, 698.00
1559, 698.00
1560, 699.00
1561, 700.00
1562, 700.00
1563, 700.00
1564, 702.00
1565, 702.00
1566, 702.00
1567, 703.00
1568, 703.00
1569, 704.00
1570, 705.00
1571, 705.00
1572, 705.00
1573, 706.00
1574, 706.00
1575, 707.00
1576, 707.00
1577, 708.00
1578, 708.00
1579, 709.00
1580, 709.00
1581, 710.00
1582, 710.00
1583, 710.00
1584, 711.00
1585, 711.00
1586, 712.00
1587, 712.00
1588, 712.00
1589, 713.00
1590, 713.00
1591, 714.00
1592, 715.00
1593, 715.00
1594, 715.00
1595, 716.00
1596, 716.00
1597, 717.00
1598, 717.00
1599, 718.00
1600, 718.00
1601, 719.00
1602, 719.00
1603, 719.00
1604, 720.00
1605, 720.00
1606, 721.00
1607, 721.00
1608, 722.00
1609, 723.00
1610, 724.00
1611, 723.00
1612, 724.00
1613, 725.00
1614, 725.00
1615, 726.00
1616, 726.00
1617, 727.00
1618, 728.00
1619, 728.00
1620, 729.00
1621, 729.00
1622, 730.00
1623, 731.00
1624, 731.00
1625, 732.00
1626, 732.00
1627, 733.00
1628, 733.00
1629, 734.00
1630, 735.00
1631, 735.00
1632, 735.00
1633, 737.00
1634, 736.00
1635, 737.00
1636, 738.00
1637, 738.00
1638, 738.00
1639, 739.00
1640, 739.00
1641, 740.00
1642, 740.00
1643, 741.00
1644, 742.00
1645, 742.00
1646, 743.00
1647, 743.00
1648, 743.00
1649, 744.00
1650, 745.00

1750, 926.00
1751, 926.00
1752, 925.00
1753, 925.00
1754, 926.00
1755, 926.00
1756, 926.00
1757, 926.00
1758, 926.00
1759, 925.00
1760, 926.00
1761, 926.00
1762, 926.00
1763, 927.00
1764, 925.00
1765, 925.00
1766, 925.00
1767, 925.00
1768, 925.00
1769, 925.00
1770, 926.00
1771, 925.00
1772, 925.00
1773, 924.00
1774, 925.00
1775, 924.00
1776, 924.00
1777, 924.00
1778, 923.00
1779, 923.00
1780, 924.00
1781, 923.00
1782, 923.00
1783, 923.00
1784, 923.00
1785, 922.00
1786, 923.00
1787, 922.00
1788, 922.00
1789, 921.00
1790, 922.00
1791, 921.00
1792, 921.00
1793, 921.00
1794, 921.00
1795, 921.00
1796, 921.00
1797, 920.00
1798, 920.00
1799, 920.00
1800, 920.00
1801, 920.00
1802, 919.00
1803, 920.00
1804, 919.00
1805, 919.00
1806, 919.00
1807, 919.00
1808, 919.00
1809, 919.00
1810, 919.00
1811, 919.00
1812, 918.00
1813, 918.00
1814, 918.00
1815, 917.00
1816, 917.00
1817, 917.00
1818, 917.00
1819, 917.00
1820, 917.00
1821, 916.00
1822, 916.00
1823, 916.00
1824, 916.00
1825, 915.00
1826, 914.00
1827, 915.00
1828, 914.00
1829, 914.00
1830, 913.00
1831, 912.00
1832, 912.00
1833, 912.00
1834, 911.00
1835, 911.00
1836, 910.00
1837, 909.00
1838, 909.00
1839, 908.00
1840, 907.00
1841, 907.00
1842, 906.00
1843, 905.00
1844, 904.00
1845, 903.00
1846, 903.00
1847, 903.00
1848, 901.00
1849, 900.00
1850, 899.00
1851, 898.00
1852, 897.00
1853, 897.00
1854, 895.00
1855, 895.00
1856, 894.00
1857, 893.00
1858, 892.00
1859, 891.00
1860, 890.00
1861, 889.00
1862, 889.00
1863, 888.00
1864, 887.00
1865, 887.00
1866, 886.00
1867, 886.00
1868, 884.00
1869, 884.00
1870, 883.00
1871, 882.00
1872, 881.00
1873, 881.00
1874, 881.00
1875, 880.00
1876, 880.00
1877, 880.00
1878, 879.00
1879, 879.00
1880, 878.00
1881, 878.00
1882, 878.00
1883, 877.00
1884, 877.00
1885, 876.00
1886, 876.00
1887, 876.00
1888, 876.00
1889, 876.00
1890, 875.00
1891, 875.00
1892, 874.00
1893, 875.00
1894, 875.00
1895, 874.00
1896, 874.00
1897, 874.00
1898, 874.00
1899, 873.00
1900, 874.00
1901, 873.00
1902, 874.00
1903, 873.00
1904, 873.00
1905, 873.00
1906, 873.00
1907, 873.00
1908, 873.00
1909, 873.00
1910, 872.00
1911, 871.00
1912, 872.00
1913, 872.00
1914, 873.00
1915, 872.00
1916, 872.00
1917, 872.00
1918, 872.00
1919, 872.00
1920, 872.00
1921, 872.00
1922, 872.00
1923, 872.00
1924, 873.00
1925, 872.00
1926, 871.00
1927, 871.00
1928, 873.00
1929, 872.00
1930, 872.00
1931, 872.00
1932, 872.00
1933, 872.00
1934, 872.00
1935, 873.00
1936, 873.00
1937, 872.00
1938, 873.00
1939, 873.00
1940, 873.00
1941, 872.00
1942, 874.00
1943, 873.00
1944, 873.00
1945, 873.00
1946, 874.00
1947, 874.00
1948, 874.00
1949, 874.00
1950, 873.00
1951, 874.00
1952, 875.00
1953, 874.00
1954, 874.00
1955, 874.00
1956, 875.00
1957, 875.00
1958, 875.00
1959, 876.00
1960, 875.00
1961, 876.00
1962, 876.00
1963, 876.00
1964, 877.00
1965, 877.00
1966, 877.00
1967, 877.00
1968, 877.00
1969, 878.00
1970, 877.00
1971, 878.00
1972, 879.00
1973, 878.00
1974, 878.00
1975, 879.00
1976, 880.00
1977, 879.00
1978, 880.00
1979, 881.00
1980, 880.00
1981, 881.00
1982, 881.00
1983, 880.00
1984, 882.00
1985, 881.00
1986, 882.00
1987, 882.00
1988, 883.00
1989, 883.00
1990, 883.00
1991, 883.00
1992, 883.00
1993, 884.00
1994, 884.00
1995, 884.00
1996, 884.00
1997, 884.00
1998, 884.00
1999, 884.00
2000, 885.00
2001, 885.00
2002, 885.00
2003, 887.00
2004, 886.00
2005, 886.00
2006, 887.00
2007, 887.00
2008, 887.00
2009, 887.00
2010, 887.00
2011, 888.00
2012, 888.00
2013, 888.00
2014, 889.00
2015, 888.00
2016, 889.00
2017, 889.00
2018, 889.00
2019, 890.00
2020, 889.00
2021, 889.00
2022, 890.00
2023, 891.00
2024, 890.00
2025, 890.00
2026, 892.00
2027, 891.00
2028, 891.00
2029, 892.00
2030, 892.00
2031, 892.00
2032, 892.00
2033, 893.00
2034, 893.00
2035, 894.00
2036, 894.00
2037, 895.00
2038, 894.00
2039, 895.00
2040, 895.00
2041, 895.00
2042, 895.00
2043, 896.00
2044, 896.00
2045, 896.00
2046, 897.00
2047, 897.00
2048, 897.00
2049, 898.00
2050, 898.00
2051, 899.00
2052, 899.00
2053, 899.00
2054, 900.00
2055, 900.00
2056, 900.00
2057, 900.00
2058, 901.00
2059, 901.00
2060, 902.00
2061, 901.00
2062, 901.00
2063, 903.00
2064, 904.00
2065, 902.00
2066, 904.00
2067, 904.00
2068, 904.00
2069, 905.00
2070, 905.00
2071, 905.00
2072, 906.00
2073, 906.00
2074, 906.00
2075, 906.00
2076, 906.00
2077, 906.00
2078, 907.00
2079, 907.00
2080, 908.00
2081, 908.00
2082, 908.00
2083, 909.00
2084, 909.00
2085, 909.00
2086, 909.00
2087, 910.00
2088, 909.00
2089, 910.00
2090, 911.00
2091, 910.00
2092, 911.00
2093, 911.00
2094, 911.00
2095, 911.00
2096, 912.00
2097, 913.00
2098, 913.00
2099, 912.00
2100, 913.00
2101, 913.00
2102, 913.00
2103, 913.00
2104, 914.00
2105, 913.00
2106, 913.00
2107, 914.00
2108, 914.00
2109, 914.00
2110, 914.00
2111, 914.00
2112, 914.00
2113, 915.00
2114, 914.00
2115, 915.00
2116, 915.00
2117, 915.00
2118, 915.00
2119, 916.00
2120, 915.00
2121, 916.00
2122, 916.00
2123, 916.00
2124, 916.00
2125, 916.00
2126, 916.00
2127, 916.00
2128, 917.00
2129, 917.00
2130, 917.00
2131, 916.00
2132, 917.00
2133, 917.00
2134, 917.00
2135, 918.00
2136, 917.00
2137, 917.00
2138, 917.00
2139, 917.00
2140, 917.00
2141, 917.00
2142, 917.00
2143, 917.00
2144, 917.00
2145, 918.00
2146, 918.00
2147, 918.00
2148, 918.00
2149, 918.00
2150, 918.00
