FW version: 24
Log Version: 3.0.3

General Info:
       Command/Macro Performed,            Timestamp,             Device ID, COM Port, UART/I2C, Test Name, Host Major, Host Minor, Host Revision, Host Git Commit
            Single_measurement,  2023_06_28_12_47_06,       Insight2_F4_xxx,    USB-C,      USB,          ,          0,          1,             1,      4031237645

Show Spectrometer Status:
l0_version, f4_version, battery_perc, battery_mVolt, accelerometer_temp, accelerometer_x, accelerometer_y, accelerometer_z, compass_temp, compass_x, compass_y, compass_z, lamp_0, lamp_1, gain_0, gain_1
        17,         24,           50,          1921,               6432,              56,             364,           18792,            0,     65400,     65518,     65528,   2866,   2866,      1,      1

Temperature Statistic Info:
NTC AVG [°C], NTC2 AVG [°C]
      39.850,        39.529

Statistic Info:
M1:  num,      min,      max,   median,      AVG,      STD,M2:  num,      min,      max,   median,      AVG,      STD
     301,  1462.00,  1677.00,  1510.00,  1533.47,  66.8431,     401,  2022.00,  2151.00,  2088.00,  2085.29,  43.4904,

Measurements:
Wavelength, Data Amplitude
1350, 1491.00
1351, 1490.00
1352, 1490.00
1353, 1489.00
1354, 1488.00
1355, 1487.00
1356, 1487.00
1357, 1487.00
1358, 1488.00
1359, 1486.00
1360, 1486.00
1361, 1485.00
1362, 1485.00
1363, 1483.00
1364, 1482.00
1365, 1482.00
1366, 1482.00
1367, 1481.00
1368, 1480.00
1369, 1479.00
1370, 1479.00
1371, 1477.00
1372, 1477.00
1373, 1475.00
1374, 1476.00
1375, 1476.00
1376, 1473.00
1377, 1472.00
1378, 1473.00
1379, 1472.00
1380, 1471.00
1381, 1470.00
1382, 1471.00
1383, 1470.00
1384, 1469.00
1385, 1469.00
1386, 1468.00
1387, 1468.00
1388, 1468.00
1389, 1467.00
1390, 1467.00
1391, 1465.00
1392, 1466.00
1393, 1466.00
1394, 1466.00
1395, 1465.00
1396, 1465.00
1397, 1465.00
1398, 1465.00
1399, 1463.00
1400, 1464.00
1401, 1465.00
1402, 1463.00
1403, 1464.00
1404, 1463.00
1405, 1464.00
1406, 1464.00
1407, 1463.00
1408, 1463.00
1409, 1463.00
1410, 1464.00
1411, 1464.00
1412, 1463.00
1413, 1464.00
1414, 1463.00
1415, 1463.00
1416, 1463.00
1417, 1463.00
1418, 1463.00
1419, 1463.00
1420, 1462.00
1421, 1463.00
1422, 1463.00
1423, 1464.00
1424, 1463.00
1425, 1464.00
1426, 1465.00
1427, 1464.00
1428, 1463.00
1429, 1465.00
1430, 1465.00
1431, 1465.00
1432, 1465.00
1433, 1465.00
1434, 1467.00
1435, 1466.00
1436, 1467.00
1437, 1467.00
1438, 1467.00
1439, 1468.00
1440, 1468.00
1441, 1469.00
1442, 1469.00
1443, 1470.00
1444, 1470.00
1445, 1470.00
1446, 1470.00
1447, 1472.00
1448, 1472.00
1449, 1473.00
1450, 1473.00
1451, 1473.00
1452, 1474.00
1453, 1474.00
1454, 1475.00
1455, 1475.00
1456, 1476.00
1457, 1476.00
1458, 1477.00
1459, 1478.00
1460, 1478.00
1461, 1478.00
1462, 1479.00
1463, 1481.00
1464, 1479.00
1465, 1482.00
1466, 1482.00
1467, 1483.00
1468, 1483.00
1469, 1485.00
1470, 1486.00
1471, 1486.00
1472, 1487.00
1473, 1488.00
1474, 1488.00
1475, 1489.00
1476, 1490.00
1477, 1490.00
1478, 1492.00
1479, 1491.00
1480, 1492.00
1481, 1495.00
1482, 1495.00
1483, 1495.00
1484, 1495.00
1485, 1497.00
1486, 1498.00
1487, 1499.00
1488, 1499.00
1489, 1501.00
1490, 1503.00
1491, 1503.00
1492, 1502.00
1493, 1505.00
1494, 1506.00
1495, 1507.00
1496, 1508.00
1497, 1508.00
1498, 1509.00
1499, 1510.00
1500, 1510.00
1501, 1511.00
1502, 1512.00
1503, 1513.00
1504, 1514.00
1505, 1515.00
1506, 1515.00
1507, 1517.00
1508, 1517.00
1509, 1518.00
1510, 1519.00
1511, 1520.00
1512, 1521.00
1513, 1521.00
1514, 1523.00
1515, 1524.00
1516, 1525.00
1517, 1526.00
1518, 1527.00
1519, 1528.00
1520, 1529.00
1521, 1530.00
1522, 1531.00
1523, 1532.00
1524, 1533.00
1525, 1534.00
1526, 1535.00
1527, 1536.00
1528, 1537.00
1529, 1539.00
1530, 1539.00
1531, 1540.00
1532, 1540.00
1533, 1542.00
1534, 1544.00
1535, 1545.00
1536, 1545.00
1537, 1546.00
1538, 1547.00
1539, 1548.00
1540, 1549.00
1541, 1550.00
1542, 1551.00
1543, 1552.00
1544, 1554.00
1545, 1555.00
1546, 1557.00
1547, 1558.00
1548, 1558.00
1549, 1559.00
1550, 1561.00
1551, 1561.00
1552, 1562.00
1553, 1563.00
1554, 1563.00
1555, 1565.00
1556, 1568.00
1557, 1568.00
1558, 1569.00
1559, 1570.00
1560, 1571.00
1561, 1573.00
1562, 1574.00
1563, 1574.00
1564, 1576.00
1565, 1577.00
1566, 1578.00
1567, 1579.00
1568, 1581.00
1569, 1581.00
1570, 1582.00
1571, 1583.00
1572, 1586.00
1573, 1586.00
1574, 1587.00
1575, 1589.00
1576, 1589.00
1577, 1591.00
1578, 1592.00
1579, 1593.00
1580, 1594.00
1581, 1595.00
1582, 1597.00
1583, 1597.00
1584, 1599.00
1585, 1599.00
1586, 1600.00
1587, 1602.00
1588, 1602.00
1589, 1603.00
1590, 1604.00
1591, 1606.00
1592, 1607.00
1593, 1607.00
1594, 1608.00
1595, 1610.00
1596, 1610.00
1597, 1612.00
1598, 1613.00
1599, 1613.00
1600, 1616.00
1601, 1616.00
1602, 1617.00
1603, 1618.00
1604, 1619.00
1605, 1621.00
1606, 1621.00
1607, 1624.00
1608, 1624.00
1609, 1625.00
1610, 1626.00
1611, 1628.00
1612, 1629.00
1613, 1630.00
1614, 1633.00
1615, 1633.00
1616, 1635.00
1617, 1637.00
1618, 1637.00
1619, 1639.00
1620, 1640.00
1621, 1642.00
1622, 1644.00
1623, 1644.00
1624, 1646.00
1625, 1647.00
1626, 1649.00
1627, 1650.00
1628, 1651.00
1629, 1653.00
1630, 1654.00
1631, 1655.00
1632, 1657.00
1633, 1658.00
1634, 1659.00
1635, 1659.00
1636, 1661.00
1637, 1663.00
1638, 1663.00
1639, 1664.00
1640, 1664.00
1641, 1667.00
1642, 1667.00
1643, 1669.00
1644, 1669.00
1645, 1671.00
1646, 1671.00
1647, 1673.00
1648, 1675.00
1649, 1676.00
1650, 1677.00

1750, 2147.00
1751, 2149.00
1752, 2147.00
1753, 2150.00
1754, 2148.00
1755, 2151.00
1756, 2147.00
1757, 2150.00
1758, 2148.00
1759, 2148.00
1760, 2149.00
1761, 2150.00
1762, 2149.00
1763, 2148.00
1764, 2148.00
1765, 2148.00
1766, 2145.00
1767, 2147.00
1768, 2148.00
1769, 2148.00
1770, 2147.00
1771, 2146.00
1772, 2147.00
1773, 2145.00
1774, 2147.00
1775, 2145.00
1776, 2145.00
1777, 2143.00
1778, 2145.00
1779, 2143.00
1780, 2143.00
1781, 2143.00
1782, 2141.00
1783, 2144.00
1784, 2141.00
1785, 2142.00
1786, 2141.00
1787, 2140.00
1788, 2140.00
1789, 2139.00
1790, 2140.00
1791, 2139.00
1792, 2138.00
1793, 2137.00
1794, 2138.00
1795, 2139.00
1796, 2135.00
1797, 2136.00
1798, 2135.00
1799, 2137.00
1800, 2136.00
1801, 2135.00
1802, 2137.00
1803, 2136.00
1804, 2133.00
1805, 2134.00
1806, 2134.00
1807, 2133.00
1808, 2133.00
1809, 2133.00
1810, 2132.00
1811, 2133.00
1812, 2134.00
1813, 2131.00
1814, 2131.00
1815, 2133.00
1816, 2130.00
1817, 2128.00
1818, 2130.00
1819, 2128.00
1820, 2127.00
1821, 2127.00
1822, 2126.00
1823, 2125.00
1824, 2124.00
1825, 2124.00
1826, 2122.00
1827, 2121.00
1828, 2123.00
1829, 2120.00
1830, 2119.00
1831, 2119.00
1832, 2118.00
1833, 2116.00
1834, 2115.00
1835, 2112.00
1836, 2112.00
1837, 2111.00
1838, 2110.00
1839, 2107.00
1840, 2108.00
1841, 2106.00
1842, 2103.00
1843, 2100.00
1844, 2098.00
1845, 2097.00
1846, 2095.00
1847, 2093.00
1848, 2092.00
1849, 2090.00
1850, 2088.00
1851, 2084.00
1852, 2084.00
1853, 2081.00
1854, 2080.00
1855, 2075.00
1856, 2073.00
1857, 2072.00
1858, 2070.00
1859, 2069.00
1860, 2067.00
1861, 2065.00
1862, 2063.00
1863, 2061.00
1864, 2059.00
1865, 2056.00
1866, 2055.00
1867, 2054.00
1868, 2054.00
1869, 2050.00
1870, 2050.00
1871, 2048.00
1872, 2045.00
1873, 2044.00
1874, 2043.00
1875, 2042.00
1876, 2041.00
1877, 2041.00
1878, 2039.00
1879, 2039.00
1880, 2038.00
1881, 2038.00
1882, 2035.00
1883, 2035.00
1884, 2036.00
1885, 2035.00
1886, 2034.00
1887, 2032.00
1888, 2031.00
1889, 2031.00
1890, 2033.00
1891, 2029.00
1892, 2030.00
1893, 2029.00
1894, 2028.00
1895, 2029.00
1896, 2026.00
1897, 2027.00
1898, 2029.00
1899, 2028.00
1900, 2027.00
1901, 2026.00
1902, 2028.00
1903, 2026.00
1904, 2026.00
1905, 2025.00
1906, 2025.00
1907, 2024.00
1908, 2026.00
1909, 2025.00
1910, 2024.00
1911, 2024.00
1912, 2024.00
1913, 2024.00
1914, 2023.00
1915, 2023.00
1916, 2023.00
1917, 2025.00
1918, 2024.00
1919, 2024.00
1920, 2023.00
1921, 2022.00
1922, 2025.00
1923, 2023.00
1924, 2023.00
1925, 2024.00
1926, 2024.00
1927, 2023.00
1928, 2023.00
1929, 2025.00
1930, 2023.00
1931, 2025.00
1932, 2025.00
1933, 2024.00
1934, 2024.00
1935, 2024.00
1936, 2025.00
1937, 2024.00
1938, 2023.00
1939, 2024.00
1940, 2023.00
1941, 2026.00
1942, 2026.00
1943, 2026.00
1944, 2027.00
1945, 2028.00
1946, 2027.00
1947, 2027.00
1948, 2027.00
1949, 2026.00
1950, 2027.00
1951, 2029.00
1952, 2029.00
1953, 2029.00
1954, 2029.00
1955, 2031.00
1956, 2029.00
1957, 2031.00
1958, 2031.00
1959, 2033.00
1960, 2031.00
1961, 2032.00
1962, 2033.00
1963, 2032.00
1964, 2035.00
1965, 2035.00
1966, 2035.00
1967, 2036.00
1968, 2037.00
1969, 2037.00
1970, 2039.00
1971, 2037.00
1972, 2039.00
1973, 2040.00
1974, 2039.00
1975, 2039.00
1976, 2042.00
1977, 2041.00
1978, 2044.00
1979, 2042.00
1980, 2043.00
1981, 2044.00
1982, 2043.00
1983, 2044.00
1984, 2045.00
1985, 2045.00
1986, 2047.00
1987, 2049.00
1988, 2049.00
1989, 2048.00
1990, 2051.00
1991, 2051.00
1992, 2050.00
1993, 2050.00
1994, 2053.00
1995, 2053.00
1996, 2051.00
1997, 2055.00
1998, 2053.00
1999, 2054.00
2000, 2055.00
2001, 2057.00
2002, 2055.00
2003, 2056.00
2004, 2058.00
2005, 2059.00
2006, 2059.00
2007, 2059.00
2008, 2058.00
2009, 2062.00
2010, 2062.00
2011, 2061.00
2012, 2060.00
2013, 2063.00
2014, 2063.00
2015, 2063.00
2016, 2066.00
2017, 2064.00
2018, 2066.00
2019, 2065.00
2020, 2066.00
2021, 2067.00
2022, 2068.00
2023, 2067.00
2024, 2068.00
2025, 2069.00
2026, 2069.00
2027, 2071.00
2028, 2070.00
2029, 2070.00
2030, 2071.00
2031, 2072.00
2032, 2073.00
2033, 2074.00
2034, 2075.00
2035, 2076.00
2036, 2075.00
2037, 2076.00
2038, 2078.00
2039, 2078.00
2040, 2077.00
2041, 2079.00
2042, 2081.00
2043, 2080.00
2044, 2081.00
2045, 2082.00
2046, 2082.00
2047, 2084.00
2048, 2085.00
2049, 2085.00
2050, 2087.00
2051, 2088.00
2052, 2089.00
2053, 2089.00
2054, 2089.00
2055, 2090.00
2056, 2092.00
2057, 2093.00
2058, 2092.00
2059, 2092.00
2060, 2095.00
2061, 2097.00
2062, 2096.00
2063, 2097.00
2064, 2098.00
2065, 2098.00
2066, 2098.00
2067, 2101.00
2068, 2101.00
2069, 2101.00
2070, 2103.00
2071, 2103.00
2072, 2104.00
2073, 2105.00
2074, 2106.00
2075, 2107.00
2076, 2107.00
2077, 2107.00
2078, 2109.00
2079, 2109.00
2080, 2110.00
2081, 2112.00
2082, 2111.00
2083, 2109.00
2084, 2114.00
2085, 2113.00
2086, 2113.00
2087, 2115.00
2088, 2115.00
2089, 2114.00
2090, 2117.00
2091, 2118.00
2092, 2117.00
2093, 2118.00
2094, 2117.00
2095, 2120.00
2096, 2119.00
2097, 2120.00
2098, 2121.00
2099, 2124.00
2100, 2124.00
2101, 2122.00
2102, 2123.00
2103, 2125.00
2104, 2123.00
2105, 2123.00
2106, 2125.00
2107, 2124.00
2108, 2124.00
2109, 2125.00
2110, 2124.00
2111, 2123.00
2112, 2125.00
2113, 2126.00
2114, 2124.00
2115, 2128.00
2116, 2128.00
2117, 2128.00
2118, 2127.00
2119, 2127.00
2120, 2127.00
2121, 2129.00
2122, 2128.00
2123, 2128.00
2124, 2129.00
2125, 2130.00
2126, 2128.00
2127, 2131.00
2128, 2130.00
2129, 2130.00
2130, 2130.00
2131, 2129.00
2132, 2131.00
2133, 2133.00
2134, 2132.00
2135, 2130.00
2136, 2134.00
2137, 2132.00
2138, 2134.00
2139, 2134.00
2140, 2131.00
2141, 2134.00
2142, 2132.00
2143, 2133.00
2144, 2135.00
2145, 2135.00
2146, 2133.00
2147, 2136.00
2148, 2135.00
2149, 2135.00
2150, 2135.00
