FW version: 24
Log Version: 3.0.3

General Info:
       Command/Macro Performed,            Timestamp,             Device ID, COM Port, UART/I2C, Test Name, Host Major, Host Minor, Host Revision, Host Git Commit
            Single_measurement,  2023_06_27_11_11_00,       Insight2_F4_xxx,    USB-C,      USB,          ,          0,          1,             1,      4031237645

Show Spectrometer Status:
l0_version, f4_version, battery_perc, battery_mVolt, accelerometer_temp, accelerometer_x, accelerometer_y, accelerometer_z, compass_temp, compass_x, compass_y, compass_z, lamp_0, lamp_1, gain_0, gain_1
        17,         24,           95,          2078,               5424,           65468,              84,           18464,            0,     65533,     65404,     65334,   2047,   2047,    1,    1

Temperature Statistic Info:
NTC AVG [°C], NTC2 AVG [°C]
      36.835,        36.494

Statistic Info:
M1:  num,      min,      max,   median,      AVG,      STD,M2:  num,      min,      max,   median,      AVG,      STD
     301,   600.00,   693.00,   621.00,   630.76,  28.6446,     401,   908.00,   964.00,   933.00,   933.91,  18.2167,

Measurements:
Wavelength, Data Amplitude
1350, 614.00
1351, 613.00
1352, 614.00
1353, 612.00
1354, 613.00
1355, 613.00
1356, 613.00
1357, 612.00
1358, 611.00
1359, 611.00
1360, 612.00
1361, 611.00
1362, 612.00
1363, 610.00
1364, 610.00
1365, 610.00
1366, 608.00
1367, 609.00
1368, 608.00
1369, 609.00
1370, 608.00
1371, 607.00
1372, 606.00
1373, 607.00
1374, 607.00
1375, 606.00
1376, 605.00
1377, 604.00
1378, 605.00
1379, 605.00
1380, 604.00
1381, 604.00
1382, 604.00
1383, 604.00
1384, 603.00
1385, 603.00
1386, 602.00
1387, 602.00
1388, 602.00
1389, 603.00
1390, 602.00
1391, 603.00
1392, 602.00
1393, 602.00
1394, 601.00
1395, 601.00
1396, 601.00
1397, 601.00
1398, 602.00
1399, 600.00
1400, 601.00
1401, 600.00
1402, 601.00
1403, 601.00
1404, 601.00
1405, 601.00
1406, 601.00
1407, 601.00
1408, 600.00
1409, 601.00
1410, 600.00
1411, 600.00
1412, 601.00
1413, 601.00
1414, 601.00
1415, 600.00
1416, 600.00
1417, 601.00
1418, 600.00
1419, 600.00
1420, 601.00
1421, 601.00
1422, 600.00
1423, 600.00
1424, 601.00
1425, 601.00
1426, 601.00
1427, 601.00
1428, 601.00
1429, 601.00
1430, 602.00
1431, 601.00
1432, 602.00
1433, 601.00
1434, 602.00
1435, 602.00
1436, 602.00
1437, 602.00
1438, 602.00
1439, 603.00
1440, 603.00
1441, 603.00
1442, 603.00
1443, 603.00
1444, 603.00
1445, 603.00
1446, 603.00
1447, 604.00
1448, 603.00
1449, 603.00
1450, 605.00
1451, 605.00
1452, 605.00
1453, 605.00
1454, 604.00
1455, 605.00
1456, 604.00
1457, 605.00
1458, 606.00
1459, 607.00
1460, 606.00
1461, 607.00
1462, 608.00
1463, 607.00
1464, 607.00
1465, 608.00
1466, 608.00
1467, 609.00
1468, 609.00
1469, 609.00
1470, 609.00
1471, 610.00
1472, 610.00
1473, 610.00
1474, 610.00
1475, 610.00
1476, 612.00
1477, 612.00
1478, 612.00
1479, 613.00
1480, 612.00
1481, 613.00
1482, 613.00
1483, 615.00
1484, 614.00
1485, 615.00
1486, 615.00
1487, 616.00
1488, 616.00
1489, 616.00
1490, 617.00
1491, 617.00
1492, 617.00
1493, 617.00
1494, 619.00
1495, 619.00
1496, 619.00
1497, 619.00
1498, 620.00
1499, 621.00
1500, 621.00
1501, 621.00
1502, 621.00
1503, 622.00
1504, 623.00
1505, 623.00
1506, 623.00
1507, 624.00
1508, 624.00
1509, 624.00
1510, 625.00
1511, 626.00
1512, 626.00
1513, 626.00
1514, 627.00
1515, 627.00
1516, 628.00
1517, 628.00
1518, 629.00
1519, 630.00
1520, 629.00
1521, 630.00
1522, 630.00
1523, 631.00
1524, 631.00
1525, 632.00
1526, 632.00
1527, 633.00
1528, 634.00
1529, 634.00
1530, 634.00
1531, 634.00
1532, 635.00
1533, 635.00
1534, 636.00
1535, 637.00
1536, 637.00
1537, 638.00
1538, 637.00
1539, 638.00
1540, 639.00
1541, 639.00
1542, 639.00
1543, 640.00
1544, 640.00
1545, 641.00
1546, 641.00
1547, 642.00
1548, 643.00
1549, 641.00
1550, 643.00
1551, 643.00
1552, 642.00
1553, 644.00
1554, 645.00
1555, 645.00
1556, 645.00
1557, 646.00
1558, 645.00
1559, 646.00
1560, 647.00
1561, 647.00
1562, 648.00
1563, 648.00
1564, 649.00
1565, 650.00
1566, 650.00
1567, 649.00
1568, 650.00
1569, 652.00
1570, 652.00
1571, 651.00
1572, 653.00
1573, 653.00
1574, 653.00
1575, 654.00
1576, 654.00
1577, 655.00
1578, 656.00
1579, 656.00
1580, 656.00
1581, 657.00
1582, 656.00
1583, 658.00
1584, 657.00
1585, 658.00
1586, 658.00
1587, 660.00
1588, 659.00
1589, 660.00
1590, 660.00
1591, 660.00
1592, 661.00
1593, 662.00
1594, 662.00
1595, 663.00
1596, 663.00
1597, 664.00
1598, 664.00
1599, 664.00
1600, 665.00
1601, 666.00
1602, 666.00
1603, 666.00
1604, 667.00
1605, 668.00
1606, 668.00
1607, 669.00
1608, 669.00
1609, 671.00
1610, 670.00
1611, 670.00
1612, 672.00
1613, 672.00
1614, 674.00
1615, 674.00
1616, 674.00
1617, 676.00
1618, 675.00
1619, 676.00
1620, 676.00
1621, 678.00
1622, 678.00
1623, 678.00
1624, 679.00
1625, 679.00
1626, 681.00
1627, 681.00
1628, 681.00
1629, 682.00
1630, 683.00
1631, 683.00
1632, 684.00
1633, 684.00
1634, 684.00
1635, 685.00
1636, 685.00
1637, 686.00
1638, 686.00
1639, 687.00
1640, 688.00
1641, 688.00
1642, 688.00
1643, 689.00
1644, 689.00
1645, 690.00
1646, 690.00
1647, 690.00
1648, 692.00
1649, 692.00
1650, 693.00

1750, 962.00
1751, 963.00
1752, 963.00
1753, 962.00
1754, 962.00
1755, 962.00
1756, 963.00
1757, 963.00
1758, 963.00
1759, 963.00
1760, 963.00
1761, 963.00
1762, 963.00
1763, 962.00
1764, 962.00
1765, 962.00
1766, 962.00
1767, 962.00
1768, 962.00
1769, 963.00
1770, 964.00
1771, 962.00
1772, 963.00
1773, 964.00
1774, 961.00
1775, 963.00
1776, 962.00
1777, 962.00
1778, 962.00
1779, 962.00
1780, 962.00
1781, 960.00
1782, 961.00
1783, 961.00
1784, 960.00
1785, 961.00
1786, 959.00
1787, 958.00
1788, 959.00
1789, 958.00
1790, 960.00
1791, 957.00
1792, 959.00
1793, 959.00
1794, 959.00
1795, 959.00
1796, 959.00
1797, 956.00
1798, 958.00
1799, 957.00
1800, 958.00
1801, 957.00
1802, 958.00
1803, 958.00
1804, 959.00
1805, 957.00
1806, 957.00
1807, 957.00
1808, 957.00
1809, 955.00
1810, 956.00
1811, 954.00
1812, 957.00
1813, 954.00
1814, 954.00
1815, 955.00
1816, 955.00
1817, 956.00
1818, 953.00
1819, 954.00
1820, 952.00
1821, 954.00
1822, 953.00
1823, 952.00
1824, 951.00
1825, 954.00
1826, 951.00
1827, 951.00
1828, 949.00
1829, 951.00
1830, 950.00
1831, 950.00
1832, 948.00
1833, 947.00
1834, 947.00
1835, 946.00
1836, 944.00
1837, 944.00
1838, 943.00
1839, 944.00
1840, 945.00
1841, 942.00
1842, 941.00
1843, 941.00
1844, 939.00
1845, 938.00
1846, 937.00
1847, 937.00
1848, 934.00
1849, 936.00
1850, 934.00
1851, 935.00
1852, 933.00
1853, 933.00
1854, 930.00
1855, 929.00
1856, 930.00
1857, 929.00
1858, 926.00
1859, 927.00
1860, 926.00
1861, 924.00
1862, 923.00
1863, 924.00
1864, 923.00
1865, 923.00
1866, 921.00
1867, 921.00
1868, 921.00
1869, 922.00
1870, 920.00
1871, 919.00
1872, 917.00
1873, 920.00
1874, 920.00
1875, 920.00
1876, 918.00
1877, 916.00
1878, 917.00
1879, 917.00
1880, 916.00
1881, 914.00
1882, 916.00
1883, 916.00
1884, 913.00
1885, 915.00
1886, 913.00
1887, 914.00
1888, 914.00
1889, 913.00
1890, 913.00
1891, 912.00
1892, 914.00
1893, 912.00
1894, 913.00
1895, 914.00
1896, 912.00
1897, 912.00
1898, 911.00
1899, 912.00
1900, 911.00
1901, 911.00
1902, 912.00
1903, 911.00
1904, 911.00
1905, 910.00
1906, 912.00
1907, 911.00
1908, 911.00
1909, 910.00
1910, 911.00
1911, 911.00
1912, 909.00
1913, 911.00
1914, 910.00
1915, 910.00
1916, 911.00
1917, 910.00
1918, 911.00
1919, 911.00
1920, 909.00
1921, 910.00
1922, 910.00
1923, 909.00
1924, 908.00
1925, 910.00
1926, 910.00
1927, 910.00
1928, 909.00
1929, 911.00
1930, 909.00
1931, 909.00
1932, 908.00
1933, 910.00
1934, 909.00
1935, 911.00
1936, 911.00
1937, 911.00
1938, 910.00
1939, 910.00
1940, 909.00
1941, 910.00
1942, 912.00
1943, 910.00
1944, 909.00
1945, 909.00
1946, 910.00
1947, 910.00
1948, 911.00
1949, 911.00
1950, 912.00
1951, 912.00
1952, 911.00
1953, 909.00
1954, 913.00
1955, 910.00
1956, 913.00
1957, 912.00
1958, 912.00
1959, 912.00
1960, 913.00
1961, 912.00
1962, 911.00
1963, 913.00
1964, 913.00
1965, 913.00
1966, 913.00
1967, 915.00
1968, 915.00
1969, 914.00
1970, 913.00
1971, 914.00
1972, 913.00
1973, 915.00
1974, 915.00
1975, 915.00
1976, 915.00
1977, 916.00
1978, 915.00
1979, 916.00
1980, 915.00
1981, 915.00
1982, 917.00
1983, 916.00
1984, 917.00
1985, 918.00
1986, 917.00
1987, 917.00
1988, 917.00
1989, 917.00
1990, 918.00
1991, 917.00
1992, 919.00
1993, 919.00
1994, 919.00
1995, 920.00
1996, 919.00
1997, 920.00
1998, 920.00
1999, 921.00
2000, 918.00
2001, 918.00
2002, 922.00
2003, 921.00
2004, 921.00
2005, 921.00
2006, 920.00
2007, 922.00
2008, 922.00
2009, 920.00
2010, 922.00
2011, 924.00
2012, 921.00
2013, 922.00
2014, 922.00
2015, 922.00
2016, 923.00
2017, 923.00
2018, 923.00
2019, 924.00
2020, 924.00
2021, 923.00
2022, 923.00
2023, 925.00
2024, 925.00
2025, 925.00
2026, 926.00
2027, 927.00
2028, 925.00
2029, 925.00
2030, 926.00
2031, 927.00
2032, 925.00
2033, 928.00
2034, 926.00
2035, 926.00
2036, 929.00
2037, 926.00
2038, 927.00
2039, 929.00
2040, 927.00
2041, 927.00
2042, 928.00
2043, 929.00
2044, 930.00
2045, 929.00
2046, 930.00
2047, 930.00
2048, 931.00
2049, 931.00
2050, 931.00
2051, 933.00
2052, 931.00
2053, 933.00
2054, 933.00
2055, 934.00
2056, 933.00
2057, 934.00
2058, 935.00
2059, 934.00
2060, 937.00
2061, 935.00
2062, 935.00
2063, 935.00
2064, 936.00
2065, 938.00
2066, 936.00
2067, 936.00
2068, 937.00
2069, 938.00
2070, 939.00
2071, 939.00
2072, 939.00
2073, 941.00
2074, 940.00
2075, 940.00
2076, 940.00
2077, 940.00
2078, 942.00
2079, 941.00
2080, 942.00
2081, 942.00
2082, 942.00
2083, 941.00
2084, 942.00
2085, 944.00
2086, 945.00
2087, 945.00
2088, 944.00
2089, 944.00
2090, 945.00
2091, 944.00
2092, 945.00
2093, 945.00
2094, 944.00
2095, 944.00
2096, 947.00
2097, 945.00
2098, 946.00
2099, 946.00
2100, 945.00
2101, 946.00
2102, 946.00
2103, 947.00
2104, 948.00
2105, 949.00
2106, 949.00
2107, 950.00
2108, 947.00
2109, 947.00
2110, 948.00
2111, 949.00
2112, 949.00
2113, 950.00
2114, 950.00
2115, 951.00
2116, 949.00
2117, 949.00
2118, 950.00
2119, 951.00
2120, 948.00
2121, 949.00
2122, 951.00
2123, 951.00
2124, 951.00
2125, 950.00
2126, 951.00
2127, 950.00
2128, 951.00
2129, 950.00
2130, 952.00
2131, 951.00
2132, 952.00
2133, 952.00
2134, 951.00
2135, 952.00
2136, 953.00
2137, 951.00
2138, 953.00
2139, 951.00
2140, 953.00
2141, 952.00
2142, 953.00
2143, 955.00
2144, 953.00
2145, 955.00
2146, 953.00
2147, 954.00
2148, 953.00
2149, 955.00
2150, 955.00
