FW version: 24
Log Version: 3.0.3

General Info:
       Command/Macro Performed,            Timestamp,             Device ID, COM Port, UART/I2C, Test Name, Host Major, Host Minor, Host Revision, Host Git Commit
            Single_measurement,  2023_06_27_11_10_57,       Insight2_F4_xxx,    USB-C,      USB,          ,          0,          1,             1,      4031237645

Show Spectrometer Status:
l0_version, f4_version, battery_perc, battery_mVolt, accelerometer_temp, accelerometer_x, accelerometer_y, accelerometer_z, compass_temp, compass_x, compass_y, compass_z, lamp_0, lamp_1, gain_0, gain_1
        17,         24,           95,          2077,               5440,           65460,              56,           18476,            0,     65534,     65465,     65326,   2047,   2047,    1,    1

Temperature Statistic Info:
NTC AVG [°C], NTC2 AVG [°C]
      36.807,        36.494

Statistic Info:
M1:  num,      min,      max,   median,      AVG,      STD,M2:  num,      min,      max,   median,      AVG,      STD
     301,   599.00,   693.00,   621.00,   630.81,  28.6305,     401,   909.00,   965.00,   932.00,   933.91,  18.2049,

Measurements:
Wavelength, Data Amplitude
1350, 614.00
1351, 614.00
1352, 613.00
1353, 614.00
1354, 613.00
1355, 613.00
1356, 612.00
1357, 612.00
1358, 612.00
1359, 611.00
1360, 612.00
1361, 611.00
1362, 610.00
1363, 610.00
1364, 610.00
1365, 610.00
1366, 609.00
1367, 609.00
1368, 608.00
1369, 608.00
1370, 608.00
1371, 608.00
1372, 608.00
1373, 606.00
1374, 606.00
1375, 605.00
1376, 606.00
1377, 605.00
1378, 605.00
1379, 605.00
1380, 605.00
1381, 604.00
1382, 604.00
1383, 604.00
1384, 603.00
1385, 603.00
1386, 603.00
1387, 602.00
1388, 602.00
1389, 603.00
1390, 603.00
1391, 601.00
1392, 602.00
1393, 602.00
1394, 601.00
1395, 601.00
1396, 601.00
1397, 602.00
1398, 602.00
1399, 602.00
1400, 601.00
1401, 601.00
1402, 601.00
1403, 601.00
1404, 602.00
1405, 601.00
1406, 601.00
1407, 601.00
1408, 600.00
1409, 601.00
1410, 602.00
1411, 599.00
1412, 600.00
1413, 600.00
1414, 600.00
1415, 600.00
1416, 601.00
1417, 601.00
1418, 601.00
1419, 600.00
1420, 601.00
1421, 601.00
1422, 601.00
1423, 600.00
1424, 601.00
1425, 602.00
1426, 600.00
1427, 601.00
1428, 601.00
1429, 601.00
1430, 601.00
1431, 601.00
1432, 602.00
1433, 602.00
1434, 601.00
1435, 601.00
1436, 602.00
1437, 603.00
1438, 602.00
1439, 602.00
1440, 603.00
1441, 603.00
1442, 602.00
1443, 604.00
1444, 604.00
1445, 604.00
1446, 604.00
1447, 604.00
1448, 604.00
1449, 604.00
1450, 604.00
1451, 605.00
1452, 604.00
1453, 605.00
1454, 605.00
1455, 605.00
1456, 606.00
1457, 605.00
1458, 606.00
1459, 606.00
1460, 607.00
1461, 607.00
1462, 607.00
1463, 607.00
1464, 608.00
1465, 608.00
1466, 607.00
1467, 608.00
1468, 609.00
1469, 609.00
1470, 609.00
1471, 609.00
1472, 609.00
1473, 610.00
1474, 610.00
1475, 611.00
1476, 612.00
1477, 611.00
1478, 612.00
1479, 612.00
1480, 613.00
1481, 613.00
1482, 614.00
1483, 614.00
1484, 615.00
1485, 615.00
1486, 614.00
1487, 615.00
1488, 616.00
1489, 616.00
1490, 617.00
1491, 617.00
1492, 617.00
1493, 618.00
1494, 618.00
1495, 619.00
1496, 620.00
1497, 620.00
1498, 619.00
1499, 622.00
1500, 621.00
1501, 621.00
1502, 622.00
1503, 622.00
1504, 623.00
1505, 623.00
1506, 624.00
1507, 624.00
1508, 624.00
1509, 625.00
1510, 625.00
1511, 625.00
1512, 626.00
1513, 627.00
1514, 628.00
1515, 627.00
1516, 628.00
1517, 629.00
1518, 629.00
1519, 630.00
1520, 629.00
1521, 630.00
1522, 631.00
1523, 631.00
1524, 632.00
1525, 632.00
1526, 633.00
1527, 633.00
1528, 632.00
1529, 634.00
1530, 635.00
1531, 635.00
1532, 636.00
1533, 636.00
1534, 636.00
1535, 637.00
1536, 637.00
1537, 637.00
1538, 638.00
1539, 638.00
1540, 638.00
1541, 639.00
1542, 639.00
1543, 640.00
1544, 640.00
1545, 640.00
1546, 641.00
1547, 641.00
1548, 641.00
1549, 642.00
1550, 642.00
1551, 642.00
1552, 643.00
1553, 643.00
1554, 644.00
1555, 645.00
1556, 645.00
1557, 645.00
1558, 646.00
1559, 646.00
1560, 647.00
1561, 647.00
1562, 647.00
1563, 648.00
1564, 648.00
1565, 648.00
1566, 650.00
1567, 649.00
1568, 650.00
1569, 651.00
1570, 651.00
1571, 652.00
1572, 652.00
1573, 653.00
1574, 654.00
1575, 653.00
1576, 655.00
1577, 654.00
1578, 655.00
1579, 656.00
1580, 656.00
1581, 657.00
1582, 657.00
1583, 658.00
1584, 658.00
1585, 658.00
1586, 659.00
1587, 659.00
1588, 659.00
1589, 661.00
1590, 661.00
1591, 661.00
1592, 662.00
1593, 661.00
1594, 663.00
1595, 662.00
1596, 664.00
1597, 664.00
1598, 664.00
1599, 665.00
1600, 665.00
1601, 666.00
1602, 666.00
1603, 667.00
1604, 668.00
1605, 667.00
1606, 668.00
1607, 669.00
1608, 669.00
1609, 670.00
1610, 670.00
1611, 671.00
1612, 672.00
1613, 672.00
1614, 673.00
1615, 673.00
1616, 674.00
1617, 675.00
1618, 676.00
1619, 677.00
1620, 677.00
1621, 677.00
1622, 677.00
1623, 679.00
1624, 679.00
1625, 680.00
1626, 680.00
1627, 681.00
1628, 681.00
1629, 682.00
1630, 682.00
1631, 683.00
1632, 683.00
1633, 685.00
1634, 684.00
1635, 684.00
1636, 686.00
1637, 687.00
1638, 687.00
1639, 688.00
1640, 688.00
1641, 688.00
1642, 689.00
1643, 689.00
1644, 689.00
1645, 690.00
1646, 690.00
1647, 691.00
1648, 691.00
1649, 692.00
1650, 693.00

1750, 965.00
1751, 963.00
1752, 963.00
1753, 963.00
1754, 962.00
1755, 963.00
1756, 962.00
1757, 963.00
1758, 963.00
1759, 961.00
1760, 963.00
1761, 961.00
1762, 963.00
1763, 964.00
1764, 963.00
1765, 964.00
1766, 964.00
1767, 962.00
1768, 964.00
1769, 962.00
1770, 961.00
1771, 963.00
1772, 962.00
1773, 962.00
1774, 962.00
1775, 962.00
1776, 963.00
1777, 962.00
1778, 961.00
1779, 963.00
1780, 962.00
1781, 962.00
1782, 961.00
1783, 959.00
1784, 960.00
1785, 959.00
1786, 959.00
1787, 959.00
1788, 960.00
1789, 959.00
1790, 958.00
1791, 961.00
1792, 961.00
1793, 958.00
1794, 959.00
1795, 957.00
1796, 957.00
1797, 958.00
1798, 956.00
1799, 958.00
1800, 958.00
1801, 956.00
1802, 957.00
1803, 956.00
1804, 958.00
1805, 956.00
1806, 955.00
1807, 955.00
1808, 957.00
1809, 955.00
1810, 956.00
1811, 956.00
1812, 955.00
1813, 956.00
1814, 955.00
1815, 956.00
1816, 955.00
1817, 954.00
1818, 953.00
1819, 954.00
1820, 955.00
1821, 953.00
1822, 952.00
1823, 953.00
1824, 954.00
1825, 951.00
1826, 950.00
1827, 951.00
1828, 949.00
1829, 950.00
1830, 949.00
1831, 948.00
1832, 947.00
1833, 948.00
1834, 947.00
1835, 945.00
1836, 945.00
1837, 947.00
1838, 944.00
1839, 943.00
1840, 943.00
1841, 942.00
1842, 942.00
1843, 939.00
1844, 940.00
1845, 938.00
1846, 937.00
1847, 936.00
1848, 936.00
1849, 936.00
1850, 935.00
1851, 933.00
1852, 932.00
1853, 931.00
1854, 931.00
1855, 930.00
1856, 930.00
1857, 930.00
1858, 927.00
1859, 928.00
1860, 927.00
1861, 926.00
1862, 924.00
1863, 923.00
1864, 924.00
1865, 922.00
1866, 922.00
1867, 922.00
1868, 919.00
1869, 919.00
1870, 921.00
1871, 918.00
1872, 920.00
1873, 919.00
1874, 918.00
1875, 918.00
1876, 917.00
1877, 916.00
1878, 916.00
1879, 916.00
1880, 917.00
1881, 915.00
1882, 917.00
1883, 914.00
1884, 913.00
1885, 912.00
1886, 914.00
1887, 914.00
1888, 913.00
1889, 914.00
1890, 913.00
1891, 913.00
1892, 911.00
1893, 913.00
1894, 914.00
1895, 912.00
1896, 912.00
1897, 912.00
1898, 912.00
1899, 913.00
1900, 912.00
1901, 912.00
1902, 913.00
1903, 911.00
1904, 911.00
1905, 911.00
1906, 910.00
1907, 909.00
1908, 909.00
1909, 910.00
1910, 911.00
1911, 910.00
1912, 909.00
1913, 911.00
1914, 912.00
1915, 910.00
1916, 910.00
1917, 910.00
1918, 912.00
1919, 911.00
1920, 909.00
1921, 911.00
1922, 910.00
1923, 909.00
1924, 910.00
1925, 911.00
1926, 909.00
1927, 910.00
1928, 910.00
1929, 909.00
1930, 910.00
1931, 909.00
1932, 909.00
1933, 911.00
1934, 910.00
1935, 910.00
1936, 909.00
1937, 911.00
1938, 911.00
1939, 911.00
1940, 910.00
1941, 911.00
1942, 909.00
1943, 911.00
1944, 911.00
1945, 911.00
1946, 912.00
1947, 909.00
1948, 911.00
1949, 911.00
1950, 911.00
1951, 911.00
1952, 911.00
1953, 912.00
1954, 912.00
1955, 912.00
1956, 912.00
1957, 913.00
1958, 911.00
1959, 912.00
1960, 911.00
1961, 913.00
1962, 914.00
1963, 913.00
1964, 913.00
1965, 915.00
1966, 913.00
1967, 915.00
1968, 915.00
1969, 915.00
1970, 915.00
1971, 915.00
1972, 914.00
1973, 914.00
1974, 914.00
1975, 915.00
1976, 915.00
1977, 916.00
1978, 914.00
1979, 916.00
1980, 916.00
1981, 916.00
1982, 916.00
1983, 917.00
1984, 916.00
1985, 918.00
1986, 917.00
1987, 917.00
1988, 918.00
1989, 916.00
1990, 918.00
1991, 918.00
1992, 919.00
1993, 917.00
1994, 919.00
1995, 920.00
1996, 918.00
1997, 918.00
1998, 920.00
1999, 918.00
2000, 919.00
2001, 920.00
2002, 919.00
2003, 919.00
2004, 922.00
2005, 922.00
2006, 921.00
2007, 919.00
2008, 921.00
2009, 923.00
2010, 923.00
2011, 921.00
2012, 922.00
2013, 923.00
2014, 922.00
2015, 922.00
2016, 923.00
2017, 923.00
2018, 923.00
2019, 922.00
2020, 923.00
2021, 924.00
2022, 924.00
2023, 924.00
2024, 925.00
2025, 925.00
2026, 926.00
2027, 926.00
2028, 926.00
2029, 926.00
2030, 926.00
2031, 924.00
2032, 926.00
2033, 927.00
2034, 925.00
2035, 928.00
2036, 927.00
2037, 928.00
2038, 927.00
2039, 927.00
2040, 927.00
2041, 928.00
2042, 928.00
2043, 928.00
2044, 929.00
2045, 928.00
2046, 929.00
2047, 931.00
2048, 930.00
2049, 932.00
2050, 932.00
2051, 932.00
2052, 931.00
2053, 933.00
2054, 932.00
2055, 933.00
2056, 933.00
2057, 934.00
2058, 936.00
2059, 934.00
2060, 936.00
2061, 935.00
2062, 937.00
2063, 936.00
2064, 937.00
2065, 936.00
2066, 938.00
2067, 938.00
2068, 938.00
2069, 938.00
2070, 937.00
2071, 938.00
2072, 940.00
2073, 940.00
2074, 940.00
2075, 940.00
2076, 940.00
2077, 941.00
2078, 941.00
2079, 940.00
2080, 941.00
2081, 942.00
2082, 942.00
2083, 942.00
2084, 942.00
2085, 942.00
2086, 943.00
2087, 944.00
2088, 944.00
2089, 945.00
2090, 944.00
2091, 943.00
2092, 945.00
2093, 946.00
2094, 945.00
2095, 946.00
2096, 947.00
2097, 946.00
2098, 946.00
2099, 947.00
2100, 946.00
2101, 947.00
2102, 948.00
2103, 948.00
2104, 948.00
2105, 949.00
2106, 948.00
2107, 948.00
2108, 948.00
2109, 947.00
2110, 949.00
2111, 949.00
2112, 948.00
2113, 950.00
2114, 949.00
2115, 948.00
2116, 949.00
2117, 947.00
2118, 949.00
2119, 949.00
2120, 949.00
2121, 950.00
2122, 950.00
2123, 952.00
2124, 951.00
2125, 951.00
2126, 950.00
2127, 950.00
2128, 951.00
2129, 950.00
2130, 952.00
2131, 953.00
2132, 952.00
2133, 953.00
2134, 952.00
2135, 952.00
2136, 955.00
2137, 953.00
2138, 952.00
2139, 953.00
2140, 953.00
2141, 953.00
2142, 953.00
2143, 954.00
2144, 956.00
2145, 954.00
2146, 953.00
2147, 954.00
2148, 953.00
2149, 955.00
2150, 953.00
