FW version: 24
Log Version: 3.0.3

General Info:
       Command/Macro Performed,            Timestamp,             Device ID, COM Port, UART/I2C, Test Name, Host Major, Host Minor, Host Revision, Host Git Commit
            Single_measurement,  2023_06_27_11_10_51,       Insight2_F4_xxx,    USB-C,      USB,          ,          0,          1,             1,      4031237645

Show Spectrometer Status:
l0_version, f4_version, battery_perc, battery_mVolt, accelerometer_temp, accelerometer_x, accelerometer_y, accelerometer_z, compass_temp, compass_x, compass_y, compass_z, lamp_0, lamp_1, gain_0, gain_1
        17,         24,           95,          2074,               5424,           65432,              68,           18432,            0,     65503,     65407,     65326,   3276,   3276,    0,    0

Temperature Statistic Info:
NTC AVG [°C], NTC2 AVG [°C]
      36.863,        36.465

Statistic Info:
M1:  num,      min,      max,   median,      AVG,      STD,M2:  num,      min,      max,   median,      AVG,      STD
     301,   520.00,   591.00,   534.00,   543.31,  21.9023,     401,   694.00,   736.00,   711.00,   712.33,  13.6307,

Measurements:
Wavelength, Data Amplitude
1350, 534.00
1351, 534.00
1352, 534.00
1353, 533.00
1354, 533.00
1355, 533.00
1356, 533.00
1357, 532.00
1358, 532.00
1359, 532.00
1360, 531.00
1361, 531.00
1362, 530.00
1363, 531.00
1364, 530.00
1365, 529.00
1366, 529.00
1367, 529.00
1368, 529.00
1369, 528.00
1370, 528.00
1371, 528.00
1372, 527.00
1373, 527.00
1374, 526.00
1375, 526.00
1376, 525.00
1377, 525.00
1378, 525.00
1379, 525.00
1380, 524.00
1381, 524.00
1382, 524.00
1383, 524.00
1384, 523.00
1385, 524.00
1386, 523.00
1387, 523.00
1388, 523.00
1389, 523.00
1390, 522.00
1391, 522.00
1392, 522.00
1393, 522.00
1394, 522.00
1395, 522.00
1396, 522.00
1397, 522.00
1398, 522.00
1399, 521.00
1400, 521.00
1401, 521.00
1402, 521.00
1403, 521.00
1404, 521.00
1405, 521.00
1406, 521.00
1407, 520.00
1408, 520.00
1409, 521.00
1410, 521.00
1411, 521.00
1412, 521.00
1413, 520.00
1414, 520.00
1415, 520.00
1416, 520.00
1417, 520.00
1418, 520.00
1419, 520.00
1420, 520.00
1421, 520.00
1422, 520.00
1423, 520.00
1424, 521.00
1425, 520.00
1426, 521.00
1427, 520.00
1428, 520.00
1429, 520.00
1430, 521.00
1431, 521.00
1432, 521.00
1433, 521.00
1434, 521.00
1435, 521.00
1436, 521.00
1437, 521.00
1438, 521.00
1439, 521.00
1440, 521.00
1441, 521.00
1442, 521.00
1443, 522.00
1444, 521.00
1445, 522.00
1446, 522.00
1447, 522.00
1448, 522.00
1449, 522.00
1450, 522.00
1451, 523.00
1452, 523.00
1453, 523.00
1454, 523.00
1455, 524.00
1456, 523.00
1457, 523.00
1458, 523.00
1459, 524.00
1460, 524.00
1461, 524.00
1462, 524.00
1463, 525.00
1464, 525.00
1465, 525.00
1466, 525.00
1467, 525.00
1468, 526.00
1469, 526.00
1470, 526.00
1471, 527.00
1472, 526.00
1473, 527.00
1474, 527.00
1475, 527.00
1476, 528.00
1477, 528.00
1478, 528.00
1479, 529.00
1480, 529.00
1481, 529.00
1482, 529.00
1483, 529.00
1484, 530.00
1485, 530.00
1486, 530.00
1487, 531.00
1488, 531.00
1489, 531.00
1490, 532.00
1491, 532.00
1492, 532.00
1493, 532.00
1494, 532.00
1495, 533.00
1496, 533.00
1497, 533.00
1498, 534.00
1499, 534.00
1500, 534.00
1501, 535.00
1502, 535.00
1503, 535.00
1504, 536.00
1505, 536.00
1506, 536.00
1507, 536.00
1508, 537.00
1509, 537.00
1510, 538.00
1511, 538.00
1512, 538.00
1513, 538.00
1514, 539.00
1515, 539.00
1516, 540.00
1517, 540.00
1518, 541.00
1519, 540.00
1520, 540.00
1521, 541.00
1522, 542.00
1523, 542.00
1524, 543.00
1525, 542.00
1526, 543.00
1527, 544.00
1528, 544.00
1529, 544.00
1530, 544.00
1531, 545.00
1532, 545.00
1533, 545.00
1534, 546.00
1535, 546.00
1536, 546.00
1537, 547.00
1538, 548.00
1539, 547.00
1540, 548.00
1541, 548.00
1542, 549.00
1543, 548.00
1544, 550.00
1545, 550.00
1546, 550.00
1547, 550.00
1548, 551.00
1549, 551.00
1550, 551.00
1551, 552.00
1552, 552.00
1553, 552.00
1554, 553.00
1555, 553.00
1556, 553.00
1557, 554.00
1558, 554.00
1559, 554.00
1560, 555.00
1561, 555.00
1562, 555.00
1563, 557.00
1564, 557.00
1565, 556.00
1566, 558.00
1567, 558.00
1568, 558.00
1569, 559.00
1570, 559.00
1571, 560.00
1572, 560.00
1573, 560.00
1574, 560.00
1575, 561.00
1576, 561.00
1577, 561.00
1578, 562.00
1579, 563.00
1580, 563.00
1581, 564.00
1582, 564.00
1583, 564.00
1584, 565.00
1585, 565.00
1586, 565.00
1587, 565.00
1588, 566.00
1589, 566.00
1590, 566.00
1591, 567.00
1592, 567.00
1593, 567.00
1594, 568.00
1595, 568.00
1596, 568.00
1597, 570.00
1598, 569.00
1599, 570.00
1600, 570.00
1601, 571.00
1602, 571.00
1603, 571.00
1604, 572.00
1605, 572.00
1606, 572.00
1607, 573.00
1608, 573.00
1609, 574.00
1610, 574.00
1611, 575.00
1612, 575.00
1613, 576.00
1614, 576.00
1615, 576.00
1616, 577.00
1617, 578.00
1618, 578.00
1619, 578.00
1620, 579.00
1621, 579.00
1622, 580.00
1623, 580.00
1624, 580.00
1625, 580.00
1626, 581.00
1627, 582.00
1628, 582.00
1629, 583.00
1630, 583.00
1631, 583.00
1632, 585.00
1633, 584.00
1634, 585.00
1635, 586.00
1636, 586.00
1637, 586.00
1638, 586.00
1639, 587.00
1640, 587.00
1641, 587.00
1642, 588.00
1643, 588.00
1644, 588.00
1645, 589.00
1646, 589.00
1647, 590.00
1648, 590.00
1649, 591.00
1650, 591.00

1750, 736.00
1751, 736.00
1752, 735.00
1753, 736.00
1754, 736.00
1755, 736.00
1756, 735.00
1757, 736.00
1758, 736.00
1759, 736.00
1760, 735.00
1761, 735.00
1762, 736.00
1763, 736.00
1764, 736.00
1765, 735.00
1766, 735.00
1767, 735.00
1768, 735.00
1769, 735.00
1770, 735.00
1771, 735.00
1772, 736.00
1773, 735.00
1774, 735.00
1775, 735.00
1776, 734.00
1777, 735.00
1778, 735.00
1779, 734.00
1780, 734.00
1781, 734.00
1782, 734.00
1783, 734.00
1784, 734.00
1785, 734.00
1786, 734.00
1787, 733.00
1788, 733.00
1789, 733.00
1790, 732.00
1791, 732.00
1792, 732.00
1793, 732.00
1794, 732.00
1795, 732.00
1796, 732.00
1797, 731.00
1798, 731.00
1799, 732.00
1800, 731.00
1801, 731.00
1802, 731.00
1803, 731.00
1804, 730.00
1805, 730.00
1806, 730.00
1807, 730.00
1808, 730.00
1809, 730.00
1810, 729.00
1811, 730.00
1812, 729.00
1813, 729.00
1814, 730.00
1815, 729.00
1816, 728.00
1817, 729.00
1818, 729.00
1819, 728.00
1820, 728.00
1821, 727.00
1822, 727.00
1823, 727.00
1824, 727.00
1825, 726.00
1826, 726.00
1827, 726.00
1828, 725.00
1829, 725.00
1830, 725.00
1831, 724.00
1832, 723.00
1833, 724.00
1834, 722.00
1835, 723.00
1836, 721.00
1837, 722.00
1838, 721.00
1839, 720.00
1840, 719.00
1841, 719.00
1842, 718.00
1843, 718.00
1844, 717.00
1845, 717.00
1846, 716.00
1847, 715.00
1848, 714.00
1849, 714.00
1850, 713.00
1851, 712.00
1852, 712.00
1853, 711.00
1854, 710.00
1855, 711.00
1856, 710.00
1857, 709.00
1858, 708.00
1859, 708.00
1860, 708.00
1861, 706.00
1862, 705.00
1863, 706.00
1864, 705.00
1865, 704.00
1866, 704.00
1867, 704.00
1868, 703.00
1869, 702.00
1870, 703.00
1871, 701.00
1872, 701.00
1873, 701.00
1874, 700.00
1875, 700.00
1876, 700.00
1877, 699.00
1878, 700.00
1879, 699.00
1880, 699.00
1881, 700.00
1882, 699.00
1883, 698.00
1884, 698.00
1885, 699.00
1886, 698.00
1887, 698.00
1888, 698.00
1889, 697.00
1890, 697.00
1891, 697.00
1892, 697.00
1893, 696.00
1894, 697.00
1895, 696.00
1896, 696.00
1897, 696.00
1898, 696.00
1899, 696.00
1900, 696.00
1901, 697.00
1902, 695.00
1903, 696.00
1904, 696.00
1905, 696.00
1906, 695.00
1907, 695.00
1908, 695.00
1909, 694.00
1910, 695.00
1911, 695.00
1912, 695.00
1913, 695.00
1914, 695.00
1915, 695.00
1916, 694.00
1917, 695.00
1918, 695.00
1919, 695.00
1920, 694.00
1921, 695.00
1922, 694.00
1923, 694.00
1924, 695.00
1925, 695.00
1926, 695.00
1927, 695.00
1928, 695.00
1929, 695.00
1930, 695.00
1931, 695.00
1932, 695.00
1933, 694.00
1934, 694.00
1935, 695.00
1936, 695.00
1937, 695.00
1938, 695.00
1939, 695.00
1940, 695.00
1941, 695.00
1942, 695.00
1943, 695.00
1944, 695.00
1945, 695.00
1946, 695.00
1947, 696.00
1948, 695.00
1949, 696.00
1950, 696.00
1951, 696.00
1952, 696.00
1953, 696.00
1954, 696.00
1955, 696.00
1956, 696.00
1957, 696.00
1958, 696.00
1959, 696.00
1960, 696.00
1961, 696.00
1962, 697.00
1963, 697.00
1964, 697.00
1965, 696.00
1966, 697.00
1967, 697.00
1968, 699.00
1969, 697.00
1970, 698.00
1971, 698.00
1972, 698.00
1973, 699.00
1974, 699.00
1975, 698.00
1976, 699.00
1977, 699.00
1978, 699.00
1979, 699.00
1980, 699.00
1981, 699.00
1982, 699.00
1983, 699.00
1984, 700.00
1985, 699.00
1986, 700.00
1987, 700.00
1988, 701.00
1989, 700.00
1990, 701.00
1991, 701.00
1992, 701.00
1993, 701.00
1994, 700.00
1995, 701.00
1996, 702.00
1997, 701.00
1998, 701.00
1999, 702.00
2000, 702.00
2001, 702.00
2002, 702.00
2003, 702.00
2004, 702.00
2005, 702.00
2006, 702.00
2007, 702.00
2008, 703.00
2009, 702.00
2010, 703.00
2011, 704.00
2012, 703.00
2013, 704.00
2014, 704.00
2015, 704.00
2016, 704.00
2017, 704.00
2018, 705.00
2019, 705.00
2020, 705.00
2021, 705.00
2022, 705.00
2023, 705.00
2024, 705.00
2025, 706.00
2026, 705.00
2027, 706.00
2028, 706.00
2029, 706.00
2030, 706.00
2031, 707.00
2032, 706.00
2033, 706.00
2034, 707.00
2035, 707.00
2036, 707.00
2037, 708.00
2038, 708.00
2039, 708.00
2040, 707.00
2041, 708.00
2042, 709.00
2043, 709.00
2044, 709.00
2045, 709.00
2046, 708.00
2047, 709.00
2048, 709.00
2049, 710.00
2050, 710.00
2051, 710.00
2052, 710.00
2053, 711.00
2054, 711.00
2055, 711.00
2056, 711.00
2057, 711.00
2058, 712.00
2059, 712.00
2060, 712.00
2061, 712.00
2062, 713.00
2063, 713.00
2064, 713.00
2065, 713.00
2066, 713.00
2067, 714.00
2068, 714.00
2069, 714.00
2070, 714.00
2071, 715.00
2072, 716.00
2073, 715.00
2074, 715.00
2075, 716.00
2076, 716.00
2077, 716.00
2078, 716.00
2079, 716.00
2080, 717.00
2081, 716.00
2082, 717.00
2083, 717.00
2084, 718.00
2085, 718.00
2086, 718.00
2087, 718.00
2088, 718.00
2089, 719.00
2090, 719.00
2091, 720.00
2092, 719.00
2093, 719.00
2094, 719.00
2095, 720.00
2096, 720.00
2097, 720.00
2098, 720.00
2099, 720.00
2100, 720.00
2101, 720.00
2102, 720.00
2103, 721.00
2104, 721.00
2105, 721.00
2106, 721.00
2107, 721.00
2108, 721.00
2109, 721.00
2110, 722.00
2111, 721.00
2112, 722.00
2113, 722.00
2114, 722.00
2115, 721.00
2116, 722.00
2117, 723.00
2118, 722.00
2119, 722.00
2120, 723.00
2121, 723.00
2122, 723.00
2123, 723.00
2124, 723.00
2125, 723.00
2126, 723.00
2127, 723.00
2128, 723.00
2129, 724.00
2130, 723.00
2131, 724.00
2132, 724.00
2133, 724.00
2134, 724.00
2135, 724.00
2136, 724.00
2137, 724.00
2138, 725.00
2139, 724.00
2140, 724.00
2141, 724.00
2142, 724.00
2143, 725.00
2144, 724.00
2145, 725.00
2146, 724.00
2147, 724.00
2148, 724.00
2149, 724.00
2150, 725.00
