FW version: 24
Log Version: 3.0.3

General Info:
       Command/Macro Performed,            Timestamp,             Device ID, COM Port, UART/I2C, Test Name, Host Major, Host Minor, Host Revision, Host Git Commit
            Single_measurement,  2023_06_28_12_54_45,       Insight2_F4_xxx,    USB-C,      USB,          ,          0,          1,             1,      4031237645

Show Spectrometer Status:
l0_version, f4_version, battery_perc, battery_mVolt, accelerometer_temp, accelerometer_x, accelerometer_y, accelerometer_z, compass_temp, compass_x, compass_y, compass_z, lamp_0, lamp_1, gain_0, gain_1
        17,         24,           51,          1922,               6464,             192,             236,           18944,            0,     65492,     65517,     65487,   2866,   2866,      1,      1

Temperature Statistic Info:
NTC AVG [°C], NTC2 AVG [°C]
      39.908,        39.617

Statistic Info:
M1:  num,      min,      max,   median,      AVG,      STD,M2:  num,      min,      max,   median,      AVG,      STD
     301,  1498.00,  1707.00,  1546.00,  1567.40,  65.0437,     401,  2096.00,  2217.00,  2162.00,  2158.69,  41.7434,

Measurements:
Wavelength, Data Amplitude
1350, 1520.00
1351, 1521.00
1352, 1519.00
1353, 1519.00
1354, 1519.00
1355, 1518.00
1356, 1518.00
1357, 1518.00
1358, 1519.00
1359, 1517.00
1360, 1516.00
1361, 1516.00
1362, 1516.00
1363, 1515.00
1364, 1514.00
1365, 1514.00
1366, 1513.00
1367, 1513.00
1368, 1513.00
1369, 1511.00
1370, 1512.00
1371, 1511.00
1372, 1509.00
1373, 1509.00
1374, 1509.00
1375, 1509.00
1376, 1507.00
1377, 1507.00
1378, 1505.00
1379, 1506.00
1380, 1505.00
1381, 1505.00
1382, 1504.00
1383, 1504.00
1384, 1503.00
1385, 1503.00
1386, 1502.00
1387, 1502.00
1388, 1502.00
1389, 1502.00
1390, 1501.00
1391, 1501.00
1392, 1502.00
1393, 1501.00
1394, 1501.00
1395, 1501.00
1396, 1500.00
1397, 1500.00
1398, 1500.00
1399, 1498.00
1400, 1499.00
1401, 1501.00
1402, 1500.00
1403, 1499.00
1404, 1499.00
1405, 1499.00
1406, 1499.00
1407, 1500.00
1408, 1499.00
1409, 1499.00
1410, 1499.00
1411, 1499.00
1412, 1499.00
1413, 1499.00
1414, 1499.00
1415, 1499.00
1416, 1499.00
1417, 1499.00
1418, 1499.00
1419, 1499.00
1420, 1499.00
1421, 1499.00
1422, 1499.00
1423, 1499.00
1424, 1501.00
1425, 1500.00
1426, 1500.00
1427, 1500.00
1428, 1501.00
1429, 1502.00
1430, 1500.00
1431, 1501.00
1432, 1503.00
1433, 1503.00
1434, 1502.00
1435, 1503.00
1436, 1504.00
1437, 1503.00
1438, 1504.00
1439, 1505.00
1440, 1505.00
1441, 1505.00
1442, 1505.00
1443, 1506.00
1444, 1507.00
1445, 1507.00
1446, 1508.00
1447, 1509.00
1448, 1509.00
1449, 1509.00
1450, 1510.00
1451, 1510.00
1452, 1511.00
1453, 1511.00
1454, 1512.00
1455, 1511.00
1456, 1513.00
1457, 1513.00
1458, 1513.00
1459, 1514.00
1460, 1514.00
1461, 1515.00
1462, 1516.00
1463, 1519.00
1464, 1517.00
1465, 1518.00
1466, 1518.00
1467, 1520.00
1468, 1519.00
1469, 1521.00
1470, 1521.00
1471, 1522.00
1472, 1523.00
1473, 1524.00
1474, 1525.00
1475, 1525.00
1476, 1527.00
1477, 1527.00
1478, 1527.00
1479, 1528.00
1480, 1530.00
1481, 1531.00
1482, 1531.00
1483, 1532.00
1484, 1533.00
1485, 1533.00
1486, 1533.00
1487, 1535.00
1488, 1535.00
1489, 1537.00
1490, 1538.00
1491, 1539.00
1492, 1540.00
1493, 1540.00
1494, 1541.00
1495, 1543.00
1496, 1544.00
1497, 1544.00
1498, 1544.00
1499, 1545.00
1500, 1547.00
1501, 1546.00
1502, 1548.00
1503, 1549.00
1504, 1550.00
1505, 1551.00
1506, 1551.00
1507, 1552.00
1508, 1553.00
1509, 1554.00
1510, 1555.00
1511, 1556.00
1512, 1557.00
1513, 1558.00
1514, 1559.00
1515, 1559.00
1516, 1560.00
1517, 1562.00
1518, 1561.00
1519, 1564.00
1520, 1563.00
1521, 1565.00
1522, 1568.00
1523, 1568.00
1524, 1568.00
1525, 1569.00
1526, 1569.00
1527, 1571.00
1528, 1572.00
1529, 1573.00
1530, 1574.00
1531, 1574.00
1532, 1576.00
1533, 1576.00
1534, 1578.00
1535, 1579.00
1536, 1580.00
1537, 1581.00
1538, 1582.00
1539, 1582.00
1540, 1585.00
1541, 1584.00
1542, 1585.00
1543, 1587.00
1544, 1588.00
1545, 1588.00
1546, 1590.00
1547, 1590.00
1548, 1591.00
1549, 1592.00
1550, 1594.00
1551, 1594.00
1552, 1596.00
1553, 1597.00
1554, 1598.00
1555, 1599.00
1556, 1599.00
1557, 1602.00
1558, 1602.00
1559, 1603.00
1560, 1604.00
1561, 1605.00
1562, 1606.00
1563, 1607.00
1564, 1609.00
1565, 1609.00
1566, 1612.00
1567, 1613.00
1568, 1613.00
1569, 1615.00
1570, 1616.00
1571, 1617.00
1572, 1618.00
1573, 1619.00
1574, 1620.00
1575, 1623.00
1576, 1623.00
1577, 1623.00
1578, 1625.00
1579, 1626.00
1580, 1627.00
1581, 1627.00
1582, 1628.00
1583, 1630.00
1584, 1630.00
1585, 1631.00
1586, 1633.00
1587, 1633.00
1588, 1634.00
1589, 1636.00
1590, 1637.00
1591, 1637.00
1592, 1637.00
1593, 1640.00
1594, 1640.00
1595, 1641.00
1596, 1642.00
1597, 1643.00
1598, 1644.00
1599, 1645.00
1600, 1647.00
1601, 1647.00
1602, 1649.00
1603, 1651.00
1604, 1651.00
1605, 1652.00
1606, 1652.00
1607, 1655.00
1608, 1656.00
1609, 1657.00
1610, 1657.00
1611, 1659.00
1612, 1661.00
1613, 1663.00
1614, 1663.00
1615, 1664.00
1616, 1665.00
1617, 1667.00
1618, 1668.00
1619, 1670.00
1620, 1671.00
1621, 1673.00
1622, 1674.00
1623, 1676.00
1624, 1676.00
1625, 1678.00
1626, 1678.00
1627, 1680.00
1628, 1682.00
1629, 1682.00
1630, 1684.00
1631, 1684.00
1632, 1685.00
1633, 1687.00
1634, 1688.00
1635, 1689.00
1636, 1691.00
1637, 1692.00
1638, 1692.00
1639, 1695.00
1640, 1695.00
1641, 1696.00
1642, 1697.00
1643, 1699.00
1644, 1700.00
1645, 1701.00
1646, 1702.00
1647, 1703.00
1648, 1704.00
1649, 1705.00
1650, 1707.00

1750, 2214.00
1751, 2217.00
1752, 2214.00
1753, 2216.00
1754, 2214.00
1755, 2214.00
1756, 2214.00
1757, 2215.00
1758, 2214.00
1759, 2214.00
1760, 2214.00
1761, 2213.00
1762, 2213.00
1763, 2211.00
1764, 2214.00
1765, 2213.00
1766, 2213.00
1767, 2214.00
1768, 2212.00
1769, 2213.00
1770, 2211.00
1771, 2211.00
1772, 2211.00
1773, 2213.00
1774, 2213.00
1775, 2210.00
1776, 2212.00
1777, 2209.00
1778, 2210.00
1779, 2209.00
1780, 2210.00
1781, 2207.00
1782, 2209.00
1783, 2207.00
1784, 2208.00
1785, 2207.00
1786, 2205.00
1787, 2208.00
1788, 2206.00
1789, 2204.00
1790, 2205.00
1791, 2205.00
1792, 2204.00
1793, 2205.00
1794, 2203.00
1795, 2204.00
1796, 2202.00
1797, 2201.00
1798, 2202.00
1799, 2201.00
1800, 2201.00
1801, 2202.00
1802, 2203.00
1803, 2198.00
1804, 2201.00
1805, 2200.00
1806, 2200.00
1807, 2200.00
1808, 2199.00
1809, 2201.00
1810, 2199.00
1811, 2198.00
1812, 2197.00
1813, 2199.00
1814, 2198.00
1815, 2196.00
1816, 2199.00
1817, 2196.00
1818, 2197.00
1819, 2196.00
1820, 2196.00
1821, 2196.00
1822, 2195.00
1823, 2195.00
1824, 2194.00
1825, 2192.00
1826, 2192.00
1827, 2192.00
1828, 2189.00
1829, 2189.00
1830, 2189.00
1831, 2188.00
1832, 2186.00
1833, 2186.00
1834, 2184.00
1835, 2181.00
1836, 2183.00
1837, 2181.00
1838, 2179.00
1839, 2178.00
1840, 2176.00
1841, 2176.00
1842, 2176.00
1843, 2171.00
1844, 2171.00
1845, 2169.00
1846, 2165.00
1847, 2163.00
1848, 2161.00
1849, 2162.00
1850, 2159.00
1851, 2156.00
1852, 2154.00
1853, 2153.00
1854, 2151.00
1855, 2149.00
1856, 2148.00
1857, 2144.00
1858, 2142.00
1859, 2142.00
1860, 2138.00
1861, 2137.00
1862, 2136.00
1863, 2134.00
1864, 2133.00
1865, 2129.00
1866, 2128.00
1867, 2129.00
1868, 2127.00
1869, 2124.00
1870, 2122.00
1871, 2121.00
1872, 2119.00
1873, 2117.00
1874, 2119.00
1875, 2116.00
1876, 2117.00
1877, 2114.00
1878, 2114.00
1879, 2112.00
1880, 2110.00
1881, 2111.00
1882, 2110.00
1883, 2107.00
1884, 2107.00
1885, 2108.00
1886, 2106.00
1887, 2108.00
1888, 2105.00
1889, 2105.00
1890, 2103.00
1891, 2105.00
1892, 2103.00
1893, 2103.00
1894, 2103.00
1895, 2103.00
1896, 2101.00
1897, 2100.00
1898, 2100.00
1899, 2102.00
1900, 2098.00
1901, 2098.00
1902, 2099.00
1903, 2098.00
1904, 2097.00
1905, 2100.00
1906, 2098.00
1907, 2099.00
1908, 2099.00
1909, 2098.00
1910, 2098.00
1911, 2097.00
1912, 2099.00
1913, 2097.00
1914, 2098.00
1915, 2098.00
1916, 2097.00
1917, 2096.00
1918, 2099.00
1919, 2098.00
1920, 2100.00
1921, 2098.00
1922, 2098.00
1923, 2097.00
1924, 2098.00
1925, 2097.00
1926, 2096.00
1927, 2097.00
1928, 2097.00
1929, 2099.00
1930, 2097.00
1931, 2097.00
1932, 2100.00
1933, 2096.00
1934, 2099.00
1935, 2100.00
1936, 2099.00
1937, 2100.00
1938, 2099.00
1939, 2098.00
1940, 2100.00
1941, 2100.00
1942, 2099.00
1943, 2101.00
1944, 2100.00
1945, 2101.00
1946, 2103.00
1947, 2101.00
1948, 2102.00
1949, 2102.00
1950, 2103.00
1951, 2105.00
1952, 2105.00
1953, 2103.00
1954, 2105.00
1955, 2105.00
1956, 2106.00
1957, 2108.00
1958, 2108.00
1959, 2107.00
1960, 2107.00
1961, 2108.00
1962, 2108.00
1963, 2111.00
1964, 2110.00
1965, 2111.00
1966, 2110.00
1967, 2113.00
1968, 2112.00
1969, 2113.00
1970, 2113.00
1971, 2113.00
1972, 2116.00
1973, 2117.00
1974, 2117.00
1975, 2117.00
1976, 2116.00
1977, 2117.00
1978, 2119.00
1979, 2120.00
1980, 2121.00
1981, 2120.00
1982, 2120.00
1983, 2121.00
1984, 2122.00
1985, 2123.00
1986, 2123.00
1987, 2124.00
1988, 2125.00
1989, 2122.00
1990, 2124.00
1991, 2126.00
1992, 2127.00
1993, 2127.00
1994, 2128.00
1995, 2129.00
1996, 2129.00
1997, 2130.00
1998, 2128.00
1999, 2131.00
2000, 2131.00
2001, 2132.00
2002, 2133.00
2003, 2134.00
2004, 2134.00
2005, 2134.00
2006, 2136.00
2007, 2135.00
2008, 2137.00
2009, 2136.00
2010, 2139.00
2011, 2137.00
2012, 2138.00
2013, 2139.00
2014, 2140.00
2015, 2141.00
2016, 2141.00
2017, 2142.00
2018, 2141.00
2019, 2142.00
2020, 2142.00
2021, 2145.00
2022, 2142.00
2023, 2145.00
2024, 2146.00
2025, 2145.00
2026, 2145.00
2027, 2146.00
2028, 2144.00
2029, 2149.00
2030, 2147.00
2031, 2149.00
2032, 2148.00
2033, 2150.00
2034, 2150.00
2035, 2151.00
2036, 2151.00
2037, 2152.00
2038, 2153.00
2039, 2155.00
2040, 2155.00
2041, 2156.00
2042, 2159.00
2043, 2156.00
2044, 2159.00
2045, 2161.00
2046, 2161.00
2047, 2162.00
2048, 2162.00
2049, 2162.00
2050, 2162.00
2051, 2165.00
2052, 2165.00
2053, 2165.00
2054, 2166.00
2055, 2168.00
2056, 2169.00
2057, 2171.00
2058, 2171.00
2059, 2171.00
2060, 2172.00
2061, 2172.00
2062, 2175.00
2063, 2175.00
2064, 2174.00
2065, 2174.00
2066, 2176.00
2067, 2178.00
2068, 2178.00
2069, 2177.00
2070, 2181.00
2071, 2180.00
2072, 2182.00
2073, 2182.00
2074, 2182.00
2075, 2183.00
2076, 2184.00
2077, 2185.00
2078, 2186.00
2079, 2187.00
2080, 2187.00
2081, 2188.00
2082, 2189.00
2083, 2188.00
2084, 2190.00
2085, 2192.00
2086, 2191.00
2087, 2191.00
2088, 2193.00
2089, 2194.00
2090, 2193.00
2091, 2194.00
2092, 2194.00
2093, 2194.00
2094, 2195.00
2095, 2195.00
2096, 2197.00
2097, 2197.00
2098, 2198.00
2099, 2198.00
2100, 2199.00
2101, 2199.00
2102, 2199.00
2103, 2198.00
2104, 2202.00
2105, 2202.00
2106, 2201.00
2107, 2199.00
2108, 2202.00
2109, 2202.00
2110, 2202.00
2111, 2202.00
2112, 2202.00
2113, 2203.00
2114, 2201.00
2115, 2202.00
2116, 2202.00
2117, 2203.00
2118, 2203.00
2119, 2204.00
2120, 2203.00
2121, 2204.00
2122, 2206.00
2123, 2207.00
2124, 2205.00
2125, 2207.00
2126, 2205.00
2127, 2206.00
2128, 2207.00
2129, 2209.00
2130, 2208.00
2131, 2206.00
2132, 2207.00
2133, 2208.00
2134, 2206.00
2135, 2210.00
2136, 2207.00
2137, 2209.00
2138, 2209.00
2139, 2208.00
2140, 2209.00
2141, 2209.00
2142, 2210.00
2143, 2208.00
2144, 2209.00
2145, 2209.00
2146, 2210.00
2147, 2209.00
2148, 2210.00
2149, 2209.00
2150, 2211.00
