FW version: 24
Log Version: 3.0.3

General Info:
       Command/Macro Performed,            Timestamp,             Device ID, COM Port, UART/I2C, Test Name, Host Major, Host Minor, Host Revision, Host Git Commit
            Single_measurement,  2023_06_28_12_53_56,       Insight2_F4_xxx,    USB-C,      USB,          ,          0,          1,             1,      4031237645

Show Spectrometer Status:
l0_version, f4_version, battery_perc, battery_mVolt, accelerometer_temp, accelerometer_x, accelerometer_y, accelerometer_z, compass_temp, compass_x, compass_y, compass_z, lamp_0, lamp_1, gain_0, gain_1
        17,         24,           51,          1923,               6448,             164,             272,           18720,            0,     65533,     65428,     65522,   3276,   3276,      0,      0

Temperature Statistic Info:
NTC AVG [°C], NTC2 AVG [°C]
      39.704,        39.441

Statistic Info:
M1:  num,      min,      max,   median,      AVG,      STD,M2:  num,      min,      max,   median,      AVG,      STD
     301,   664.00,   753.00,   684.00,   693.58,  27.7441,     401,   898.00,   950.00,   926.00,   924.99,  17.7208,

Measurements:
Wavelength, Data Amplitude
1350, 674.00
1351, 675.00
1352, 674.00
1353, 674.00
1354, 674.00
1355, 674.00
1356, 673.00
1357, 673.00
1358, 673.00
1359, 673.00
1360, 673.00
1361, 673.00
1362, 672.00
1363, 672.00
1364, 672.00
1365, 672.00
1366, 671.00
1367, 671.00
1368, 671.00
1369, 670.00
1370, 670.00
1371, 670.00
1372, 669.00
1373, 669.00
1374, 669.00
1375, 668.00
1376, 668.00
1377, 668.00
1378, 667.00
1379, 667.00
1380, 668.00
1381, 667.00
1382, 667.00
1383, 667.00
1384, 666.00
1385, 666.00
1386, 666.00
1387, 666.00
1388, 666.00
1389, 666.00
1390, 666.00
1391, 666.00
1392, 665.00
1393, 666.00
1394, 665.00
1395, 665.00
1396, 665.00
1397, 665.00
1398, 665.00
1399, 665.00
1400, 665.00
1401, 665.00
1402, 664.00
1403, 665.00
1404, 665.00
1405, 664.00
1406, 665.00
1407, 664.00
1408, 664.00
1409, 665.00
1410, 664.00
1411, 664.00
1412, 664.00
1413, 665.00
1414, 664.00
1415, 665.00
1416, 664.00
1417, 664.00
1418, 665.00
1419, 665.00
1420, 664.00
1421, 664.00
1422, 665.00
1423, 665.00
1424, 665.00
1425, 665.00
1426, 665.00
1427, 665.00
1428, 665.00
1429, 665.00
1430, 665.00
1431, 666.00
1432, 666.00
1433, 666.00
1434, 666.00
1435, 666.00
1436, 666.00
1437, 666.00
1438, 666.00
1439, 667.00
1440, 667.00
1441, 667.00
1442, 667.00
1443, 668.00
1444, 668.00
1445, 668.00
1446, 668.00
1447, 668.00
1448, 669.00
1449, 668.00
1450, 669.00
1451, 669.00
1452, 669.00
1453, 669.00
1454, 669.00
1455, 670.00
1456, 670.00
1457, 670.00
1458, 670.00
1459, 671.00
1460, 671.00
1461, 671.00
1462, 672.00
1463, 672.00
1464, 672.00
1465, 672.00
1466, 673.00
1467, 673.00
1468, 673.00
1469, 673.00
1470, 674.00
1471, 674.00
1472, 675.00
1473, 675.00
1474, 675.00
1475, 675.00
1476, 676.00
1477, 676.00
1478, 676.00
1479, 677.00
1480, 677.00
1481, 677.00
1482, 678.00
1483, 678.00
1484, 679.00
1485, 678.00
1486, 679.00
1487, 680.00
1488, 680.00
1489, 680.00
1490, 681.00
1491, 681.00
1492, 681.00
1493, 682.00
1494, 682.00
1495, 683.00
1496, 683.00
1497, 683.00
1498, 683.00
1499, 684.00
1500, 684.00
1501, 685.00
1502, 685.00
1503, 685.00
1504, 686.00
1505, 686.00
1506, 687.00
1507, 687.00
1508, 687.00
1509, 688.00
1510, 687.00
1511, 688.00
1512, 689.00
1513, 689.00
1514, 689.00
1515, 690.00
1516, 691.00
1517, 691.00
1518, 691.00
1519, 691.00
1520, 691.00
1521, 692.00
1522, 693.00
1523, 693.00
1524, 693.00
1525, 694.00
1526, 694.00
1527, 695.00
1528, 695.00
1529, 696.00
1530, 696.00
1531, 697.00
1532, 697.00
1533, 697.00
1534, 698.00
1535, 698.00
1536, 698.00
1537, 699.00
1538, 699.00
1539, 700.00
1540, 700.00
1541, 700.00
1542, 701.00
1543, 701.00
1544, 702.00
1545, 702.00
1546, 703.00
1547, 704.00
1548, 703.00
1549, 704.00
1550, 705.00
1551, 705.00
1552, 706.00
1553, 706.00
1554, 707.00
1555, 707.00
1556, 707.00
1557, 708.00
1558, 708.00
1559, 708.00
1560, 709.00
1561, 710.00
1562, 711.00
1563, 711.00
1564, 711.00
1565, 712.00
1566, 712.00
1567, 712.00
1568, 713.00
1569, 713.00
1570, 715.00
1571, 715.00
1572, 715.00
1573, 716.00
1574, 717.00
1575, 717.00
1576, 716.00
1577, 718.00
1578, 718.00
1579, 718.00
1580, 719.00
1581, 720.00
1582, 720.00
1583, 720.00
1584, 721.00
1585, 721.00
1586, 721.00
1587, 722.00
1588, 723.00
1589, 722.00
1590, 723.00
1591, 724.00
1592, 724.00
1593, 725.00
1594, 725.00
1595, 725.00
1596, 725.00
1597, 726.00
1598, 727.00
1599, 727.00
1600, 727.00
1601, 728.00
1602, 728.00
1603, 729.00
1604, 730.00
1605, 730.00
1606, 730.00
1607, 731.00
1608, 731.00
1609, 732.00
1610, 732.00
1611, 733.00
1612, 733.00
1613, 734.00
1614, 734.00
1615, 735.00
1616, 736.00
1617, 736.00
1618, 737.00
1619, 738.00
1620, 738.00
1621, 739.00
1622, 739.00
1623, 740.00
1624, 740.00
1625, 741.00
1626, 741.00
1627, 742.00
1628, 742.00
1629, 743.00
1630, 743.00
1631, 744.00
1632, 745.00
1633, 745.00
1634, 746.00
1635, 746.00
1636, 746.00
1637, 747.00
1638, 747.00
1639, 747.00
1640, 748.00
1641, 748.00
1642, 749.00
1643, 750.00
1644, 749.00
1645, 750.00
1646, 751.00
1647, 751.00
1648, 752.00
1649, 752.00
1650, 753.00

1750, 949.00
1751, 949.00
1752, 949.00
1753, 949.00
1754, 950.00
1755, 949.00
1756, 950.00
1757, 949.00
1758, 949.00
1759, 949.00
1760, 949.00
1761, 950.00
1762, 950.00
1763, 949.00
1764, 950.00
1765, 949.00
1766, 949.00
1767, 949.00
1768, 948.00
1769, 949.00
1770, 949.00
1771, 948.00
1772, 948.00
1773, 949.00
1774, 949.00
1775, 947.00
1776, 948.00
1777, 948.00
1778, 948.00
1779, 947.00
1780, 947.00
1781, 947.00
1782, 947.00
1783, 947.00
1784, 947.00
1785, 946.00
1786, 946.00
1787, 947.00
1788, 945.00
1789, 945.00
1790, 945.00
1791, 945.00
1792, 946.00
1793, 945.00
1794, 944.00
1795, 944.00
1796, 944.00
1797, 945.00
1798, 944.00
1799, 944.00
1800, 944.00
1801, 943.00
1802, 943.00
1803, 943.00
1804, 943.00
1805, 943.00
1806, 944.00
1807, 943.00
1808, 942.00
1809, 943.00
1810, 943.00
1811, 943.00
1812, 942.00
1813, 943.00
1814, 942.00
1815, 941.00
1816, 942.00
1817, 941.00
1818, 941.00
1819, 942.00
1820, 941.00
1821, 940.00
1822, 941.00
1823, 941.00
1824, 940.00
1825, 940.00
1826, 940.00
1827, 940.00
1828, 938.00
1829, 938.00
1830, 938.00
1831, 938.00
1832, 937.00
1833, 936.00
1834, 937.00
1835, 936.00
1836, 936.00
1837, 935.00
1838, 934.00
1839, 934.00
1840, 933.00
1841, 932.00
1842, 932.00
1843, 931.00
1844, 930.00
1845, 929.00
1846, 928.00
1847, 928.00
1848, 927.00
1849, 926.00
1850, 925.00
1851, 925.00
1852, 924.00
1853, 923.00
1854, 922.00
1855, 921.00
1856, 921.00
1857, 920.00
1858, 918.00
1859, 919.00
1860, 917.00
1861, 916.00
1862, 915.00
1863, 915.00
1864, 915.00
1865, 913.00
1866, 912.00
1867, 911.00
1868, 911.00
1869, 911.00
1870, 910.00
1871, 909.00
1872, 909.00
1873, 908.00
1874, 908.00
1875, 907.00
1876, 906.00
1877, 906.00
1878, 906.00
1879, 906.00
1880, 905.00
1881, 905.00
1882, 904.00
1883, 904.00
1884, 903.00
1885, 903.00
1886, 903.00
1887, 903.00
1888, 903.00
1889, 902.00
1890, 903.00
1891, 901.00
1892, 902.00
1893, 901.00
1894, 902.00
1895, 901.00
1896, 901.00
1897, 901.00
1898, 900.00
1899, 901.00
1900, 900.00
1901, 900.00
1902, 900.00
1903, 900.00
1904, 900.00
1905, 900.00
1906, 899.00
1907, 900.00
1908, 900.00
1909, 900.00
1910, 899.00
1911, 900.00
1912, 899.00
1913, 899.00
1914, 899.00
1915, 899.00
1916, 899.00
1917, 899.00
1918, 898.00
1919, 899.00
1920, 899.00
1921, 899.00
1922, 899.00
1923, 899.00
1924, 899.00
1925, 899.00
1926, 899.00
1927, 899.00
1928, 899.00
1929, 898.00
1930, 900.00
1931, 900.00
1932, 899.00
1933, 900.00
1934, 899.00
1935, 899.00
1936, 899.00
1937, 900.00
1938, 901.00
1939, 900.00
1940, 900.00
1941, 900.00
1942, 900.00
1943, 901.00
1944, 901.00
1945, 901.00
1946, 901.00
1947, 901.00
1948, 901.00
1949, 902.00
1950, 902.00
1951, 901.00
1952, 902.00
1953, 902.00
1954, 902.00
1955, 902.00
1956, 902.00
1957, 902.00
1958, 903.00
1959, 903.00
1960, 903.00
1961, 903.00
1962, 904.00
1963, 904.00
1964, 904.00
1965, 905.00
1966, 905.00
1967, 905.00
1968, 905.00
1969, 905.00
1970, 905.00
1971, 906.00
1972, 906.00
1973, 907.00
1974, 907.00
1975, 906.00
1976, 907.00
1977, 907.00
1978, 907.00
1979, 909.00
1980, 908.00
1981, 909.00
1982, 909.00
1983, 909.00
1984, 910.00
1985, 909.00
1986, 910.00
1987, 910.00
1988, 910.00
1989, 911.00
1990, 911.00
1991, 911.00
1992, 912.00
1993, 911.00
1994, 912.00
1995, 912.00
1996, 913.00
1997, 913.00
1998, 913.00
1999, 913.00
2000, 913.00
2001, 913.00
2002, 914.00
2003, 914.00
2004, 914.00
2005, 915.00
2006, 915.00
2007, 915.00
2008, 915.00
2009, 915.00
2010, 915.00
2011, 917.00
2012, 917.00
2013, 916.00
2014, 916.00
2015, 917.00
2016, 917.00
2017, 917.00
2018, 917.00
2019, 918.00
2020, 918.00
2021, 919.00
2022, 919.00
2023, 919.00
2024, 919.00
2025, 919.00
2026, 919.00
2027, 920.00
2028, 920.00
2029, 920.00
2030, 920.00
2031, 921.00
2032, 920.00
2033, 921.00
2034, 921.00
2035, 922.00
2036, 922.00
2037, 923.00
2038, 922.00
2039, 923.00
2040, 923.00
2041, 923.00
2042, 923.00
2043, 924.00
2044, 925.00
2045, 925.00
2046, 925.00
2047, 925.00
2048, 925.00
2049, 926.00
2050, 927.00
2051, 928.00
2052, 927.00
2053, 927.00
2054, 928.00
2055, 928.00
2056, 929.00
2057, 930.00
2058, 929.00
2059, 930.00
2060, 931.00
2061, 930.00
2062, 931.00
2063, 931.00
2064, 931.00
2065, 932.00
2066, 932.00
2067, 933.00
2068, 933.00
2069, 933.00
2070, 934.00
2071, 934.00
2072, 935.00
2073, 935.00
2074, 935.00
2075, 936.00
2076, 935.00
2077, 935.00
2078, 936.00
2079, 937.00
2080, 936.00
2081, 937.00
2082, 937.00
2083, 938.00
2084, 938.00
2085, 938.00
2086, 939.00
2087, 938.00
2088, 939.00
2089, 938.00
2090, 939.00
2091, 939.00
2092, 940.00
2093, 940.00
2094, 940.00
2095, 940.00
2096, 940.00
2097, 940.00
2098, 941.00
2099, 941.00
2100, 941.00
2101, 942.00
2102, 942.00
2103, 941.00
2104, 941.00
2105, 942.00
2106, 942.00
2107, 942.00
2108, 942.00
2109, 942.00
2110, 942.00
2111, 943.00
2112, 943.00
2113, 943.00
2114, 943.00
2115, 944.00
2116, 943.00
2117, 943.00
2118, 943.00
2119, 943.00
2120, 944.00
2121, 943.00
2122, 944.00
2123, 943.00
2124, 944.00
2125, 944.00
2126, 944.00
2127, 943.00
2128, 944.00
2129, 944.00
2130, 945.00
2131, 945.00
2132, 945.00
2133, 946.00
2134, 945.00
2135, 945.00
2136, 945.00
2137, 946.00
2138, 945.00
2139, 945.00
2140, 946.00
2141, 946.00
2142, 946.00
2143, 946.00
2144, 946.00
2145, 946.00
2146, 945.00
2147, 946.00
2148, 946.00
2149, 945.00
2150, 946.00
