FW version: 24
Log Version: 3.0.3

General Info:
       Command/Macro Performed,            Timestamp,             Device ID, COM Port, UART/I2C, Test Name, Host Major, Host Minor, Host Revision, Host Git Commit
            Single_measurement,  2023_06_27_12_29_34,       Insight2_F4_xxx,    USB-C,      USB,          ,          0,          1,             1,      4031237645

Show Spectrometer Status:
l0_version, f4_version, battery_perc, battery_mVolt, accelerometer_temp, accelerometer_x, accelerometer_y, accelerometer_z, compass_temp, compass_x, compass_y, compass_z, lamp_0, lamp_1, gain_0, gain_1
        17,         24,           95,          2078,               5392,             740,           64948,           18420,            0,     65516,     65469,     65532,   2866,   2866,    1,    1

Temperature Statistic Info:
NTC AVG [°C], NTC2 AVG [°C]
      36.835,        36.551

Statistic Info:
M1:  num,      min,      max,   median,      AVG,      STD,M2:  num,      min,      max,   median,      AVG,      STD
     301,  1337.00,  1518.00,  1379.00,  1396.27,  54.8929,     401,  1890.00,  1997.00,  1946.00,  1944.22,  36.5220,

Measurements:
Wavelength, Data Amplitude
1350, 1359.00
1351, 1358.00
1352, 1359.00
1353, 1357.00
1354, 1356.00
1355, 1357.00
1356, 1356.00
1357, 1356.00
1358, 1354.00
1359, 1354.00
1360, 1355.00
1361, 1355.00
1362, 1354.00
1363, 1353.00
1364, 1353.00
1365, 1353.00
1366, 1352.00
1367, 1353.00
1368, 1351.00
1369, 1350.00
1370, 1349.00
1371, 1349.00
1372, 1349.00
1373, 1347.00
1374, 1348.00
1375, 1348.00
1376, 1346.00
1377, 1347.00
1378, 1346.00
1379, 1345.00
1380, 1345.00
1381, 1344.00
1382, 1343.00
1383, 1343.00
1384, 1343.00
1385, 1342.00
1386, 1341.00
1387, 1342.00
1388, 1341.00
1389, 1340.00
1390, 1341.00
1391, 1341.00
1392, 1341.00
1393, 1341.00
1394, 1340.00
1395, 1339.00
1396, 1339.00
1397, 1339.00
1398, 1339.00
1399, 1339.00
1400, 1339.00
1401, 1339.00
1402, 1339.00
1403, 1339.00
1404, 1339.00
1405, 1339.00
1406, 1339.00
1407, 1339.00
1408, 1338.00
1409, 1338.00
1410, 1339.00
1411, 1338.00
1412, 1337.00
1413, 1338.00
1414, 1337.00
1415, 1338.00
1416, 1338.00
1417, 1338.00
1418, 1338.00
1419, 1339.00
1420, 1340.00
1421, 1339.00
1422, 1339.00
1423, 1339.00
1424, 1339.00
1425, 1338.00
1426, 1339.00
1427, 1339.00
1428, 1339.00
1429, 1339.00
1430, 1340.00
1431, 1341.00
1432, 1343.00
1433, 1341.00
1434, 1342.00
1435, 1342.00
1436, 1342.00
1437, 1341.00
1438, 1342.00
1439, 1342.00
1440, 1343.00
1441, 1343.00
1442, 1344.00
1443, 1344.00
1444, 1346.00
1445, 1346.00
1446, 1346.00
1447, 1346.00
1448, 1347.00
1449, 1345.00
1450, 1348.00
1451, 1347.00
1452, 1347.00
1453, 1347.00
1454, 1349.00
1455, 1349.00
1456, 1350.00
1457, 1350.00
1458, 1351.00
1459, 1351.00
1460, 1351.00
1461, 1351.00
1462, 1352.00
1463, 1353.00
1464, 1354.00
1465, 1353.00
1466, 1353.00
1467, 1355.00
1468, 1356.00
1469, 1356.00
1470, 1358.00
1471, 1358.00
1472, 1359.00
1473, 1359.00
1474, 1360.00
1475, 1360.00
1476, 1361.00
1477, 1360.00
1478, 1362.00
1479, 1363.00
1480, 1364.00
1481, 1365.00
1482, 1367.00
1483, 1366.00
1484, 1368.00
1485, 1368.00
1486, 1368.00
1487, 1368.00
1488, 1369.00
1489, 1370.00
1490, 1369.00
1491, 1371.00
1492, 1373.00
1493, 1374.00
1494, 1373.00
1495, 1376.00
1496, 1377.00
1497, 1377.00
1498, 1377.00
1499, 1378.00
1500, 1379.00
1501, 1379.00
1502, 1380.00
1503, 1380.00
1504, 1382.00
1505, 1382.00
1506, 1383.00
1507, 1384.00
1508, 1385.00
1509, 1386.00
1510, 1387.00
1511, 1386.00
1512, 1387.00
1513, 1388.00
1514, 1389.00
1515, 1389.00
1516, 1391.00
1517, 1391.00
1518, 1393.00
1519, 1393.00
1520, 1396.00
1521, 1397.00
1522, 1396.00
1523, 1396.00
1524, 1397.00
1525, 1397.00
1526, 1399.00
1527, 1398.00
1528, 1400.00
1529, 1401.00
1530, 1402.00
1531, 1403.00
1532, 1404.00
1533, 1405.00
1534, 1407.00
1535, 1406.00
1536, 1407.00
1537, 1407.00
1538, 1407.00
1539, 1409.00
1540, 1410.00
1541, 1410.00
1542, 1412.00
1543, 1412.00
1544, 1414.00
1545, 1415.00
1546, 1415.00
1547, 1416.00
1548, 1415.00
1549, 1417.00
1550, 1418.00
1551, 1418.00
1552, 1419.00
1553, 1420.00
1554, 1421.00
1555, 1424.00
1556, 1424.00
1557, 1424.00
1558, 1425.00
1559, 1426.00
1560, 1426.00
1561, 1427.00
1562, 1429.00
1563, 1429.00
1564, 1431.00
1565, 1431.00
1566, 1433.00
1567, 1434.00
1568, 1435.00
1569, 1434.00
1570, 1436.00
1571, 1437.00
1572, 1438.00
1573, 1439.00
1574, 1440.00
1575, 1442.00
1576, 1441.00
1577, 1443.00
1578, 1446.00
1579, 1445.00
1580, 1445.00
1581, 1446.00
1582, 1447.00
1583, 1447.00
1584, 1448.00
1585, 1449.00
1586, 1450.00
1587, 1451.00
1588, 1452.00
1589, 1453.00
1590, 1455.00
1591, 1455.00
1592, 1456.00
1593, 1457.00
1594, 1456.00
1595, 1457.00
1596, 1458.00
1597, 1459.00
1598, 1460.00
1599, 1462.00
1600, 1463.00
1601, 1464.00
1602, 1465.00
1603, 1466.00
1604, 1466.00
1605, 1467.00
1606, 1469.00
1607, 1469.00
1608, 1471.00
1609, 1471.00
1610, 1473.00
1611, 1474.00
1612, 1475.00
1613, 1475.00
1614, 1477.00
1615, 1477.00
1616, 1478.00
1617, 1480.00
1618, 1481.00
1619, 1484.00
1620, 1484.00
1621, 1485.00
1622, 1487.00
1623, 1487.00
1624, 1487.00
1625, 1489.00
1626, 1491.00
1627, 1492.00
1628, 1493.00
1629, 1494.00
1630, 1497.00
1631, 1496.00
1632, 1497.00
1633, 1497.00
1634, 1498.00
1635, 1499.00
1636, 1501.00
1637, 1503.00
1638, 1503.00
1639, 1504.00
1640, 1506.00
1641, 1505.00
1642, 1507.00
1643, 1507.00
1644, 1508.00
1645, 1509.00
1646, 1509.00
1647, 1512.00
1648, 1513.00
1649, 1515.00
1650, 1518.00

1750, 1995.00
1751, 1994.00
1752, 1994.00
1753, 1996.00
1754, 1995.00
1755, 1997.00
1756, 1996.00
1757, 1996.00
1758, 1995.00
1759, 1996.00
1760, 1997.00
1761, 1996.00
1762, 1996.00
1763, 1995.00
1764, 1995.00
1765, 1995.00
1766, 1995.00
1767, 1995.00
1768, 1994.00
1769, 1995.00
1770, 1995.00
1771, 1995.00
1772, 1994.00
1773, 1994.00
1774, 1994.00
1775, 1992.00
1776, 1991.00
1777, 1994.00
1778, 1992.00
1779, 1991.00
1780, 1991.00
1781, 1993.00
1782, 1991.00
1783, 1991.00
1784, 1991.00
1785, 1990.00
1786, 1989.00
1787, 1988.00
1788, 1989.00
1789, 1988.00
1790, 1988.00
1791, 1988.00
1792, 1986.00
1793, 1987.00
1794, 1986.00
1795, 1985.00
1796, 1985.00
1797, 1985.00
1798, 1985.00
1799, 1987.00
1800, 1986.00
1801, 1986.00
1802, 1984.00
1803, 1983.00
1804, 1983.00
1805, 1983.00
1806, 1982.00
1807, 1981.00
1808, 1984.00
1809, 1982.00
1810, 1981.00
1811, 1980.00
1812, 1981.00
1813, 1980.00
1814, 1983.00
1815, 1981.00
1816, 1980.00
1817, 1981.00
1818, 1979.00
1819, 1978.00
1820, 1978.00
1821, 1981.00
1822, 1978.00
1823, 1976.00
1824, 1976.00
1825, 1975.00
1826, 1975.00
1827, 1975.00
1828, 1974.00
1829, 1971.00
1830, 1972.00
1831, 1971.00
1832, 1971.00
1833, 1970.00
1834, 1970.00
1835, 1967.00
1836, 1967.00
1837, 1965.00
1838, 1966.00
1839, 1964.00
1840, 1961.00
1841, 1961.00
1842, 1959.00
1843, 1958.00
1844, 1956.00
1845, 1953.00
1846, 1953.00
1847, 1951.00
1848, 1950.00
1849, 1947.00
1850, 1945.00
1851, 1944.00
1852, 1943.00
1853, 1941.00
1854, 1938.00
1855, 1937.00
1856, 1934.00
1857, 1934.00
1858, 1931.00
1859, 1931.00
1860, 1929.00
1861, 1929.00
1862, 1925.00
1863, 1925.00
1864, 1923.00
1865, 1922.00
1866, 1919.00
1867, 1916.00
1868, 1916.00
1869, 1914.00
1870, 1912.00
1871, 1911.00
1872, 1912.00
1873, 1911.00
1874, 1910.00
1875, 1908.00
1876, 1908.00
1877, 1907.00
1878, 1906.00
1879, 1906.00
1880, 1904.00
1881, 1905.00
1882, 1903.00
1883, 1903.00
1884, 1902.00
1885, 1900.00
1886, 1901.00
1887, 1901.00
1888, 1900.00
1889, 1899.00
1890, 1899.00
1891, 1898.00
1892, 1897.00
1893, 1898.00
1894, 1897.00
1895, 1896.00
1896, 1896.00
1897, 1895.00
1898, 1897.00
1899, 1895.00
1900, 1893.00
1901, 1896.00
1902, 1895.00
1903, 1892.00
1904, 1893.00
1905, 1893.00
1906, 1893.00
1907, 1893.00
1908, 1892.00
1909, 1892.00
1910, 1893.00
1911, 1892.00
1912, 1893.00
1913, 1892.00
1914, 1893.00
1915, 1891.00
1916, 1893.00
1917, 1892.00
1918, 1892.00
1919, 1892.00
1920, 1892.00
1921, 1891.00
1922, 1892.00
1923, 1891.00
1924, 1892.00
1925, 1893.00
1926, 1891.00
1927, 1893.00
1928, 1891.00
1929, 1893.00
1930, 1892.00
1931, 1892.00
1932, 1892.00
1933, 1893.00
1934, 1892.00
1935, 1890.00
1936, 1894.00
1937, 1892.00
1938, 1893.00
1939, 1893.00
1940, 1894.00
1941, 1893.00
1942, 1894.00
1943, 1895.00
1944, 1893.00
1945, 1894.00
1946, 1894.00
1947, 1895.00
1948, 1895.00
1949, 1896.00
1950, 1895.00
1951, 1896.00
1952, 1899.00
1953, 1897.00
1954, 1898.00
1955, 1897.00
1956, 1899.00
1957, 1899.00
1958, 1899.00
1959, 1899.00
1960, 1899.00
1961, 1899.00
1962, 1901.00
1963, 1902.00
1964, 1901.00
1965, 1901.00
1966, 1903.00
1967, 1903.00
1968, 1903.00
1969, 1903.00
1970, 1905.00
1971, 1903.00
1972, 1905.00
1973, 1906.00
1974, 1905.00
1975, 1907.00
1976, 1907.00
1977, 1907.00
1978, 1907.00
1979, 1909.00
1980, 1909.00
1981, 1908.00
1982, 1908.00
1983, 1911.00
1984, 1910.00
1985, 1911.00
1986, 1911.00
1987, 1913.00
1988, 1913.00
1989, 1915.00
1990, 1915.00
1991, 1916.00
1992, 1915.00
1993, 1915.00
1994, 1917.00
1995, 1915.00
1996, 1917.00
1997, 1918.00
1998, 1916.00
1999, 1917.00
2000, 1918.00
2001, 1919.00
2002, 1917.00
2003, 1921.00
2004, 1922.00
2005, 1920.00
2006, 1922.00
2007, 1921.00
2008, 1923.00
2009, 1923.00
2010, 1924.00
2011, 1925.00
2012, 1923.00
2013, 1926.00
2014, 1925.00
2015, 1926.00
2016, 1925.00
2017, 1927.00
2018, 1928.00
2019, 1927.00
2020, 1927.00
2021, 1931.00
2022, 1930.00
2023, 1928.00
2024, 1931.00
2025, 1930.00
2026, 1931.00
2027, 1933.00
2028, 1932.00
2029, 1933.00
2030, 1933.00
2031, 1936.00
2032, 1935.00
2033, 1935.00
2034, 1935.00
2035, 1936.00
2036, 1936.00
2037, 1936.00
2038, 1937.00
2039, 1939.00
2040, 1939.00
2041, 1940.00
2042, 1941.00
2043, 1942.00
2044, 1942.00
2045, 1942.00
2046, 1943.00
2047, 1942.00
2048, 1945.00
2049, 1946.00
2050, 1945.00
2051, 1946.00
2052, 1946.00
2053, 1947.00
2054, 1949.00
2055, 1950.00
2056, 1951.00
2057, 1950.00
2058, 1949.00
2059, 1951.00
2060, 1952.00
2061, 1953.00
2062, 1954.00
2063, 1954.00
2064, 1957.00
2065, 1957.00
2066, 1957.00
2067, 1959.00
2068, 1958.00
2069, 1959.00
2070, 1958.00
2071, 1961.00
2072, 1961.00
2073, 1963.00
2074, 1961.00
2075, 1963.00
2076, 1964.00
2077, 1965.00
2078, 1965.00
2079, 1966.00
2080, 1966.00
2081, 1966.00
2082, 1966.00
2083, 1968.00
2084, 1968.00
2085, 1969.00
2086, 1971.00
2087, 1972.00
2088, 1971.00
2089, 1971.00
2090, 1974.00
2091, 1974.00
2092, 1972.00
2093, 1973.00
2094, 1974.00
2095, 1973.00
2096, 1975.00
2097, 1974.00
2098, 1975.00
2099, 1977.00
2100, 1976.00
2101, 1975.00
2102, 1978.00
2103, 1976.00
2104, 1978.00
2105, 1979.00
2106, 1979.00
2107, 1978.00
2108, 1980.00
2109, 1979.00
2110, 1979.00
2111, 1980.00
2112, 1979.00
2113, 1979.00
2114, 1980.00
2115, 1981.00
2116, 1981.00
2117, 1982.00
2118, 1983.00
2119, 1981.00
2120, 1981.00
2121, 1982.00
2122, 1980.00
2123, 1980.00
2124, 1983.00
2125, 1985.00
2126, 1986.00
2127, 1984.00
2128, 1982.00
2129, 1984.00
2130, 1984.00
2131, 1983.00
2132, 1985.00
2133, 1984.00
2134, 1986.00
2135, 1985.00
2136, 1987.00
2137, 1986.00
2138, 1984.00
2139, 1985.00
2140, 1986.00
2141, 1987.00
2142, 1985.00
2143, 1986.00
2144, 1991.00
2145, 1989.00
2146, 1987.00
2147, 1986.00
2148, 1987.00
2149, 1987.00
2150, 1987.00
