FW version: 24
Log Version: 3.0.3

General Info:
       Command/Macro Performed,            Timestamp,             Device ID, COM Port, UART/I2C, Test Name, Host Major, Host Minor, Host Revision, Host Git Commit
            Single_measurement,  2023_06_27_12_29_13,       Insight2_F4_xxx,    USB-C,      USB,          ,          0,          1,             1,      4031237645

Show Spectrometer Status:
l0_version, f4_version, battery_perc, battery_mVolt, accelerometer_temp, accelerometer_x, accelerometer_y, accelerometer_z, compass_temp, compass_x, compass_y, compass_z, lamp_0, lamp_1, gain_0, gain_1
        17,         24,           95,          2078,               5376,             740,           64872,           18616,            0,     65509,     65517,     65534,   2047,   2047,    1,    1

Temperature Statistic Info:
NTC AVG [°C], NTC2 AVG [°C]
      36.665,        36.380

Statistic Info:
M1:  num,      min,      max,   median,      AVG,      STD,M2:  num,      min,      max,   median,      AVG,      STD
     301,   686.00,   787.00,   711.00,   719.98,  31.0817,     401,  1064.00,  1125.00,  1097.00,  1095.72,  21.2493,

Measurements:
Wavelength, Data Amplitude
1350, 695.00
1351, 695.00
1352, 695.00
1353, 695.00
1354, 694.00
1355, 695.00
1356, 695.00
1357, 695.00
1358, 695.00
1359, 695.00
1360, 694.00
1361, 694.00
1362, 695.00
1363, 693.00
1364, 693.00
1365, 693.00
1366, 693.00
1367, 692.00
1368, 691.00
1369, 691.00
1370, 692.00
1371, 692.00
1372, 691.00
1373, 692.00
1374, 691.00
1375, 691.00
1376, 690.00
1377, 690.00
1378, 690.00
1379, 689.00
1380, 690.00
1381, 689.00
1382, 689.00
1383, 688.00
1384, 688.00
1385, 689.00
1386, 688.00
1387, 688.00
1388, 689.00
1389, 688.00
1390, 688.00
1391, 688.00
1392, 688.00
1393, 688.00
1394, 687.00
1395, 687.00
1396, 687.00
1397, 687.00
1398, 688.00
1399, 687.00
1400, 687.00
1401, 688.00
1402, 688.00
1403, 687.00
1404, 687.00
1405, 687.00
1406, 687.00
1407, 686.00
1408, 686.00
1409, 686.00
1410, 687.00
1411, 687.00
1412, 687.00
1413, 687.00
1414, 687.00
1415, 687.00
1416, 687.00
1417, 687.00
1418, 688.00
1419, 688.00
1420, 688.00
1421, 688.00
1422, 687.00
1423, 688.00
1424, 686.00
1425, 688.00
1426, 688.00
1427, 688.00
1428, 688.00
1429, 688.00
1430, 688.00
1431, 689.00
1432, 689.00
1433, 689.00
1434, 688.00
1435, 689.00
1436, 689.00
1437, 689.00
1438, 689.00
1439, 689.00
1440, 690.00
1441, 690.00
1442, 691.00
1443, 691.00
1444, 693.00
1445, 691.00
1446, 691.00
1447, 692.00
1448, 691.00
1449, 691.00
1450, 692.00
1451, 692.00
1452, 693.00
1453, 694.00
1454, 693.00
1455, 694.00
1456, 695.00
1457, 694.00
1458, 694.00
1459, 695.00
1460, 695.00
1461, 695.00
1462, 696.00
1463, 696.00
1464, 696.00
1465, 696.00
1466, 697.00
1467, 698.00
1468, 698.00
1469, 698.00
1470, 699.00
1471, 698.00
1472, 699.00
1473, 700.00
1474, 699.00
1475, 700.00
1476, 701.00
1477, 701.00
1478, 701.00
1479, 702.00
1480, 702.00
1481, 703.00
1482, 703.00
1483, 703.00
1484, 705.00
1485, 705.00
1486, 705.00
1487, 705.00
1488, 706.00
1489, 707.00
1490, 706.00
1491, 706.00
1492, 708.00
1493, 708.00
1494, 708.00
1495, 710.00
1496, 709.00
1497, 710.00
1498, 711.00
1499, 711.00
1500, 712.00
1501, 711.00
1502, 712.00
1503, 711.00
1504, 712.00
1505, 713.00
1506, 713.00
1507, 714.00
1508, 715.00
1509, 715.00
1510, 715.00
1511, 716.00
1512, 717.00
1513, 717.00
1514, 718.00
1515, 718.00
1516, 718.00
1517, 719.00
1518, 720.00
1519, 719.00
1520, 720.00
1521, 722.00
1522, 721.00
1523, 723.00
1524, 723.00
1525, 722.00
1526, 722.00
1527, 724.00
1528, 724.00
1529, 724.00
1530, 725.00
1531, 725.00
1532, 726.00
1533, 726.00
1534, 727.00
1535, 727.00
1536, 728.00
1537, 728.00
1538, 728.00
1539, 728.00
1540, 730.00
1541, 729.00
1542, 730.00
1543, 730.00
1544, 731.00
1545, 732.00
1546, 733.00
1547, 732.00
1548, 733.00
1549, 733.00
1550, 734.00
1551, 733.00
1552, 734.00
1553, 734.00
1554, 735.00
1555, 735.00
1556, 736.00
1557, 736.00
1558, 737.00
1559, 738.00
1560, 738.00
1561, 738.00
1562, 740.00
1563, 740.00
1564, 740.00
1565, 740.00
1566, 741.00
1567, 740.00
1568, 742.00
1569, 743.00
1570, 742.00
1571, 744.00
1572, 744.00
1573, 745.00
1574, 744.00
1575, 745.00
1576, 745.00
1577, 746.00
1578, 747.00
1579, 747.00
1580, 748.00
1581, 749.00
1582, 749.00
1583, 749.00
1584, 749.00
1585, 750.00
1586, 750.00
1587, 750.00
1588, 752.00
1589, 751.00
1590, 753.00
1591, 753.00
1592, 754.00
1593, 753.00
1594, 754.00
1595, 755.00
1596, 756.00
1597, 755.00
1598, 756.00
1599, 756.00
1600, 756.00
1601, 758.00
1602, 759.00
1603, 759.00
1604, 759.00
1605, 761.00
1606, 760.00
1607, 761.00
1608, 761.00
1609, 762.00
1610, 763.00
1611, 763.00
1612, 764.00
1613, 765.00
1614, 766.00
1615, 767.00
1616, 767.00
1617, 767.00
1618, 768.00
1619, 769.00
1620, 768.00
1621, 769.00
1622, 769.00
1623, 771.00
1624, 772.00
1625, 772.00
1626, 773.00
1627, 774.00
1628, 774.00
1629, 774.00
1630, 774.00
1631, 776.00
1632, 776.00
1633, 777.00
1634, 777.00
1635, 778.00
1636, 779.00
1637, 780.00
1638, 779.00
1639, 780.00
1640, 781.00
1641, 780.00
1642, 781.00
1643, 782.00
1644, 783.00
1645, 784.00
1646, 784.00
1647, 784.00
1648, 785.00
1649, 785.00
1650, 787.00

1750, 1122.00
1751, 1122.00
1752, 1121.00
1753, 1123.00
1754, 1122.00
1755, 1123.00
1756, 1123.00
1757, 1123.00
1758, 1125.00
1759, 1124.00
1760, 1123.00
1761, 1123.00
1762, 1123.00
1763, 1123.00
1764, 1121.00
1765, 1122.00
1766, 1122.00
1767, 1122.00
1768, 1121.00
1769, 1123.00
1770, 1122.00
1771, 1123.00
1772, 1121.00
1773, 1123.00
1774, 1123.00
1775, 1121.00
1776, 1122.00
1777, 1121.00
1778, 1119.00
1779, 1121.00
1780, 1122.00
1781, 1120.00
1782, 1121.00
1783, 1119.00
1784, 1120.00
1785, 1120.00
1786, 1121.00
1787, 1120.00
1788, 1120.00
1789, 1120.00
1790, 1119.00
1791, 1118.00
1792, 1120.00
1793, 1119.00
1794, 1119.00
1795, 1118.00
1796, 1117.00
1797, 1118.00
1798, 1117.00
1799, 1119.00
1800, 1118.00
1801, 1117.00
1802, 1116.00
1803, 1117.00
1804, 1118.00
1805, 1117.00
1806, 1116.00
1807, 1117.00
1808, 1117.00
1809, 1115.00
1810, 1115.00
1811, 1116.00
1812, 1115.00
1813, 1116.00
1814, 1116.00
1815, 1117.00
1816, 1116.00
1817, 1115.00
1818, 1115.00
1819, 1116.00
1820, 1113.00
1821, 1113.00
1822, 1112.00
1823, 1113.00
1824, 1113.00
1825, 1113.00
1826, 1111.00
1827, 1113.00
1828, 1112.00
1829, 1112.00
1830, 1112.00
1831, 1111.00
1832, 1111.00
1833, 1109.00
1834, 1109.00
1835, 1109.00
1836, 1106.00
1837, 1107.00
1838, 1106.00
1839, 1106.00
1840, 1106.00
1841, 1102.00
1842, 1104.00
1843, 1103.00
1844, 1103.00
1845, 1101.00
1846, 1101.00
1847, 1099.00
1848, 1099.00
1849, 1097.00
1850, 1094.00
1851, 1096.00
1852, 1092.00
1853, 1094.00
1854, 1090.00
1855, 1092.00
1856, 1090.00
1857, 1090.00
1858, 1089.00
1859, 1087.00
1860, 1086.00
1861, 1086.00
1862, 1083.00
1863, 1083.00
1864, 1081.00
1865, 1081.00
1866, 1080.00
1867, 1079.00
1868, 1082.00
1869, 1080.00
1870, 1078.00
1871, 1076.00
1872, 1076.00
1873, 1076.00
1874, 1076.00
1875, 1075.00
1876, 1072.00
1877, 1073.00
1878, 1074.00
1879, 1073.00
1880, 1073.00
1881, 1072.00
1882, 1072.00
1883, 1072.00
1884, 1071.00
1885, 1068.00
1886, 1070.00
1887, 1069.00
1888, 1068.00
1889, 1069.00
1890, 1070.00
1891, 1068.00
1892, 1069.00
1893, 1067.00
1894, 1067.00
1895, 1068.00
1896, 1067.00
1897, 1067.00
1898, 1065.00
1899, 1067.00
1900, 1066.00
1901, 1066.00
1902, 1065.00
1903, 1067.00
1904, 1065.00
1905, 1066.00
1906, 1065.00
1907, 1066.00
1908, 1065.00
1909, 1067.00
1910, 1066.00
1911, 1065.00
1912, 1065.00
1913, 1066.00
1914, 1065.00
1915, 1065.00
1916, 1065.00
1917, 1065.00
1918, 1065.00
1919, 1064.00
1920, 1066.00
1921, 1065.00
1922, 1066.00
1923, 1065.00
1924, 1065.00
1925, 1064.00
1926, 1065.00
1927, 1065.00
1928, 1065.00
1929, 1064.00
1930, 1066.00
1931, 1066.00
1932, 1064.00
1933, 1065.00
1934, 1065.00
1935, 1065.00
1936, 1065.00
1937, 1067.00
1938, 1067.00
1939, 1068.00
1940, 1066.00
1941, 1066.00
1942, 1065.00
1943, 1066.00
1944, 1066.00
1945, 1066.00
1946, 1068.00
1947, 1068.00
1948, 1068.00
1949, 1068.00
1950, 1066.00
1951, 1067.00
1952, 1066.00
1953, 1067.00
1954, 1069.00
1955, 1070.00
1956, 1066.00
1957, 1069.00
1958, 1068.00
1959, 1069.00
1960, 1072.00
1961, 1070.00
1962, 1070.00
1963, 1070.00
1964, 1070.00
1965, 1070.00
1966, 1071.00
1967, 1071.00
1968, 1074.00
1969, 1073.00
1970, 1073.00
1971, 1073.00
1972, 1073.00
1973, 1074.00
1974, 1073.00
1975, 1074.00
1976, 1072.00
1977, 1073.00
1978, 1075.00
1979, 1076.00
1980, 1075.00
1981, 1077.00
1982, 1077.00
1983, 1077.00
1984, 1077.00
1985, 1076.00
1986, 1077.00
1987, 1077.00
1988, 1078.00
1989, 1077.00
1990, 1077.00
1991, 1079.00
1992, 1079.00
1993, 1080.00
1994, 1078.00
1995, 1080.00
1996, 1080.00
1997, 1081.00
1998, 1080.00
1999, 1080.00
2000, 1081.00
2001, 1081.00
2002, 1081.00
2003, 1080.00
2004, 1082.00
2005, 1082.00
2006, 1084.00
2007, 1084.00
2008, 1083.00
2009, 1085.00
2010, 1085.00
2011, 1083.00
2012, 1084.00
2013, 1084.00
2014, 1086.00
2015, 1085.00
2016, 1085.00
2017, 1088.00
2018, 1087.00
2019, 1088.00
2020, 1088.00
2021, 1087.00
2022, 1089.00
2023, 1088.00
2024, 1087.00
2025, 1089.00
2026, 1088.00
2027, 1089.00
2028, 1088.00
2029, 1090.00
2030, 1090.00
2031, 1091.00
2032, 1092.00
2033, 1092.00
2034, 1090.00
2035, 1091.00
2036, 1092.00
2037, 1092.00
2038, 1092.00
2039, 1092.00
2040, 1093.00
2041, 1095.00
2042, 1095.00
2043, 1096.00
2044, 1095.00
2045, 1095.00
2046, 1095.00
2047, 1095.00
2048, 1096.00
2049, 1097.00
2050, 1097.00
2051, 1099.00
2052, 1099.00
2053, 1099.00
2054, 1099.00
2055, 1098.00
2056, 1099.00
2057, 1099.00
2058, 1101.00
2059, 1102.00
2060, 1100.00
2061, 1103.00
2062, 1103.00
2063, 1104.00
2064, 1103.00
2065, 1105.00
2066, 1104.00
2067, 1105.00
2068, 1106.00
2069, 1106.00
2070, 1105.00
2071, 1106.00
2072, 1107.00
2073, 1108.00
2074, 1107.00
2075, 1109.00
2076, 1111.00
2077, 1109.00
2078, 1109.00
2079, 1109.00
2080, 1112.00
2081, 1112.00
2082, 1110.00
2083, 1111.00
2084, 1111.00
2085, 1113.00
2086, 1111.00
2087, 1113.00
2088, 1113.00
2089, 1113.00
2090, 1113.00
2091, 1112.00
2092, 1114.00
2093, 1113.00
2094, 1115.00
2095, 1115.00
2096, 1115.00
2097, 1116.00
2098, 1115.00
2099, 1116.00
2100, 1116.00
2101, 1116.00
2102, 1117.00
2103, 1117.00
2104, 1118.00
2105, 1119.00
2106, 1118.00
2107, 1119.00
2108, 1118.00
2109, 1117.00
2110, 1119.00
2111, 1118.00
2112, 1118.00
2113, 1118.00
2114, 1118.00
2115, 1120.00
2116, 1119.00
2117, 1119.00
2118, 1122.00
2119, 1120.00
2120, 1120.00
2121, 1119.00
2122, 1118.00
2123, 1119.00
2124, 1121.00
2125, 1120.00
2126, 1122.00
2127, 1122.00
2128, 1122.00
2129, 1122.00
2130, 1122.00
2131, 1121.00
2132, 1121.00
2133, 1123.00
2134, 1121.00
2135, 1123.00
2136, 1123.00
2137, 1123.00
2138, 1123.00
2139, 1123.00
2140, 1122.00
2141, 1122.00
2142, 1123.00
2143, 1121.00
2144, 1122.00
2145, 1124.00
2146, 1123.00
2147, 1123.00
2148, 1124.00
2149, 1122.00
2150, 1124.00
