FW version: 24
Log Version: 3.0.3

General Info:
       Command/Macro Performed,            Timestamp,             Device ID, COM Port, UART/I2C, Test Name, Host Major, Host Minor, Host Revision, Host Git Commit
            Single_measurement,  2023_07_18_11_15_25,       Insight2_F4_xxx,    USB-C,      USB,          ,          0,          1,             1,      4031237645

Show Spectrometer Status:
l0_version, f4_version, battery_perc, battery_mVolt, accelerometer_temp, accelerometer_x, accelerometer_y, accelerometer_z, compass_temp, compass_x, compass_y, compass_z, lamp_0, lamp_1, gain_0, gain_1
        17,         24,           75,          1998,               6480,           65264,            1300,           18888,            0,     65532,     65502,     18936,   3276,   3276,      1,      1

Temperature Statistic Info:
NTC AVG [°C], NTC2 AVG [°C]
      40.084,        39.792

Statistic Info:
M1:  num,      min,      max,   median,      AVG,      STD,M2:  num,      min,      max,   median,      AVG,      STD
     301,  2261.00,  2603.00,  2330.00,  2373.52, 106.2466,     401,  2890.00,  3092.00,  2970.00,  2977.43,  65.0566,

Measurements:
Wavelength, Data Amplitude
1350, 2327.00
1351, 2326.00
1352, 2326.00
1353, 2325.00
1354, 2322.00
1355, 2321.00
1356, 2320.00
1357, 2319.00
1358, 2316.00
1359, 2315.00
1360, 2315.00
1361, 2312.00
1362, 2311.00
1363, 2309.00
1364, 2306.00
1365, 2305.00
1366, 2303.00
1367, 2302.00
1368, 2299.00
1369, 2298.00
1370, 2297.00
1371, 2295.00
1372, 2293.00
1373, 2291.00
1374, 2290.00
1375, 2289.00
1376, 2287.00
1377, 2285.00
1378, 2284.00
1379, 2284.00
1380, 2280.00
1381, 2281.00
1382, 2279.00
1383, 2279.00
1384, 2278.00
1385, 2275.00
1386, 2275.00
1387, 2273.00
1388, 2274.00
1389, 2271.00
1390, 2272.00
1391, 2271.00
1392, 2270.00
1393, 2270.00
1394, 2269.00
1395, 2268.00
1396, 2268.00
1397, 2267.00
1398, 2267.00
1399, 2266.00
1400, 2266.00
1401, 2265.00
1402, 2265.00
1403, 2264.00
1404, 2265.00
1405, 2265.00
1406, 2265.00
1407, 2263.00
1408, 2263.00
1409, 2264.00
1410, 2263.00
1411, 2263.00
1412, 2263.00
1413, 2263.00
1414, 2261.00
1415, 2262.00
1416, 2261.00
1417, 2262.00
1418, 2262.00
1419, 2261.00
1420, 2262.00
1421, 2262.00
1422, 2262.00
1423, 2262.00
1424, 2261.00
1425, 2263.00
1426, 2262.00
1427, 2262.00
1428, 2263.00
1429, 2263.00
1430, 2263.00
1431, 2264.00
1432, 2264.00
1433, 2265.00
1434, 2264.00
1435, 2265.00
1436, 2265.00
1437, 2264.00
1438, 2266.00
1439, 2267.00
1440, 2268.00
1441, 2267.00
1442, 2268.00
1443, 2270.00
1444, 2270.00
1445, 2270.00
1446, 2271.00
1447, 2272.00
1448, 2272.00
1449, 2273.00
1450, 2274.00
1451, 2275.00
1452, 2275.00
1453, 2276.00
1454, 2276.00
1455, 2277.00
1456, 2277.00
1457, 2278.00
1458, 2280.00
1459, 2281.00
1460, 2282.00
1461, 2282.00
1462, 2282.00
1463, 2283.00
1464, 2284.00
1465, 2285.00
1466, 2287.00
1467, 2288.00
1468, 2289.00
1469, 2289.00
1470, 2291.00
1471, 2292.00
1472, 2293.00
1473, 2294.00
1474, 2296.00
1475, 2296.00
1476, 2299.00
1477, 2298.00
1478, 2300.00
1479, 2302.00
1480, 2302.00
1481, 2304.00
1482, 2305.00
1483, 2307.00
1484, 2309.00
1485, 2310.00
1486, 2311.00
1487, 2313.00
1488, 2313.00
1489, 2315.00
1490, 2316.00
1491, 2319.00
1492, 2320.00
1493, 2321.00
1494, 2322.00
1495, 2324.00
1496, 2324.00
1497, 2326.00
1498, 2328.00
1499, 2328.00
1500, 2330.00
1501, 2331.00
1502, 2332.00
1503, 2335.00
1504, 2336.00
1505, 2338.00
1506, 2340.00
1507, 2340.00
1508, 2342.00
1509, 2343.00
1510, 2345.00
1511, 2346.00
1512, 2347.00
1513, 2349.00
1514, 2351.00
1515, 2352.00
1516, 2355.00
1517, 2355.00
1518, 2357.00
1519, 2359.00
1520, 2360.00
1521, 2362.00
1522, 2363.00
1523, 2365.00
1524, 2367.00
1525, 2369.00
1526, 2370.00
1527, 2372.00
1528, 2374.00
1529, 2376.00
1530, 2377.00
1531, 2380.00
1532, 2380.00
1533, 2382.00
1534, 2385.00
1535, 2386.00
1536, 2388.00
1537, 2389.00
1538, 2392.00
1539, 2393.00
1540, 2395.00
1541, 2396.00
1542, 2398.00
1543, 2401.00
1544, 2401.00
1545, 2403.00
1546, 2405.00
1547, 2408.00
1548, 2409.00
1549, 2410.00
1550, 2413.00
1551, 2415.00
1552, 2416.00
1553, 2418.00
1554, 2421.00
1555, 2423.00
1556, 2423.00
1557, 2426.00
1558, 2429.00
1559, 2429.00
1560, 2432.00
1561, 2434.00
1562, 2435.00
1563, 2437.00
1564, 2440.00
1565, 2442.00
1566, 2443.00
1567, 2445.00
1568, 2447.00
1569, 2450.00
1570, 2452.00
1571, 2453.00
1572, 2455.00
1573, 2456.00
1574, 2459.00
1575, 2461.00
1576, 2463.00
1577, 2463.00
1578, 2466.00
1579, 2468.00
1580, 2471.00
1581, 2471.00
1582, 2474.00
1583, 2475.00
1584, 2477.00
1585, 2478.00
1586, 2480.00
1587, 2482.00
1588, 2484.00
1589, 2486.00
1590, 2487.00
1591, 2489.00
1592, 2489.00
1593, 2493.00
1594, 2493.00
1595, 2496.00
1596, 2496.00
1597, 2500.00
1598, 2501.00
1599, 2503.00
1600, 2506.00
1601, 2507.00
1602, 2509.00
1603, 2511.00
1604, 2511.00
1605, 2514.00
1606, 2516.00
1607, 2518.00
1608, 2519.00
1609, 2522.00
1610, 2524.00
1611, 2526.00
1612, 2529.00
1613, 2531.00
1614, 2533.00
1615, 2534.00
1616, 2536.00
1617, 2539.00
1618, 2541.00
1619, 2543.00
1620, 2546.00
1621, 2548.00
1622, 2549.00
1623, 2552.00
1624, 2554.00
1625, 2555.00
1626, 2558.00
1627, 2561.00
1628, 2563.00
1629, 2565.00
1630, 2566.00
1631, 2568.00
1632, 2570.00
1633, 2571.00
1634, 2574.00
1635, 2576.00
1636, 2578.00
1637, 2580.00
1638, 2581.00
1639, 2582.00
1640, 2584.00
1641, 2585.00
1642, 2589.00
1643, 2591.00
1644, 2591.00
1645, 2593.00
1646, 2594.00
1647, 2596.00
1648, 2598.00
1649, 2602.00
1650, 2603.00

1750, 3091.00
1751, 3089.00
1752, 3089.00
1753, 3090.00
1754, 3090.00
1755, 3091.00
1756, 3089.00
1757, 3092.00
1758, 3089.00
1759, 3092.00
1760, 3091.00
1761, 3088.00
1762, 3089.00
1763, 3089.00
1764, 3088.00
1765, 3085.00
1766, 3088.00
1767, 3087.00
1768, 3088.00
1769, 3086.00
1770, 3086.00
1771, 3084.00
1772, 3084.00
1773, 3083.00
1774, 3085.00
1775, 3084.00
1776, 3083.00
1777, 3083.00
1778, 3081.00
1779, 3079.00
1780, 3082.00
1781, 3081.00
1782, 3079.00
1783, 3078.00
1784, 3078.00
1785, 3077.00
1786, 3077.00
1787, 3077.00
1788, 3076.00
1789, 3075.00
1790, 3073.00
1791, 3071.00
1792, 3070.00
1793, 3071.00
1794, 3069.00
1795, 3069.00
1796, 3067.00
1797, 3068.00
1798, 3066.00
1799, 3067.00
1800, 3065.00
1801, 3066.00
1802, 3064.00
1803, 3062.00
1804, 3064.00
1805, 3065.00
1806, 3060.00
1807, 3061.00
1808, 3061.00
1809, 3061.00
1810, 3058.00
1811, 3059.00
1812, 3059.00
1813, 3056.00
1814, 3058.00
1815, 3055.00
1816, 3053.00
1817, 3053.00
1818, 3053.00
1819, 3053.00
1820, 3049.00
1821, 3047.00
1822, 3048.00
1823, 3046.00
1824, 3046.00
1825, 3042.00
1826, 3041.00
1827, 3040.00
1828, 3036.00
1829, 3035.00
1830, 3032.00
1831, 3031.00
1832, 3030.00
1833, 3026.00
1834, 3024.00
1835, 3021.00
1836, 3020.00
1837, 3019.00
1838, 3014.00
1839, 3011.00
1840, 3010.00
1841, 3007.00
1842, 3003.00
1843, 3000.00
1844, 2997.00
1845, 2995.00
1846, 2991.00
1847, 2989.00
1848, 2985.00
1849, 2981.00
1850, 2979.00
1851, 2975.00
1852, 2974.00
1853, 2970.00
1854, 2966.00
1855, 2965.00
1856, 2961.00
1857, 2957.00
1858, 2955.00
1859, 2953.00
1860, 2947.00
1861, 2946.00
1862, 2945.00
1863, 2943.00
1864, 2940.00
1865, 2939.00
1866, 2935.00
1867, 2932.00
1868, 2931.00
1869, 2929.00
1870, 2928.00
1871, 2927.00
1872, 2923.00
1873, 2922.00
1874, 2922.00
1875, 2921.00
1876, 2918.00
1877, 2918.00
1878, 2915.00
1879, 2915.00
1880, 2911.00
1881, 2912.00
1882, 2913.00
1883, 2908.00
1884, 2909.00
1885, 2909.00
1886, 2907.00
1887, 2907.00
1888, 2905.00
1889, 2905.00
1890, 2904.00
1891, 2903.00
1892, 2902.00
1893, 2903.00
1894, 2902.00
1895, 2901.00
1896, 2902.00
1897, 2900.00
1898, 2897.00
1899, 2898.00
1900, 2898.00
1901, 2897.00
1902, 2896.00
1903, 2898.00
1904, 2898.00
1905, 2895.00
1906, 2898.00
1907, 2896.00
1908, 2895.00
1909, 2894.00
1910, 2894.00
1911, 2893.00
1912, 2894.00
1913, 2894.00
1914, 2893.00
1915, 2894.00
1916, 2893.00
1917, 2892.00
1918, 2893.00
1919, 2892.00
1920, 2894.00
1921, 2893.00
1922, 2893.00
1923, 2893.00
1924, 2893.00
1925, 2893.00
1926, 2893.00
1927, 2892.00
1928, 2891.00
1929, 2894.00
1930, 2893.00
1931, 2890.00
1932, 2893.00
1933, 2894.00
1934, 2894.00
1935, 2894.00
1936, 2891.00
1937, 2893.00
1938, 2893.00
1939, 2894.00
1940, 2894.00
1941, 2895.00
1942, 2895.00
1943, 2895.00
1944, 2897.00
1945, 2895.00
1946, 2896.00
1947, 2897.00
1948, 2899.00
1949, 2897.00
1950, 2897.00
1951, 2898.00
1952, 2897.00
1953, 2900.00
1954, 2899.00
1955, 2898.00
1956, 2898.00
1957, 2901.00
1958, 2900.00
1959, 2901.00
1960, 2903.00
1961, 2903.00
1962, 2902.00
1963, 2902.00
1964, 2904.00
1965, 2907.00
1966, 2904.00
1967, 2906.00
1968, 2905.00
1969, 2907.00
1970, 2909.00
1971, 2909.00
1972, 2907.00
1973, 2909.00
1974, 2909.00
1975, 2911.00
1976, 2911.00
1977, 2913.00
1978, 2913.00
1979, 2914.00
1980, 2913.00
1981, 2914.00
1982, 2915.00
1983, 2916.00
1984, 2916.00
1985, 2918.00
1986, 2918.00
1987, 2919.00
1988, 2920.00
1989, 2920.00
1990, 2922.00
1991, 2921.00
1992, 2922.00
1993, 2923.00
1994, 2923.00
1995, 2926.00
1996, 2927.00
1997, 2927.00
1998, 2927.00
1999, 2929.00
2000, 2928.00
2001, 2929.00
2002, 2931.00
2003, 2931.00
2004, 2932.00
2005, 2931.00
2006, 2932.00
2007, 2933.00
2008, 2933.00
2009, 2932.00
2010, 2937.00
2011, 2936.00
2012, 2936.00
2013, 2937.00
2014, 2938.00
2015, 2939.00
2016, 2936.00
2017, 2939.00
2018, 2937.00
2019, 2942.00
2020, 2941.00
2021, 2943.00
2022, 2943.00
2023, 2943.00
2024, 2945.00
2025, 2946.00
2026, 2946.00
2027, 2948.00
2028, 2947.00
2029, 2949.00
2030, 2949.00
2031, 2951.00
2032, 2950.00
2033, 2953.00
2034, 2954.00
2035, 2952.00
2036, 2956.00
2037, 2953.00
2038, 2956.00
2039, 2957.00
2040, 2959.00
2041, 2959.00
2042, 2959.00
2043, 2962.00
2044, 2963.00
2045, 2961.00
2046, 2963.00
2047, 2965.00
2048, 2966.00
2049, 2967.00
2050, 2968.00
2051, 2969.00
2052, 2968.00
2053, 2970.00
2054, 2973.00
2055, 2973.00
2056, 2974.00
2057, 2975.00
2058, 2977.00
2059, 2977.00
2060, 2979.00
2061, 2980.00
2062, 2979.00
2063, 2983.00
2064, 2983.00
2065, 2985.00
2066, 2986.00
2067, 2986.00
2068, 2989.00
2069, 2990.00
2070, 2988.00
2071, 2989.00
2072, 2991.00
2073, 2991.00
2074, 2995.00
2075, 2995.00
2076, 2997.00
2077, 2997.00
2078, 2998.00
2079, 2999.00
2080, 3001.00
2081, 3001.00
2082, 3002.00
2083, 3002.00
2084, 3002.00
2085, 3005.00
2086, 3005.00
2087, 3007.00
2088, 3007.00
2089, 3007.00
2090, 3009.00
2091, 3008.00
2092, 3012.00
2093, 3011.00
2094, 3012.00
2095, 3013.00
2096, 3015.00
2097, 3013.00
2098, 3014.00
2099, 3016.00
2100, 3017.00
2101, 3017.00
2102, 3017.00
2103, 3019.00
2104, 3019.00
2105, 3019.00
2106, 3019.00
2107, 3021.00
2108, 3021.00
2109, 3019.00
2110, 3022.00
2111, 3024.00
2112, 3023.00
2113, 3024.00
2114, 3023.00
2115, 3024.00
2116, 3025.00
2117, 3026.00
2118, 3026.00
2119, 3028.00
2120, 3027.00
2121, 3028.00
2122, 3027.00
2123, 3029.00
2124, 3029.00
2125, 3029.00
2126, 3030.00
2127, 3030.00
2128, 3030.00
2129, 3032.00
2130, 3033.00
2131, 3032.00
2132, 3033.00
2133, 3035.00
2134, 3034.00
2135, 3034.00
2136, 3034.00
2137, 3035.00
2138, 3035.00
2139, 3036.00
2140, 3036.00
2141, 3038.00
2142, 3037.00
2143, 3037.00
2144, 3038.00
2145, 3039.00
2146, 3038.00
2147, 3037.00
2148, 3039.00
2149, 3041.00
2150, 3041.00
