FW version: 24
Log Version: 3.0.3

General Info:
       Command/Macro Performed,            Timestamp,             Device ID, COM Port, UART/I2C, Test Name, Host Major, Host Minor, Host Revision, Host Git Commit
            Single_measurement,  2023_07_18_11_14_12,       Insight2_F4_xxx,    USB-C,      USB,          ,          0,          1,             1,      4031237645

Show Spectrometer Status:
l0_version, f4_version, battery_perc, battery_mVolt, accelerometer_temp, accelerometer_x, accelerometer_y, accelerometer_z, compass_temp, compass_x, compass_y, compass_z, lamp_0, lamp_1, gain_0, gain_1
        17,         24,           75,          1999,               6432,           65268,            1272,           18896,            0,     65535,     65277,     18897,   3276,   3276,      0,      0

Temperature Statistic Info:
NTC AVG [°C], NTC2 AVG [°C]
      39.733,        39.470

Statistic Info:
M1:  num,      min,      max,   median,      AVG,      STD,M2:  num,      min,      max,   median,      AVG,      STD
     301,   782.00,   900.00,   806.00,   820.92,  36.7522,     401,  1001.00,  1071.00,  1030.00,  1031.54,  22.6930,

Measurements:
Wavelength, Data Amplitude
1350, 805.00
1351, 805.00
1352, 804.00
1353, 804.00
1354, 803.00
1355, 803.00
1356, 803.00
1357, 802.00
1358, 802.00
1359, 801.00
1360, 801.00
1361, 800.00
1362, 800.00
1363, 799.00
1364, 798.00
1365, 798.00
1366, 797.00
1367, 797.00
1368, 796.00
1369, 795.00
1370, 795.00
1371, 794.00
1372, 793.00
1373, 793.00
1374, 793.00
1375, 792.00
1376, 791.00
1377, 791.00
1378, 790.00
1379, 790.00
1380, 789.00
1381, 789.00
1382, 788.00
1383, 788.00
1384, 787.00
1385, 787.00
1386, 787.00
1387, 787.00
1388, 786.00
1389, 786.00
1390, 786.00
1391, 786.00
1392, 785.00
1393, 785.00
1394, 785.00
1395, 785.00
1396, 784.00
1397, 784.00
1398, 784.00
1399, 784.00
1400, 784.00
1401, 784.00
1402, 784.00
1403, 784.00
1404, 784.00
1405, 783.00
1406, 783.00
1407, 783.00
1408, 782.00
1409, 783.00
1410, 783.00
1411, 782.00
1412, 783.00
1413, 783.00
1414, 783.00
1415, 782.00
1416, 783.00
1417, 782.00
1418, 782.00
1419, 783.00
1420, 782.00
1421, 782.00
1422, 782.00
1423, 782.00
1424, 782.00
1425, 783.00
1426, 783.00
1427, 782.00
1428, 783.00
1429, 782.00
1430, 783.00
1431, 783.00
1432, 784.00
1433, 783.00
1434, 783.00
1435, 783.00
1436, 783.00
1437, 784.00
1438, 784.00
1439, 784.00
1440, 784.00
1441, 784.00
1442, 785.00
1443, 785.00
1444, 785.00
1445, 785.00
1446, 786.00
1447, 786.00
1448, 785.00
1449, 786.00
1450, 786.00
1451, 786.00
1452, 787.00
1453, 787.00
1454, 788.00
1455, 787.00
1456, 788.00
1457, 788.00
1458, 788.00
1459, 789.00
1460, 789.00
1461, 789.00
1462, 789.00
1463, 790.00
1464, 790.00
1465, 790.00
1466, 791.00
1467, 791.00
1468, 792.00
1469, 792.00
1470, 792.00
1471, 792.00
1472, 793.00
1473, 794.00
1474, 794.00
1475, 794.00
1476, 795.00
1477, 795.00
1478, 796.00
1479, 795.00
1480, 797.00
1481, 797.00
1482, 797.00
1483, 798.00
1484, 798.00
1485, 799.00
1486, 799.00
1487, 800.00
1488, 800.00
1489, 800.00
1490, 801.00
1491, 802.00
1492, 802.00
1493, 802.00
1494, 803.00
1495, 803.00
1496, 803.00
1497, 805.00
1498, 804.00
1499, 805.00
1500, 806.00
1501, 806.00
1502, 807.00
1503, 807.00
1504, 808.00
1505, 808.00
1506, 808.00
1507, 809.00
1508, 810.00
1509, 810.00
1510, 811.00
1511, 811.00
1512, 812.00
1513, 812.00
1514, 813.00
1515, 814.00
1516, 814.00
1517, 815.00
1518, 815.00
1519, 816.00
1520, 816.00
1521, 816.00
1522, 817.00
1523, 817.00
1524, 819.00
1525, 819.00
1526, 820.00
1527, 820.00
1528, 821.00
1529, 822.00
1530, 822.00
1531, 823.00
1532, 823.00
1533, 824.00
1534, 824.00
1535, 825.00
1536, 826.00
1537, 826.00
1538, 827.00
1539, 827.00
1540, 828.00
1541, 828.00
1542, 829.00
1543, 830.00
1544, 830.00
1545, 831.00
1546, 832.00
1547, 832.00
1548, 833.00
1549, 834.00
1550, 834.00
1551, 835.00
1552, 836.00
1553, 836.00
1554, 837.00
1555, 838.00
1556, 838.00
1557, 839.00
1558, 840.00
1559, 840.00
1560, 841.00
1561, 841.00
1562, 843.00
1563, 843.00
1564, 844.00
1565, 844.00
1566, 845.00
1567, 846.00
1568, 847.00
1569, 847.00
1570, 848.00
1571, 849.00
1572, 849.00
1573, 849.00
1574, 850.00
1575, 851.00
1576, 852.00
1577, 853.00
1578, 853.00
1579, 854.00
1580, 855.00
1581, 855.00
1582, 855.00
1583, 856.00
1584, 856.00
1585, 857.00
1586, 858.00
1587, 859.00
1588, 859.00
1589, 859.00
1590, 861.00
1591, 861.00
1592, 861.00
1593, 862.00
1594, 862.00
1595, 863.00
1596, 864.00
1597, 864.00
1598, 865.00
1599, 866.00
1600, 866.00
1601, 867.00
1602, 867.00
1603, 869.00
1604, 869.00
1605, 870.00
1606, 870.00
1607, 871.00
1608, 872.00
1609, 872.00
1610, 873.00
1611, 874.00
1612, 875.00
1613, 875.00
1614, 876.00
1615, 877.00
1616, 878.00
1617, 878.00
1618, 879.00
1619, 880.00
1620, 880.00
1621, 881.00
1622, 882.00
1623, 883.00
1624, 883.00
1625, 884.00
1626, 885.00
1627, 886.00
1628, 886.00
1629, 887.00
1630, 887.00
1631, 888.00
1632, 889.00
1633, 889.00
1634, 890.00
1635, 890.00
1636, 892.00
1637, 893.00
1638, 893.00
1639, 893.00
1640, 895.00
1641, 895.00
1642, 895.00
1643, 896.00
1644, 896.00
1645, 897.00
1646, 898.00
1647, 898.00
1648, 899.00
1649, 900.00
1650, 900.00

1750, 1071.00
1751, 1070.00
1752, 1071.00
1753, 1071.00
1754, 1071.00
1755, 1071.00
1756, 1070.00
1757, 1070.00
1758, 1070.00
1759, 1071.00
1760, 1070.00
1761, 1070.00
1762, 1070.00
1763, 1069.00
1764, 1070.00
1765, 1069.00
1766, 1070.00
1767, 1069.00
1768, 1070.00
1769, 1070.00
1770, 1069.00
1771, 1069.00
1772, 1069.00
1773, 1068.00
1774, 1069.00
1775, 1068.00
1776, 1069.00
1777, 1068.00
1778, 1067.00
1779, 1068.00
1780, 1067.00
1781, 1067.00
1782, 1066.00
1783, 1067.00
1784, 1067.00
1785, 1066.00
1786, 1065.00
1787, 1066.00
1788, 1065.00
1789, 1065.00
1790, 1065.00
1791, 1065.00
1792, 1065.00
1793, 1065.00
1794, 1064.00
1795, 1064.00
1796, 1063.00
1797, 1064.00
1798, 1063.00
1799, 1064.00
1800, 1063.00
1801, 1062.00
1802, 1062.00
1803, 1063.00
1804, 1061.00
1805, 1061.00
1806, 1061.00
1807, 1061.00
1808, 1061.00
1809, 1061.00
1810, 1060.00
1811, 1060.00
1812, 1059.00
1813, 1060.00
1814, 1059.00
1815, 1058.00
1816, 1058.00
1817, 1058.00
1818, 1058.00
1819, 1058.00
1820, 1057.00
1821, 1057.00
1822, 1057.00
1823, 1055.00
1824, 1055.00
1825, 1054.00
1826, 1054.00
1827, 1053.00
1828, 1053.00
1829, 1052.00
1830, 1051.00
1831, 1050.00
1832, 1049.00
1833, 1049.00
1834, 1048.00
1835, 1047.00
1836, 1047.00
1837, 1046.00
1838, 1045.00
1839, 1044.00
1840, 1043.00
1841, 1042.00
1842, 1042.00
1843, 1040.00
1844, 1039.00
1845, 1037.00
1846, 1037.00
1847, 1036.00
1848, 1035.00
1849, 1034.00
1850, 1032.00
1851, 1032.00
1852, 1030.00
1853, 1030.00
1854, 1027.00
1855, 1027.00
1856, 1027.00
1857, 1026.00
1858, 1024.00
1859, 1024.00
1860, 1022.00
1861, 1021.00
1862, 1020.00
1863, 1019.00
1864, 1019.00
1865, 1019.00
1866, 1017.00
1867, 1017.00
1868, 1015.00
1869, 1015.00
1870, 1013.00
1871, 1013.00
1872, 1013.00
1873, 1013.00
1874, 1012.00
1875, 1012.00
1876, 1011.00
1877, 1010.00
1878, 1010.00
1879, 1009.00
1880, 1009.00
1881, 1009.00
1882, 1008.00
1883, 1009.00
1884, 1008.00
1885, 1007.00
1886, 1007.00
1887, 1007.00
1888, 1007.00
1889, 1006.00
1890, 1006.00
1891, 1006.00
1892, 1006.00
1893, 1005.00
1894, 1006.00
1895, 1004.00
1896, 1004.00
1897, 1004.00
1898, 1004.00
1899, 1004.00
1900, 1004.00
1901, 1004.00
1902, 1003.00
1903, 1004.00
1904, 1004.00
1905, 1003.00
1906, 1004.00
1907, 1004.00
1908, 1004.00
1909, 1003.00
1910, 1003.00
1911, 1003.00
1912, 1003.00
1913, 1002.00
1914, 1003.00
1915, 1002.00
1916, 1002.00
1917, 1003.00
1918, 1002.00
1919, 1002.00
1920, 1002.00
1921, 1001.00
1922, 1003.00
1923, 1002.00
1924, 1002.00
1925, 1002.00
1926, 1002.00
1927, 1002.00
1928, 1002.00
1929, 1003.00
1930, 1002.00
1931, 1002.00
1932, 1002.00
1933, 1002.00
1934, 1002.00
1935, 1002.00
1936, 1002.00
1937, 1002.00
1938, 1003.00
1939, 1002.00
1940, 1002.00
1941, 1002.00
1942, 1003.00
1943, 1003.00
1944, 1003.00
1945, 1003.00
1946, 1003.00
1947, 1003.00
1948, 1003.00
1949, 1003.00
1950, 1004.00
1951, 1004.00
1952, 1003.00
1953, 1004.00
1954, 1004.00
1955, 1004.00
1956, 1004.00
1957, 1005.00
1958, 1005.00
1959, 1005.00
1960, 1005.00
1961, 1005.00
1962, 1005.00
1963, 1005.00
1964, 1005.00
1965, 1006.00
1966, 1006.00
1967, 1006.00
1968, 1006.00
1969, 1007.00
1970, 1007.00
1971, 1007.00
1972, 1007.00
1973, 1008.00
1974, 1008.00
1975, 1008.00
1976, 1008.00
1977, 1009.00
1978, 1009.00
1979, 1009.00
1980, 1010.00
1981, 1010.00
1982, 1009.00
1983, 1011.00
1984, 1010.00
1985, 1011.00
1986, 1011.00
1987, 1011.00
1988, 1011.00
1989, 1011.00
1990, 1012.00
1991, 1011.00
1992, 1013.00
1993, 1012.00
1994, 1012.00
1995, 1012.00
1996, 1013.00
1997, 1013.00
1998, 1014.00
1999, 1014.00
2000, 1014.00
2001, 1015.00
2002, 1015.00
2003, 1015.00
2004, 1015.00
2005, 1016.00
2006, 1015.00
2007, 1015.00
2008, 1017.00
2009, 1016.00
2010, 1016.00
2011, 1017.00
2012, 1017.00
2013, 1017.00
2014, 1017.00
2015, 1018.00
2016, 1018.00
2017, 1018.00
2018, 1018.00
2019, 1019.00
2020, 1019.00
2021, 1019.00
2022, 1019.00
2023, 1020.00
2024, 1020.00
2025, 1020.00
2026, 1021.00
2027, 1021.00
2028, 1021.00
2029, 1021.00
2030, 1021.00
2031, 1022.00
2032, 1022.00
2033, 1023.00
2034, 1023.00
2035, 1024.00
2036, 1024.00
2037, 1024.00
2038, 1024.00
2039, 1025.00
2040, 1025.00
2041, 1025.00
2042, 1025.00
2043, 1026.00
2044, 1026.00
2045, 1026.00
2046, 1027.00
2047, 1027.00
2048, 1028.00
2049, 1028.00
2050, 1028.00
2051, 1028.00
2052, 1028.00
2053, 1029.00
2054, 1030.00
2055, 1030.00
2056, 1030.00
2057, 1031.00
2058, 1031.00
2059, 1032.00
2060, 1032.00
2061, 1032.00
2062, 1032.00
2063, 1033.00
2064, 1034.00
2065, 1033.00
2066, 1034.00
2067, 1035.00
2068, 1035.00
2069, 1035.00
2070, 1036.00
2071, 1036.00
2072, 1036.00
2073, 1037.00
2074, 1037.00
2075, 1038.00
2076, 1038.00
2077, 1038.00
2078, 1039.00
2079, 1040.00
2080, 1039.00
2081, 1040.00
2082, 1040.00
2083, 1040.00
2084, 1041.00
2085, 1041.00
2086, 1041.00
2087, 1042.00
2088, 1042.00
2089, 1042.00
2090, 1042.00
2091, 1042.00
2092, 1044.00
2093, 1043.00
2094, 1044.00
2095, 1043.00
2096, 1044.00
2097, 1045.00
2098, 1045.00
2099, 1044.00
2100, 1045.00
2101, 1046.00
2102, 1046.00
2103, 1045.00
2104, 1046.00
2105, 1046.00
2106, 1046.00
2107, 1047.00
2108, 1047.00
2109, 1046.00
2110, 1047.00
2111, 1047.00
2112, 1048.00
2113, 1047.00
2114, 1048.00
2115, 1048.00
2116, 1048.00
2117, 1048.00
2118, 1048.00
2119, 1049.00
2120, 1048.00
2121, 1049.00
2122, 1049.00
2123, 1050.00
2124, 1049.00
2125, 1050.00
2126, 1050.00
2127, 1051.00
2128, 1050.00
2129, 1050.00
2130, 1050.00
2131, 1051.00
2132, 1050.00
2133, 1051.00
2134, 1051.00
2135, 1051.00
2136, 1052.00
2137, 1052.00
2138, 1052.00
2139, 1053.00
2140, 1052.00
2141, 1052.00
2142, 1052.00
2143, 1052.00
2144, 1052.00
2145, 1053.00
2146, 1053.00
2147, 1053.00
2148, 1053.00
2149, 1053.00
2150, 1053.00
