FW version: 24
Log Version: 3.0.3

General Info:
       Command/Macro Performed,            Timestamp,             Device ID, COM Port, UART/I2C, Test Name, Host Major, Host Minor, Host Revision, Host Git Commit
            Single_measurement,  2023_07_18_11_14_43,       Insight2_F4_xxx,    USB-C,      USB,          ,          0,          1,             1,      4031237645

Show Spectrometer Status:
l0_version, f4_version, battery_perc, battery_mVolt, accelerometer_temp, accelerometer_x, accelerometer_y, accelerometer_z, compass_temp, compass_x, compass_y, compass_z, lamp_0, lamp_1, gain_0, gain_1
        17,         24,           75,          1997,               6464,           65300,            1292,           18872,            0,     65438,     65500,     18942,   2457,   2457,      1,      1

Temperature Statistic Info:
NTC AVG [°C], NTC2 AVG [°C]
      39.850,        39.587

Statistic Info:
M1:  num,      min,      max,   median,      AVG,      STD,M2:  num,      min,      max,   median,      AVG,      STD
     301,  1304.00,  1517.00,  1348.00,  1373.97,  66.1378,     401,  1800.00,  1926.00,  1854.00,  1857.01,  41.0935,

Measurements:
Wavelength, Data Amplitude
1350, 1340.00
1351, 1341.00
1352, 1339.00
1353, 1339.00
1354, 1338.00
1355, 1337.00
1356, 1336.00
1357, 1335.00
1358, 1336.00
1359, 1335.00
1360, 1333.00
1361, 1332.00
1362, 1332.00
1363, 1330.00
1364, 1329.00
1365, 1329.00
1366, 1328.00
1367, 1327.00
1368, 1326.00
1369, 1324.00
1370, 1325.00
1371, 1323.00
1372, 1322.00
1373, 1321.00
1374, 1321.00
1375, 1319.00
1376, 1318.00
1377, 1316.00
1378, 1317.00
1379, 1317.00
1380, 1316.00
1381, 1315.00
1382, 1313.00
1383, 1313.00
1384, 1312.00
1385, 1313.00
1386, 1311.00
1387, 1311.00
1388, 1310.00
1389, 1309.00
1390, 1311.00
1391, 1309.00
1392, 1309.00
1393, 1310.00
1394, 1308.00
1395, 1308.00
1396, 1308.00
1397, 1308.00
1398, 1308.00
1399, 1308.00
1400, 1308.00
1401, 1307.00
1402, 1306.00
1403, 1307.00
1404, 1307.00
1405, 1307.00
1406, 1306.00
1407, 1306.00
1408, 1306.00
1409, 1305.00
1410, 1305.00
1411, 1306.00
1412, 1305.00
1413, 1304.00
1414, 1305.00
1415, 1305.00
1416, 1305.00
1417, 1305.00
1418, 1305.00
1419, 1306.00
1420, 1305.00
1421, 1305.00
1422, 1304.00
1423, 1305.00
1424, 1305.00
1425, 1305.00
1426, 1305.00
1427, 1305.00
1428, 1306.00
1429, 1307.00
1430, 1307.00
1431, 1306.00
1432, 1306.00
1433, 1306.00
1434, 1307.00
1435, 1307.00
1436, 1308.00
1437, 1307.00
1438, 1308.00
1439, 1309.00
1440, 1309.00
1441, 1309.00
1442, 1309.00
1443, 1309.00
1444, 1311.00
1445, 1310.00
1446, 1311.00
1447, 1311.00
1448, 1311.00
1449, 1312.00
1450, 1312.00
1451, 1312.00
1452, 1312.00
1453, 1313.00
1454, 1315.00
1455, 1314.00
1456, 1315.00
1457, 1315.00
1458, 1317.00
1459, 1316.00
1460, 1318.00
1461, 1318.00
1462, 1319.00
1463, 1319.00
1464, 1319.00
1465, 1320.00
1466, 1321.00
1467, 1321.00
1468, 1322.00
1469, 1323.00
1470, 1324.00
1471, 1323.00
1472, 1326.00
1473, 1326.00
1474, 1326.00
1475, 1327.00
1476, 1327.00
1477, 1329.00
1478, 1330.00
1479, 1330.00
1480, 1331.00
1481, 1331.00
1482, 1333.00
1483, 1333.00
1484, 1334.00
1485, 1336.00
1486, 1336.00
1487, 1337.00
1488, 1338.00
1489, 1338.00
1490, 1339.00
1491, 1340.00
1492, 1340.00
1493, 1342.00
1494, 1342.00
1495, 1343.00
1496, 1344.00
1497, 1346.00
1498, 1346.00
1499, 1347.00
1500, 1348.00
1501, 1348.00
1502, 1349.00
1503, 1351.00
1504, 1351.00
1505, 1352.00
1506, 1353.00
1507, 1353.00
1508, 1356.00
1509, 1356.00
1510, 1356.00
1511, 1358.00
1512, 1359.00
1513, 1359.00
1514, 1360.00
1515, 1362.00
1516, 1363.00
1517, 1364.00
1518, 1365.00
1519, 1366.00
1520, 1366.00
1521, 1368.00
1522, 1369.00
1523, 1370.00
1524, 1370.00
1525, 1372.00
1526, 1373.00
1527, 1374.00
1528, 1375.00
1529, 1376.00
1530, 1378.00
1531, 1378.00
1532, 1379.00
1533, 1381.00
1534, 1382.00
1535, 1384.00
1536, 1384.00
1537, 1385.00
1538, 1386.00
1539, 1387.00
1540, 1388.00
1541, 1389.00
1542, 1390.00
1543, 1392.00
1544, 1393.00
1545, 1393.00
1546, 1395.00
1547, 1395.00
1548, 1397.00
1549, 1398.00
1550, 1400.00
1551, 1399.00
1552, 1400.00
1553, 1403.00
1554, 1404.00
1555, 1404.00
1556, 1406.00
1557, 1407.00
1558, 1407.00
1559, 1409.00
1560, 1411.00
1561, 1412.00
1562, 1413.00
1563, 1414.00
1564, 1415.00
1565, 1416.00
1566, 1417.00
1567, 1419.00
1568, 1420.00
1569, 1421.00
1570, 1423.00
1571, 1424.00
1572, 1425.00
1573, 1425.00
1574, 1427.00
1575, 1429.00
1576, 1429.00
1577, 1430.00
1578, 1431.00
1579, 1433.00
1580, 1433.00
1581, 1435.00
1582, 1436.00
1583, 1437.00
1584, 1437.00
1585, 1439.00
1586, 1441.00
1587, 1441.00
1588, 1441.00
1589, 1443.00
1590, 1443.00
1591, 1445.00
1592, 1446.00
1593, 1448.00
1594, 1449.00
1595, 1449.00
1596, 1451.00
1597, 1452.00
1598, 1453.00
1599, 1453.00
1600, 1455.00
1601, 1456.00
1602, 1458.00
1603, 1457.00
1604, 1460.00
1605, 1460.00
1606, 1462.00
1607, 1463.00
1608, 1465.00
1609, 1466.00
1610, 1468.00
1611, 1468.00
1612, 1471.00
1613, 1471.00
1614, 1472.00
1615, 1474.00
1616, 1475.00
1617, 1477.00
1618, 1478.00
1619, 1480.00
1620, 1481.00
1621, 1483.00
1622, 1484.00
1623, 1484.00
1624, 1486.00
1625, 1489.00
1626, 1489.00
1627, 1491.00
1628, 1492.00
1629, 1493.00
1630, 1494.00
1631, 1495.00
1632, 1497.00
1633, 1497.00
1634, 1498.00
1635, 1499.00
1636, 1501.00
1637, 1502.00
1638, 1503.00
1639, 1505.00
1640, 1506.00
1641, 1507.00
1642, 1508.00
1643, 1508.00
1644, 1511.00
1645, 1511.00
1646, 1512.00
1647, 1513.00
1648, 1515.00
1649, 1515.00
1650, 1517.00

1750, 1922.00
1751, 1925.00
1752, 1926.00
1753, 1924.00
1754, 1924.00
1755, 1923.00
1756, 1924.00
1757, 1926.00
1758, 1926.00
1759, 1925.00
1760, 1923.00
1761, 1925.00
1762, 1924.00
1763, 1925.00
1764, 1924.00
1765, 1924.00
1766, 1922.00
1767, 1922.00
1768, 1923.00
1769, 1923.00
1770, 1922.00
1771, 1923.00
1772, 1923.00
1773, 1921.00
1774, 1921.00
1775, 1922.00
1776, 1919.00
1777, 1920.00
1778, 1921.00
1779, 1918.00
1780, 1919.00
1781, 1919.00
1782, 1920.00
1783, 1917.00
1784, 1919.00
1785, 1917.00
1786, 1917.00
1787, 1916.00
1788, 1916.00
1789, 1915.00
1790, 1915.00
1791, 1916.00
1792, 1915.00
1793, 1915.00
1794, 1913.00
1795, 1913.00
1796, 1913.00
1797, 1911.00
1798, 1913.00
1799, 1913.00
1800, 1913.00
1801, 1910.00
1802, 1913.00
1803, 1910.00
1804, 1910.00
1805, 1909.00
1806, 1910.00
1807, 1909.00
1808, 1909.00
1809, 1908.00
1810, 1907.00
1811, 1905.00
1812, 1905.00
1813, 1907.00
1814, 1905.00
1815, 1907.00
1816, 1906.00
1817, 1903.00
1818, 1903.00
1819, 1903.00
1820, 1900.00
1821, 1901.00
1822, 1901.00
1823, 1899.00
1824, 1898.00
1825, 1897.00
1826, 1896.00
1827, 1895.00
1828, 1893.00
1829, 1893.00
1830, 1891.00
1831, 1890.00
1832, 1889.00
1833, 1887.00
1834, 1886.00
1835, 1881.00
1836, 1883.00
1837, 1880.00
1838, 1880.00
1839, 1877.00
1840, 1877.00
1841, 1875.00
1842, 1871.00
1843, 1869.00
1844, 1869.00
1845, 1867.00
1846, 1866.00
1847, 1863.00
1848, 1862.00
1849, 1861.00
1850, 1855.00
1851, 1856.00
1852, 1854.00
1853, 1852.00
1854, 1849.00
1855, 1847.00
1856, 1845.00
1857, 1845.00
1858, 1842.00
1859, 1841.00
1860, 1838.00
1861, 1837.00
1862, 1837.00
1863, 1833.00
1864, 1834.00
1865, 1832.00
1866, 1829.00
1867, 1828.00
1868, 1827.00
1869, 1826.00
1870, 1824.00
1871, 1823.00
1872, 1823.00
1873, 1820.00
1874, 1821.00
1875, 1818.00
1876, 1818.00
1877, 1818.00
1878, 1817.00
1879, 1815.00
1880, 1815.00
1881, 1816.00
1882, 1815.00
1883, 1814.00
1884, 1814.00
1885, 1811.00
1886, 1812.00
1887, 1810.00
1888, 1812.00
1889, 1810.00
1890, 1809.00
1891, 1809.00
1892, 1809.00
1893, 1810.00
1894, 1807.00
1895, 1809.00
1896, 1809.00
1897, 1805.00
1898, 1808.00
1899, 1806.00
1900, 1807.00
1901, 1807.00
1902, 1807.00
1903, 1807.00
1904, 1806.00
1905, 1805.00
1906, 1805.00
1907, 1804.00
1908, 1804.00
1909, 1804.00
1910, 1804.00
1911, 1804.00
1912, 1804.00
1913, 1805.00
1914, 1804.00
1915, 1804.00
1916, 1802.00
1917, 1803.00
1918, 1803.00
1919, 1803.00
1920, 1804.00
1921, 1800.00
1922, 1802.00
1923, 1802.00
1924, 1803.00
1925, 1803.00
1926, 1801.00
1927, 1803.00
1928, 1802.00
1929, 1804.00
1930, 1803.00
1931, 1803.00
1932, 1803.00
1933, 1803.00
1934, 1802.00
1935, 1803.00
1936, 1804.00
1937, 1804.00
1938, 1803.00
1939, 1802.00
1940, 1805.00
1941, 1804.00
1942, 1802.00
1943, 1805.00
1944, 1805.00
1945, 1803.00
1946, 1804.00
1947, 1805.00
1948, 1806.00
1949, 1805.00
1950, 1806.00
1951, 1806.00
1952, 1806.00
1953, 1806.00
1954, 1806.00
1955, 1806.00
1956, 1807.00
1957, 1807.00
1958, 1809.00
1959, 1808.00
1960, 1808.00
1961, 1808.00
1962, 1809.00
1963, 1810.00
1964, 1811.00
1965, 1812.00
1966, 1812.00
1967, 1814.00
1968, 1810.00
1969, 1814.00
1970, 1811.00
1971, 1812.00
1972, 1814.00
1973, 1813.00
1974, 1813.00
1975, 1814.00
1976, 1816.00
1977, 1815.00
1978, 1818.00
1979, 1815.00
1980, 1818.00
1981, 1818.00
1982, 1818.00
1983, 1819.00
1984, 1819.00
1985, 1819.00
1986, 1818.00
1987, 1820.00
1988, 1822.00
1989, 1821.00
1990, 1821.00
1991, 1821.00
1992, 1821.00
1993, 1823.00
1994, 1824.00
1995, 1824.00
1996, 1823.00
1997, 1825.00
1998, 1826.00
1999, 1825.00
2000, 1825.00
2001, 1825.00
2002, 1828.00
2003, 1827.00
2004, 1826.00
2005, 1828.00
2006, 1826.00
2007, 1830.00
2008, 1828.00
2009, 1829.00
2010, 1830.00
2011, 1832.00
2012, 1831.00
2013, 1831.00
2014, 1831.00
2015, 1832.00
2016, 1833.00
2017, 1831.00
2018, 1835.00
2019, 1833.00
2020, 1835.00
2021, 1836.00
2022, 1835.00
2023, 1836.00
2024, 1836.00
2025, 1837.00
2026, 1837.00
2027, 1838.00
2028, 1839.00
2029, 1838.00
2030, 1839.00
2031, 1841.00
2032, 1840.00
2033, 1841.00
2034, 1842.00
2035, 1842.00
2036, 1843.00
2037, 1843.00
2038, 1845.00
2039, 1844.00
2040, 1846.00
2041, 1845.00
2042, 1847.00
2043, 1849.00
2044, 1847.00
2045, 1848.00
2046, 1849.00
2047, 1850.00
2048, 1849.00
2049, 1853.00
2050, 1852.00
2051, 1854.00
2052, 1853.00
2053, 1853.00
2054, 1856.00
2055, 1856.00
2056, 1857.00
2057, 1857.00
2058, 1858.00
2059, 1860.00
2060, 1859.00
2061, 1860.00
2062, 1862.00
2063, 1863.00
2064, 1864.00
2065, 1864.00
2066, 1864.00
2067, 1865.00
2068, 1865.00
2069, 1864.00
2070, 1869.00
2071, 1866.00
2072, 1868.00
2073, 1870.00
2074, 1870.00
2075, 1869.00
2076, 1869.00
2077, 1870.00
2078, 1873.00
2079, 1872.00
2080, 1873.00
2081, 1875.00
2082, 1875.00
2083, 1875.00
2084, 1876.00
2085, 1877.00
2086, 1877.00
2087, 1877.00
2088, 1879.00
2089, 1879.00
2090, 1880.00
2091, 1878.00
2092, 1879.00
2093, 1880.00
2094, 1882.00
2095, 1881.00
2096, 1880.00
2097, 1883.00
2098, 1883.00
2099, 1883.00
2100, 1884.00
2101, 1886.00
2102, 1885.00
2103, 1885.00
2104, 1885.00
2105, 1885.00
2106, 1886.00
2107, 1887.00
2108, 1889.00
2109, 1888.00
2110, 1889.00
2111, 1889.00
2112, 1890.00
2113, 1889.00
2114, 1891.00
2115, 1891.00
2116, 1891.00
2117, 1890.00
2118, 1891.00
2119, 1891.00
2120, 1893.00
2121, 1895.00
2122, 1892.00
2123, 1894.00
2124, 1894.00
2125, 1893.00
2126, 1894.00
2127, 1893.00
2128, 1892.00
2129, 1894.00
2130, 1895.00
2131, 1895.00
2132, 1895.00
2133, 1897.00
2134, 1894.00
2135, 1896.00
2136, 1897.00
2137, 1896.00
2138, 1898.00
2139, 1898.00
2140, 1897.00
2141, 1898.00
2142, 1899.00
2143, 1897.00
2144, 1897.00
2145, 1901.00
2146, 1902.00
2147, 1901.00
2148, 1899.00
2149, 1901.00
2150, 1900.00
