FW version: 24
Log Version: 3.0.3

General Info:
       Command/Macro Performed,            Timestamp,             Device ID, COM Port, UART/I2C, Test Name, Host Major, Host Minor, Host Revision, Host Git Commit
            Single_measurement,  2023_07_18_11_15_29,       Insight2_F4_xxx,    USB-C,      USB,          ,          0,          1,             1,      4031237645

Show Spectrometer Status:
l0_version, f4_version, battery_perc, battery_mVolt, accelerometer_temp, accelerometer_x, accelerometer_y, accelerometer_z, compass_temp, compass_x, compass_y, compass_z, lamp_0, lamp_1, gain_0, gain_1
        17,         24,           75,          1998,               6464,           65216,            1320,           18848,            0,     65487,     65512,     18931,   3276,   3276,      1,      1

Temperature Statistic Info:
NTC AVG [°C], NTC2 AVG [°C]
      40.144,        39.821

Statistic Info:
M1:  num,      min,      max,   median,      AVG,      STD,M2:  num,      min,      max,   median,      AVG,      STD
     301,  2261.00,  2602.00,  2330.00,  2372.80, 106.3399,     401,  2891.00,  3090.00,  2971.00,  2976.85,  64.8570,

Measurements:
Wavelength, Data Amplitude
1350, 2326.00
1351, 2326.00
1352, 2323.00
1353, 2323.00
1354, 2322.00
1355, 2320.00
1356, 2319.00
1357, 2318.00
1358, 2317.00
1359, 2315.00
1360, 2313.00
1361, 2312.00
1362, 2311.00
1363, 2308.00
1364, 2305.00
1365, 2305.00
1366, 2302.00
1367, 2301.00
1368, 2299.00
1369, 2297.00
1370, 2298.00
1371, 2293.00
1372, 2291.00
1373, 2291.00
1374, 2289.00
1375, 2287.00
1376, 2285.00
1377, 2285.00
1378, 2282.00
1379, 2283.00
1380, 2280.00
1381, 2280.00
1382, 2279.00
1383, 2277.00
1384, 2276.00
1385, 2275.00
1386, 2274.00
1387, 2273.00
1388, 2271.00
1389, 2271.00
1390, 2271.00
1391, 2269.00
1392, 2270.00
1393, 2268.00
1394, 2268.00
1395, 2267.00
1396, 2267.00
1397, 2267.00
1398, 2265.00
1399, 2265.00
1400, 2265.00
1401, 2264.00
1402, 2264.00
1403, 2265.00
1404, 2264.00
1405, 2264.00
1406, 2264.00
1407, 2263.00
1408, 2262.00
1409, 2263.00
1410, 2262.00
1411, 2263.00
1412, 2262.00
1413, 2262.00
1414, 2261.00
1415, 2261.00
1416, 2261.00
1417, 2262.00
1418, 2262.00
1419, 2261.00
1420, 2262.00
1421, 2261.00
1422, 2261.00
1423, 2262.00
1424, 2261.00
1425, 2262.00
1426, 2262.00
1427, 2261.00
1428, 2263.00
1429, 2263.00
1430, 2262.00
1431, 2263.00
1432, 2262.00
1433, 2263.00
1434, 2264.00
1435, 2265.00
1436, 2265.00
1437, 2265.00
1438, 2265.00
1439, 2266.00
1440, 2265.00
1441, 2267.00
1442, 2268.00
1443, 2268.00
1444, 2269.00
1445, 2269.00
1446, 2270.00
1447, 2271.00
1448, 2271.00
1449, 2271.00
1450, 2272.00
1451, 2273.00
1452, 2274.00
1453, 2275.00
1454, 2276.00
1455, 2275.00
1456, 2278.00
1457, 2278.00
1458, 2279.00
1459, 2280.00
1460, 2279.00
1461, 2281.00
1462, 2282.00
1463, 2283.00
1464, 2285.00
1465, 2285.00
1466, 2286.00
1467, 2287.00
1468, 2287.00
1469, 2289.00
1470, 2290.00
1471, 2292.00
1472, 2293.00
1473, 2293.00
1474, 2294.00
1475, 2295.00
1476, 2297.00
1477, 2298.00
1478, 2300.00
1479, 2300.00
1480, 2303.00
1481, 2304.00
1482, 2304.00
1483, 2305.00
1484, 2306.00
1485, 2309.00
1486, 2309.00
1487, 2311.00
1488, 2312.00
1489, 2314.00
1490, 2316.00
1491, 2317.00
1492, 2318.00
1493, 2320.00
1494, 2321.00
1495, 2322.00
1496, 2324.00
1497, 2325.00
1498, 2326.00
1499, 2329.00
1500, 2330.00
1501, 2331.00
1502, 2333.00
1503, 2334.00
1504, 2335.00
1505, 2337.00
1506, 2339.00
1507, 2339.00
1508, 2341.00
1509, 2343.00
1510, 2344.00
1511, 2346.00
1512, 2348.00
1513, 2348.00
1514, 2350.00
1515, 2352.00
1516, 2354.00
1517, 2355.00
1518, 2356.00
1519, 2359.00
1520, 2359.00
1521, 2361.00
1522, 2363.00
1523, 2364.00
1524, 2366.00
1525, 2369.00
1526, 2370.00
1527, 2372.00
1528, 2374.00
1529, 2375.00
1530, 2377.00
1531, 2378.00
1532, 2381.00
1533, 2381.00
1534, 2384.00
1535, 2385.00
1536, 2387.00
1537, 2388.00
1538, 2391.00
1539, 2392.00
1540, 2395.00
1541, 2395.00
1542, 2397.00
1543, 2400.00
1544, 2401.00
1545, 2403.00
1546, 2405.00
1547, 2406.00
1548, 2408.00
1549, 2410.00
1550, 2412.00
1551, 2414.00
1552, 2416.00
1553, 2417.00
1554, 2419.00
1555, 2421.00
1556, 2423.00
1557, 2425.00
1558, 2428.00
1559, 2429.00
1560, 2431.00
1561, 2433.00
1562, 2435.00
1563, 2436.00
1564, 2439.00
1565, 2440.00
1566, 2444.00
1567, 2444.00
1568, 2446.00
1569, 2449.00
1570, 2451.00
1571, 2453.00
1572, 2455.00
1573, 2456.00
1574, 2457.00
1575, 2460.00
1576, 2461.00
1577, 2463.00
1578, 2466.00
1579, 2468.00
1580, 2470.00
1581, 2471.00
1582, 2473.00
1583, 2474.00
1584, 2477.00
1585, 2477.00
1586, 2480.00
1587, 2482.00
1588, 2483.00
1589, 2485.00
1590, 2486.00
1591, 2488.00
1592, 2490.00
1593, 2492.00
1594, 2494.00
1595, 2495.00
1596, 2497.00
1597, 2500.00
1598, 2501.00
1599, 2503.00
1600, 2504.00
1601, 2506.00
1602, 2508.00
1603, 2509.00
1604, 2512.00
1605, 2514.00
1606, 2517.00
1607, 2517.00
1608, 2519.00
1609, 2522.00
1610, 2524.00
1611, 2525.00
1612, 2528.00
1613, 2529.00
1614, 2531.00
1615, 2534.00
1616, 2537.00
1617, 2538.00
1618, 2541.00
1619, 2543.00
1620, 2545.00
1621, 2546.00
1622, 2549.00
1623, 2550.00
1624, 2553.00
1625, 2555.00
1626, 2558.00
1627, 2560.00
1628, 2562.00
1629, 2564.00
1630, 2565.00
1631, 2568.00
1632, 2570.00
1633, 2572.00
1634, 2574.00
1635, 2575.00
1636, 2577.00
1637, 2577.00
1638, 2580.00
1639, 2583.00
1640, 2584.00
1641, 2586.00
1642, 2587.00
1643, 2588.00
1644, 2591.00
1645, 2593.00
1646, 2594.00
1647, 2597.00
1648, 2598.00
1649, 2599.00
1650, 2602.00

1750, 3089.00
1751, 3087.00
1752, 3090.00
1753, 3089.00
1754, 3087.00
1755, 3090.00
1756, 3087.00
1757, 3090.00
1758, 3089.00
1759, 3087.00
1760, 3087.00
1761, 3089.00
1762, 3088.00
1763, 3090.00
1764, 3089.00
1765, 3087.00
1766, 3087.00
1767, 3084.00
1768, 3086.00
1769, 3086.00
1770, 3085.00
1771, 3083.00
1772, 3083.00
1773, 3084.00
1774, 3083.00
1775, 3079.00
1776, 3082.00
1777, 3080.00
1778, 3080.00
1779, 3081.00
1780, 3079.00
1781, 3080.00
1782, 3076.00
1783, 3076.00
1784, 3078.00
1785, 3078.00
1786, 3076.00
1787, 3076.00
1788, 3075.00
1789, 3075.00
1790, 3073.00
1791, 3073.00
1792, 3070.00
1793, 3069.00
1794, 3070.00
1795, 3069.00
1796, 3069.00
1797, 3067.00
1798, 3068.00
1799, 3066.00
1800, 3065.00
1801, 3065.00
1802, 3065.00
1803, 3063.00
1804, 3064.00
1805, 3061.00
1806, 3062.00
1807, 3064.00
1808, 3059.00
1809, 3059.00
1810, 3059.00
1811, 3058.00
1812, 3057.00
1813, 3055.00
1814, 3058.00
1815, 3055.00
1816, 3053.00
1817, 3053.00
1818, 3053.00
1819, 3051.00
1820, 3049.00
1821, 3047.00
1822, 3047.00
1823, 3047.00
1824, 3044.00
1825, 3041.00
1826, 3041.00
1827, 3037.00
1828, 3036.00
1829, 3036.00
1830, 3031.00
1831, 3029.00
1832, 3029.00
1833, 3026.00
1834, 3021.00
1835, 3021.00
1836, 3019.00
1837, 3017.00
1838, 3013.00
1839, 3009.00
1840, 3008.00
1841, 3005.00
1842, 3003.00
1843, 3001.00
1844, 2997.00
1845, 2994.00
1846, 2991.00
1847, 2988.00
1848, 2985.00
1849, 2977.00
1850, 2978.00
1851, 2976.00
1852, 2972.00
1853, 2969.00
1854, 2967.00
1855, 2962.00
1856, 2961.00
1857, 2959.00
1858, 2953.00
1859, 2953.00
1860, 2950.00
1861, 2946.00
1862, 2943.00
1863, 2943.00
1864, 2940.00
1865, 2937.00
1866, 2937.00
1867, 2932.00
1868, 2929.00
1869, 2928.00
1870, 2927.00
1871, 2924.00
1872, 2923.00
1873, 2921.00
1874, 2923.00
1875, 2920.00
1876, 2917.00
1877, 2916.00
1878, 2913.00
1879, 2915.00
1880, 2912.00
1881, 2915.00
1882, 2912.00
1883, 2909.00
1884, 2907.00
1885, 2907.00
1886, 2906.00
1887, 2906.00
1888, 2906.00
1889, 2902.00
1890, 2903.00
1891, 2904.00
1892, 2904.00
1893, 2901.00
1894, 2901.00
1895, 2902.00
1896, 2899.00
1897, 2900.00
1898, 2899.00
1899, 2898.00
1900, 2899.00
1901, 2900.00
1902, 2897.00
1903, 2898.00
1904, 2895.00
1905, 2896.00
1906, 2896.00
1907, 2895.00
1908, 2896.00
1909, 2895.00
1910, 2897.00
1911, 2895.00
1912, 2895.00
1913, 2895.00
1914, 2895.00
1915, 2895.00
1916, 2893.00
1917, 2894.00
1918, 2893.00
1919, 2894.00
1920, 2893.00
1921, 2892.00
1922, 2891.00
1923, 2892.00
1924, 2892.00
1925, 2893.00
1926, 2892.00
1927, 2894.00
1928, 2892.00
1929, 2894.00
1930, 2892.00
1931, 2895.00
1932, 2893.00
1933, 2893.00
1934, 2892.00
1935, 2893.00
1936, 2893.00
1937, 2893.00
1938, 2892.00
1939, 2892.00
1940, 2893.00
1941, 2894.00
1942, 2894.00
1943, 2895.00
1944, 2895.00
1945, 2895.00
1946, 2896.00
1947, 2895.00
1948, 2897.00
1949, 2895.00
1950, 2896.00
1951, 2897.00
1952, 2895.00
1953, 2896.00
1954, 2900.00
1955, 2897.00
1956, 2899.00
1957, 2898.00
1958, 2900.00
1959, 2899.00
1960, 2902.00
1961, 2899.00
1962, 2903.00
1963, 2903.00
1964, 2904.00
1965, 2903.00
1966, 2903.00
1967, 2906.00
1968, 2906.00
1969, 2907.00
1970, 2906.00
1971, 2906.00
1972, 2907.00
1973, 2909.00
1974, 2909.00
1975, 2910.00
1976, 2911.00
1977, 2912.00
1978, 2910.00
1979, 2914.00
1980, 2914.00
1981, 2916.00
1982, 2915.00
1983, 2914.00
1984, 2917.00
1985, 2918.00
1986, 2917.00
1987, 2919.00
1988, 2919.00
1989, 2920.00
1990, 2919.00
1991, 2922.00
1992, 2922.00
1993, 2924.00
1994, 2924.00
1995, 2925.00
1996, 2925.00
1997, 2927.00
1998, 2926.00
1999, 2927.00
2000, 2928.00
2001, 2927.00
2002, 2931.00
2003, 2928.00
2004, 2930.00
2005, 2932.00
2006, 2933.00
2007, 2933.00
2008, 2933.00
2009, 2934.00
2010, 2934.00
2011, 2933.00
2012, 2935.00
2013, 2937.00
2014, 2938.00
2015, 2938.00
2016, 2939.00
2017, 2942.00
2018, 2941.00
2019, 2940.00
2020, 2942.00
2021, 2941.00
2022, 2943.00
2023, 2943.00
2024, 2943.00
2025, 2945.00
2026, 2947.00
2027, 2946.00
2028, 2946.00
2029, 2949.00
2030, 2948.00
2031, 2951.00
2032, 2950.00
2033, 2952.00
2034, 2952.00
2035, 2953.00
2036, 2954.00
2037, 2957.00
2038, 2954.00
2039, 2955.00
2040, 2956.00
2041, 2959.00
2042, 2959.00
2043, 2961.00
2044, 2962.00
2045, 2963.00
2046, 2963.00
2047, 2964.00
2048, 2963.00
2049, 2966.00
2050, 2967.00
2051, 2970.00
2052, 2971.00
2053, 2969.00
2054, 2971.00
2055, 2973.00
2056, 2974.00
2057, 2976.00
2058, 2977.00
2059, 2980.00
2060, 2978.00
2061, 2977.00
2062, 2980.00
2063, 2981.00
2064, 2980.00
2065, 2985.00
2066, 2985.00
2067, 2987.00
2068, 2987.00
2069, 2989.00
2070, 2989.00
2071, 2991.00
2072, 2989.00
2073, 2995.00
2074, 2993.00
2075, 2995.00
2076, 2993.00
2077, 2996.00
2078, 2996.00
2079, 2998.00
2080, 2999.00
2081, 2998.00
2082, 3001.00
2083, 3004.00
2084, 3001.00
2085, 3006.00
2086, 3004.00
2087, 3007.00
2088, 3006.00
2089, 3007.00
2090, 3007.00
2091, 3009.00
2092, 3010.00
2093, 3011.00
2094, 3011.00
2095, 3012.00
2096, 3012.00
2097, 3013.00
2098, 3014.00
2099, 3013.00
2100, 3016.00
2101, 3015.00
2102, 3015.00
2103, 3018.00
2104, 3019.00
2105, 3018.00
2106, 3020.00
2107, 3020.00
2108, 3020.00
2109, 3021.00
2110, 3021.00
2111, 3022.00
2112, 3024.00
2113, 3023.00
2114, 3023.00
2115, 3023.00
2116, 3024.00
2117, 3025.00
2118, 3024.00
2119, 3027.00
2120, 3024.00
2121, 3027.00
2122, 3028.00
2123, 3029.00
2124, 3029.00
2125, 3029.00
2126, 3029.00
2127, 3029.00
2128, 3030.00
2129, 3031.00
2130, 3029.00
2131, 3032.00
2132, 3031.00
2133, 3033.00
2134, 3032.00
2135, 3036.00
2136, 3034.00
2137, 3033.00
2138, 3034.00
2139, 3035.00
2140, 3033.00
2141, 3035.00
2142, 3037.00
2143, 3036.00
2144, 3037.00
2145, 3038.00
2146, 3037.00
2147, 3038.00
2148, 3038.00
2149, 3039.00
2150, 3039.00
