FW version: 24
Log Version: 3.0.3

General Info:
       Command/Macro Performed,            Timestamp,             Device ID, COM Port, UART/I2C, Test Name, Host Major, Host Minor, Host Revision, Host Git Commit
            Single_measurement,  2023_07_18_11_15_21,       Insight2_F4_xxx,    USB-C,      USB,          ,          0,          1,             1,      4031237645

Show Spectrometer Status:
l0_version, f4_version, battery_perc, battery_mVolt, accelerometer_temp, accelerometer_x, accelerometer_y, accelerometer_z, compass_temp, compass_x, compass_y, compass_z, lamp_0, lamp_1, gain_0, gain_1
        17,         24,           75,          1998,               6432,           65280,            1312,           18896,            0,     65418,     65505,     18936,   3276,   3276,      1,      1

Temperature Statistic Info:
NTC AVG [°C], NTC2 AVG [°C]
      40.084,        39.763

Statistic Info:
M1:  num,      min,      max,   median,      AVG,      STD,M2:  num,      min,      max,   median,      AVG,      STD
     301,  2262.00,  2603.00,  2331.00,  2374.44, 106.2629,     401,  2892.00,  3091.00,  2972.00,  2978.12,  64.8579,

Measurements:
Wavelength, Data Amplitude
1350, 2329.00
1351, 2328.00
1352, 2326.00
1353, 2325.00
1354, 2321.00
1355, 2321.00
1356, 2321.00
1357, 2320.00
1358, 2320.00
1359, 2317.00
1360, 2317.00
1361, 2313.00
1362, 2313.00
1363, 2310.00
1364, 2307.00
1365, 2306.00
1366, 2306.00
1367, 2303.00
1368, 2301.00
1369, 2300.00
1370, 2298.00
1371, 2296.00
1372, 2295.00
1373, 2292.00
1374, 2292.00
1375, 2291.00
1376, 2286.00
1377, 2286.00
1378, 2285.00
1379, 2285.00
1380, 2283.00
1381, 2281.00
1382, 2280.00
1383, 2279.00
1384, 2277.00
1385, 2275.00
1386, 2276.00
1387, 2275.00
1388, 2273.00
1389, 2276.00
1390, 2272.00
1391, 2272.00
1392, 2273.00
1393, 2271.00
1394, 2269.00
1395, 2269.00
1396, 2269.00
1397, 2269.00
1398, 2268.00
1399, 2267.00
1400, 2267.00
1401, 2267.00
1402, 2267.00
1403, 2265.00
1404, 2265.00
1405, 2265.00
1406, 2265.00
1407, 2264.00
1408, 2263.00
1409, 2264.00
1410, 2264.00
1411, 2264.00
1412, 2264.00
1413, 2264.00
1414, 2263.00
1415, 2262.00
1416, 2262.00
1417, 2263.00
1418, 2263.00
1419, 2263.00
1420, 2264.00
1421, 2263.00
1422, 2262.00
1423, 2262.00
1424, 2263.00
1425, 2263.00
1426, 2263.00
1427, 2263.00
1428, 2265.00
1429, 2264.00
1430, 2265.00
1431, 2264.00
1432, 2265.00
1433, 2265.00
1434, 2265.00
1435, 2266.00
1436, 2266.00
1437, 2266.00
1438, 2267.00
1439, 2267.00
1440, 2268.00
1441, 2268.00
1442, 2270.00
1443, 2270.00
1444, 2271.00
1445, 2270.00
1446, 2272.00
1447, 2273.00
1448, 2273.00
1449, 2274.00
1450, 2273.00
1451, 2274.00
1452, 2276.00
1453, 2276.00
1454, 2277.00
1455, 2278.00
1456, 2279.00
1457, 2279.00
1458, 2280.00
1459, 2281.00
1460, 2282.00
1461, 2282.00
1462, 2284.00
1463, 2284.00
1464, 2285.00
1465, 2286.00
1466, 2287.00
1467, 2288.00
1468, 2290.00
1469, 2290.00
1470, 2292.00
1471, 2293.00
1472, 2294.00
1473, 2296.00
1474, 2297.00
1475, 2297.00
1476, 2299.00
1477, 2300.00
1478, 2302.00
1479, 2304.00
1480, 2304.00
1481, 2305.00
1482, 2307.00
1483, 2306.00
1484, 2309.00
1485, 2311.00
1486, 2312.00
1487, 2313.00
1488, 2314.00
1489, 2316.00
1490, 2317.00
1491, 2318.00
1492, 2320.00
1493, 2322.00
1494, 2322.00
1495, 2323.00
1496, 2324.00
1497, 2327.00
1498, 2328.00
1499, 2331.00
1500, 2331.00
1501, 2332.00
1502, 2334.00
1503, 2335.00
1504, 2337.00
1505, 2339.00
1506, 2339.00
1507, 2341.00
1508, 2343.00
1509, 2344.00
1510, 2345.00
1511, 2347.00
1512, 2349.00
1513, 2351.00
1514, 2352.00
1515, 2354.00
1516, 2355.00
1517, 2356.00
1518, 2358.00
1519, 2360.00
1520, 2361.00
1521, 2363.00
1522, 2365.00
1523, 2366.00
1524, 2368.00
1525, 2369.00
1526, 2371.00
1527, 2373.00
1528, 2375.00
1529, 2376.00
1530, 2377.00
1531, 2380.00
1532, 2381.00
1533, 2384.00
1534, 2384.00
1535, 2387.00
1536, 2388.00
1537, 2390.00
1538, 2392.00
1539, 2393.00
1540, 2397.00
1541, 2397.00
1542, 2400.00
1543, 2401.00
1544, 2403.00
1545, 2404.00
1546, 2406.00
1547, 2407.00
1548, 2409.00
1549, 2411.00
1550, 2413.00
1551, 2414.00
1552, 2417.00
1553, 2419.00
1554, 2422.00
1555, 2422.00
1556, 2425.00
1557, 2428.00
1558, 2429.00
1559, 2430.00
1560, 2433.00
1561, 2434.00
1562, 2437.00
1563, 2439.00
1564, 2441.00
1565, 2442.00
1566, 2445.00
1567, 2447.00
1568, 2448.00
1569, 2450.00
1570, 2453.00
1571, 2453.00
1572, 2456.00
1573, 2458.00
1574, 2460.00
1575, 2461.00
1576, 2464.00
1577, 2465.00
1578, 2467.00
1579, 2470.00
1580, 2471.00
1581, 2473.00
1582, 2475.00
1583, 2475.00
1584, 2478.00
1585, 2480.00
1586, 2481.00
1587, 2482.00
1588, 2485.00
1589, 2487.00
1590, 2488.00
1591, 2490.00
1592, 2492.00
1593, 2493.00
1594, 2495.00
1595, 2498.00
1596, 2498.00
1597, 2500.00
1598, 2502.00
1599, 2504.00
1600, 2505.00
1601, 2508.00
1602, 2509.00
1603, 2511.00
1604, 2514.00
1605, 2515.00
1606, 2517.00
1607, 2520.00
1608, 2521.00
1609, 2522.00
1610, 2525.00
1611, 2527.00
1612, 2528.00
1613, 2531.00
1614, 2533.00
1615, 2535.00
1616, 2538.00
1617, 2540.00
1618, 2542.00
1619, 2544.00
1620, 2547.00
1621, 2549.00
1622, 2551.00
1623, 2552.00
1624, 2555.00
1625, 2557.00
1626, 2560.00
1627, 2562.00
1628, 2563.00
1629, 2564.00
1630, 2567.00
1631, 2569.00
1632, 2571.00
1633, 2573.00
1634, 2576.00
1635, 2577.00
1636, 2578.00
1637, 2581.00
1638, 2582.00
1639, 2583.00
1640, 2585.00
1641, 2588.00
1642, 2589.00
1643, 2591.00
1644, 2592.00
1645, 2593.00
1646, 2596.00
1647, 2598.00
1648, 2601.00
1649, 2601.00
1650, 2603.00

1750, 3090.00
1751, 3090.00
1752, 3090.00
1753, 3089.00
1754, 3091.00
1755, 3089.00
1756, 3088.00
1757, 3089.00
1758, 3089.00
1759, 3091.00
1760, 3088.00
1761, 3089.00
1762, 3089.00
1763, 3089.00
1764, 3089.00
1765, 3088.00
1766, 3088.00
1767, 3087.00
1768, 3087.00
1769, 3087.00
1770, 3087.00
1771, 3085.00
1772, 3085.00
1773, 3083.00
1774, 3084.00
1775, 3083.00
1776, 3082.00
1777, 3081.00
1778, 3084.00
1779, 3081.00
1780, 3082.00
1781, 3078.00
1782, 3078.00
1783, 3080.00
1784, 3077.00
1785, 3077.00
1786, 3077.00
1787, 3076.00
1788, 3076.00
1789, 3073.00
1790, 3075.00
1791, 3072.00
1792, 3071.00
1793, 3071.00
1794, 3071.00
1795, 3070.00
1796, 3067.00
1797, 3070.00
1798, 3071.00
1799, 3068.00
1800, 3067.00
1801, 3066.00
1802, 3065.00
1803, 3064.00
1804, 3062.00
1805, 3063.00
1806, 3063.00
1807, 3063.00
1808, 3062.00
1809, 3061.00
1810, 3060.00
1811, 3059.00
1812, 3060.00
1813, 3057.00
1814, 3057.00
1815, 3056.00
1816, 3054.00
1817, 3054.00
1818, 3053.00
1819, 3051.00
1820, 3049.00
1821, 3049.00
1822, 3047.00
1823, 3047.00
1824, 3045.00
1825, 3045.00
1826, 3041.00
1827, 3041.00
1828, 3038.00
1829, 3036.00
1830, 3035.00
1831, 3031.00
1832, 3029.00
1833, 3027.00
1834, 3024.00
1835, 3023.00
1836, 3023.00
1837, 3017.00
1838, 3015.00
1839, 3012.00
1840, 3009.00
1841, 3006.00
1842, 3005.00
1843, 3001.00
1844, 2997.00
1845, 2994.00
1846, 2993.00
1847, 2988.00
1848, 2987.00
1849, 2982.00
1850, 2981.00
1851, 2978.00
1852, 2972.00
1853, 2971.00
1854, 2965.00
1855, 2965.00
1856, 2962.00
1857, 2960.00
1858, 2956.00
1859, 2955.00
1860, 2951.00
1861, 2946.00
1862, 2947.00
1863, 2943.00
1864, 2942.00
1865, 2937.00
1866, 2935.00
1867, 2933.00
1868, 2931.00
1869, 2930.00
1870, 2928.00
1871, 2927.00
1872, 2924.00
1873, 2922.00
1874, 2925.00
1875, 2919.00
1876, 2919.00
1877, 2919.00
1878, 2918.00
1879, 2914.00
1880, 2915.00
1881, 2912.00
1882, 2911.00
1883, 2911.00
1884, 2911.00
1885, 2911.00
1886, 2909.00
1887, 2909.00
1888, 2907.00
1889, 2907.00
1890, 2906.00
1891, 2905.00
1892, 2903.00
1893, 2903.00
1894, 2902.00
1895, 2903.00
1896, 2901.00
1897, 2900.00
1898, 2900.00
1899, 2901.00
1900, 2901.00
1901, 2900.00
1902, 2900.00
1903, 2900.00
1904, 2899.00
1905, 2896.00
1906, 2896.00
1907, 2898.00
1908, 2898.00
1909, 2895.00
1910, 2896.00
1911, 2897.00
1912, 2895.00
1913, 2894.00
1914, 2895.00
1915, 2896.00
1916, 2893.00
1917, 2894.00
1918, 2895.00
1919, 2893.00
1920, 2894.00
1921, 2895.00
1922, 2893.00
1923, 2893.00
1924, 2892.00
1925, 2893.00
1926, 2893.00
1927, 2893.00
1928, 2893.00
1929, 2893.00
1930, 2893.00
1931, 2894.00
1932, 2894.00
1933, 2894.00
1934, 2895.00
1935, 2893.00
1936, 2894.00
1937, 2894.00
1938, 2896.00
1939, 2895.00
1940, 2897.00
1941, 2896.00
1942, 2894.00
1943, 2895.00
1944, 2896.00
1945, 2893.00
1946, 2896.00
1947, 2896.00
1948, 2896.00
1949, 2897.00
1950, 2899.00
1951, 2897.00
1952, 2898.00
1953, 2899.00
1954, 2899.00
1955, 2901.00
1956, 2901.00
1957, 2901.00
1958, 2900.00
1959, 2903.00
1960, 2903.00
1961, 2902.00
1962, 2903.00
1963, 2904.00
1964, 2907.00
1965, 2904.00
1966, 2904.00
1967, 2904.00
1968, 2908.00
1969, 2907.00
1970, 2908.00
1971, 2908.00
1972, 2910.00
1973, 2911.00
1974, 2910.00
1975, 2913.00
1976, 2912.00
1977, 2914.00
1978, 2915.00
1979, 2915.00
1980, 2914.00
1981, 2917.00
1982, 2916.00
1983, 2919.00
1984, 2918.00
1985, 2917.00
1986, 2920.00
1987, 2920.00
1988, 2920.00
1989, 2921.00
1990, 2921.00
1991, 2923.00
1992, 2924.00
1993, 2924.00
1994, 2923.00
1995, 2925.00
1996, 2925.00
1997, 2928.00
1998, 2928.00
1999, 2927.00
2000, 2929.00
2001, 2930.00
2002, 2927.00
2003, 2930.00
2004, 2932.00
2005, 2932.00
2006, 2934.00
2007, 2935.00
2008, 2934.00
2009, 2935.00
2010, 2935.00
2011, 2935.00
2012, 2937.00
2013, 2938.00
2014, 2939.00
2015, 2941.00
2016, 2939.00
2017, 2939.00
2018, 2941.00
2019, 2941.00
2020, 2941.00
2021, 2943.00
2022, 2943.00
2023, 2945.00
2024, 2945.00
2025, 2946.00
2026, 2947.00
2027, 2949.00
2028, 2950.00
2029, 2949.00
2030, 2950.00
2031, 2951.00
2032, 2953.00
2033, 2951.00
2034, 2953.00
2035, 2954.00
2036, 2955.00
2037, 2955.00
2038, 2955.00
2039, 2957.00
2040, 2958.00
2041, 2960.00
2042, 2962.00
2043, 2961.00
2044, 2963.00
2045, 2963.00
2046, 2963.00
2047, 2965.00
2048, 2965.00
2049, 2969.00
2050, 2967.00
2051, 2971.00
2052, 2970.00
2053, 2973.00
2054, 2972.00
2055, 2973.00
2056, 2975.00
2057, 2977.00
2058, 2977.00
2059, 2979.00
2060, 2979.00
2061, 2982.00
2062, 2983.00
2063, 2982.00
2064, 2983.00
2065, 2984.00
2066, 2987.00
2067, 2987.00
2068, 2989.00
2069, 2990.00
2070, 2989.00
2071, 2992.00
2072, 2993.00
2073, 2992.00
2074, 2994.00
2075, 2995.00
2076, 2999.00
2077, 2998.00
2078, 2996.00
2079, 3001.00
2080, 2999.00
2081, 3000.00
2082, 3001.00
2083, 3001.00
2084, 3005.00
2085, 3003.00
2086, 3006.00
2087, 3007.00
2088, 3007.00
2089, 3009.00
2090, 3011.00
2091, 3009.00
2092, 3012.00
2093, 3012.00
2094, 3014.00
2095, 3015.00
2096, 3015.00
2097, 3015.00
2098, 3016.00
2099, 3014.00
2100, 3016.00
2101, 3017.00
2102, 3019.00
2103, 3019.00
2104, 3020.00
2105, 3022.00
2106, 3019.00
2107, 3022.00
2108, 3020.00
2109, 3023.00
2110, 3023.00
2111, 3023.00
2112, 3026.00
2113, 3024.00
2114, 3025.00
2115, 3026.00
2116, 3027.00
2117, 3025.00
2118, 3025.00
2119, 3026.00
2120, 3028.00
2121, 3029.00
2122, 3029.00
2123, 3030.00
2124, 3031.00
2125, 3029.00
2126, 3031.00
2127, 3030.00
2128, 3033.00
2129, 3034.00
2130, 3032.00
2131, 3032.00
2132, 3034.00
2133, 3033.00
2134, 3034.00
2135, 3034.00
2136, 3036.00
2137, 3035.00
2138, 3037.00
2139, 3036.00
2140, 3038.00
2141, 3038.00
2142, 3037.00
2143, 3037.00
2144, 3040.00
2145, 3039.00
2146, 3039.00
2147, 3040.00
2148, 3041.00
2149, 3041.00
2150, 3040.00
