FW version: 24
Log Version: 3.0.3

General Info:
       Command/Macro Performed,            Timestamp,             Device ID, COM Port, UART/I2C, Test Name, Host Major, Host Minor, Host Revision, Host Git Commit
            Single_measurement,  2023_07_18_11_15_06,       Insight2_F4_xxx,    USB-C,      USB,          ,          0,          1,             1,      4031237645

Show Spectrometer Status:
l0_version, f4_version, battery_perc, battery_mVolt, accelerometer_temp, accelerometer_x, accelerometer_y, accelerometer_z, compass_temp, compass_x, compass_y, compass_z, lamp_0, lamp_1, gain_0, gain_1
        17,         24,           75,          1999,               6464,           65216,            1352,           18900,            0,     65493,     65500,     18942,   2866,   2866,      1,      1

Temperature Statistic Info:
NTC AVG [°C], NTC2 AVG [°C]
      39.995,        39.704

Statistic Info:
M1:  num,      min,      max,   median,      AVG,      STD,M2:  num,      min,      max,   median,      AVG,      STD
     301,  1758.00,  2034.00,  1815.00,  1848.67,  85.7761,     401,  2330.00,  2491.00,  2395.00,  2400.47,  52.6462,

Measurements:
Wavelength, Data Amplitude
1350, 1809.00
1351, 1809.00
1352, 1807.00
1353, 1806.00
1354, 1805.00
1355, 1804.00
1356, 1803.00
1357, 1801.00
1358, 1800.00
1359, 1799.00
1360, 1799.00
1361, 1797.00
1362, 1797.00
1363, 1794.00
1364, 1793.00
1365, 1793.00
1366, 1790.00
1367, 1789.00
1368, 1787.00
1369, 1787.00
1370, 1784.00
1371, 1784.00
1372, 1782.00
1373, 1781.00
1374, 1780.00
1375, 1778.00
1376, 1777.00
1377, 1776.00
1378, 1774.00
1379, 1775.00
1380, 1775.00
1381, 1773.00
1382, 1772.00
1383, 1770.00
1384, 1769.00
1385, 1769.00
1386, 1768.00
1387, 1768.00
1388, 1767.00
1389, 1767.00
1390, 1765.00
1391, 1766.00
1392, 1766.00
1393, 1765.00
1394, 1764.00
1395, 1764.00
1396, 1763.00
1397, 1764.00
1398, 1763.00
1399, 1762.00
1400, 1762.00
1401, 1761.00
1402, 1761.00
1403, 1762.00
1404, 1761.00
1405, 1762.00
1406, 1760.00
1407, 1761.00
1408, 1759.00
1409, 1759.00
1410, 1759.00
1411, 1760.00
1412, 1759.00
1413, 1759.00
1414, 1759.00
1415, 1759.00
1416, 1759.00
1417, 1759.00
1418, 1759.00
1419, 1760.00
1420, 1759.00
1421, 1758.00
1422, 1759.00
1423, 1759.00
1424, 1759.00
1425, 1760.00
1426, 1759.00
1427, 1759.00
1428, 1759.00
1429, 1760.00
1430, 1760.00
1431, 1760.00
1432, 1761.00
1433, 1761.00
1434, 1761.00
1435, 1761.00
1436, 1762.00
1437, 1763.00
1438, 1763.00
1439, 1763.00
1440, 1762.00
1441, 1764.00
1442, 1765.00
1443, 1765.00
1444, 1766.00
1445, 1767.00
1446, 1767.00
1447, 1766.00
1448, 1767.00
1449, 1767.00
1450, 1769.00
1451, 1769.00
1452, 1769.00
1453, 1771.00
1454, 1770.00
1455, 1771.00
1456, 1772.00
1457, 1773.00
1458, 1774.00
1459, 1774.00
1460, 1775.00
1461, 1775.00
1462, 1777.00
1463, 1777.00
1464, 1779.00
1465, 1778.00
1466, 1779.00
1467, 1780.00
1468, 1781.00
1469, 1781.00
1470, 1782.00
1471, 1783.00
1472, 1785.00
1473, 1786.00
1474, 1786.00
1475, 1787.00
1476, 1788.00
1477, 1789.00
1478, 1791.00
1479, 1791.00
1480, 1792.00
1481, 1793.00
1482, 1794.00
1483, 1795.00
1484, 1796.00
1485, 1797.00
1486, 1799.00
1487, 1799.00
1488, 1801.00
1489, 1801.00
1490, 1803.00
1491, 1803.00
1492, 1805.00
1493, 1806.00
1494, 1807.00
1495, 1809.00
1496, 1809.00
1497, 1810.00
1498, 1813.00
1499, 1814.00
1500, 1815.00
1501, 1815.00
1502, 1817.00
1503, 1817.00
1504, 1819.00
1505, 1821.00
1506, 1821.00
1507, 1822.00
1508, 1824.00
1509, 1824.00
1510, 1826.00
1511, 1826.00
1512, 1829.00
1513, 1829.00
1514, 1831.00
1515, 1833.00
1516, 1834.00
1517, 1834.00
1518, 1835.00
1519, 1837.00
1520, 1839.00
1521, 1840.00
1522, 1840.00
1523, 1843.00
1524, 1843.00
1525, 1845.00
1526, 1846.00
1527, 1849.00
1528, 1850.00
1529, 1851.00
1530, 1853.00
1531, 1852.00
1532, 1855.00
1533, 1856.00
1534, 1859.00
1535, 1859.00
1536, 1861.00
1537, 1861.00
1538, 1863.00
1539, 1865.00
1540, 1866.00
1541, 1868.00
1542, 1869.00
1543, 1870.00
1544, 1873.00
1545, 1873.00
1546, 1875.00
1547, 1877.00
1548, 1878.00
1549, 1879.00
1550, 1881.00
1551, 1882.00
1552, 1883.00
1553, 1885.00
1554, 1886.00
1555, 1888.00
1556, 1888.00
1557, 1892.00
1558, 1893.00
1559, 1894.00
1560, 1896.00
1561, 1897.00
1562, 1899.00
1563, 1900.00
1564, 1902.00
1565, 1903.00
1566, 1906.00
1567, 1907.00
1568, 1908.00
1569, 1911.00
1570, 1911.00
1571, 1913.00
1572, 1914.00
1573, 1916.00
1574, 1918.00
1575, 1919.00
1576, 1921.00
1577, 1923.00
1578, 1924.00
1579, 1925.00
1580, 1927.00
1581, 1928.00
1582, 1930.00
1583, 1930.00
1584, 1931.00
1585, 1934.00
1586, 1935.00
1587, 1935.00
1588, 1937.00
1589, 1939.00
1590, 1939.00
1591, 1941.00
1592, 1943.00
1593, 1944.00
1594, 1945.00
1595, 1947.00
1596, 1947.00
1597, 1949.00
1598, 1951.00
1599, 1953.00
1600, 1954.00
1601, 1955.00
1602, 1957.00
1603, 1958.00
1604, 1960.00
1605, 1962.00
1606, 1963.00
1607, 1966.00
1608, 1966.00
1609, 1968.00
1610, 1970.00
1611, 1971.00
1612, 1973.00
1613, 1975.00
1614, 1977.00
1615, 1979.00
1616, 1980.00
1617, 1981.00
1618, 1983.00
1619, 1986.00
1620, 1987.00
1621, 1989.00
1622, 1991.00
1623, 1993.00
1624, 1995.00
1625, 1996.00
1626, 1999.00
1627, 2000.00
1628, 2002.00
1629, 2003.00
1630, 2005.00
1631, 2006.00
1632, 2007.00
1633, 2008.00
1634, 2012.00
1635, 2012.00
1636, 2012.00
1637, 2016.00
1638, 2016.00
1639, 2018.00
1640, 2020.00
1641, 2021.00
1642, 2023.00
1643, 2024.00
1644, 2025.00
1645, 2026.00
1646, 2027.00
1647, 2029.00
1648, 2031.00
1649, 2033.00
1650, 2034.00

1750, 2491.00
1751, 2489.00
1752, 2488.00
1753, 2489.00
1754, 2489.00
1755, 2489.00
1756, 2488.00
1757, 2488.00
1758, 2489.00
1759, 2489.00
1760, 2489.00
1761, 2490.00
1762, 2489.00
1763, 2489.00
1764, 2488.00
1765, 2488.00
1766, 2488.00
1767, 2487.00
1768, 2487.00
1769, 2487.00
1770, 2488.00
1771, 2486.00
1772, 2486.00
1773, 2485.00
1774, 2486.00
1775, 2484.00
1776, 2486.00
1777, 2486.00
1778, 2486.00
1779, 2483.00
1780, 2484.00
1781, 2481.00
1782, 2479.00
1783, 2481.00
1784, 2481.00
1785, 2479.00
1786, 2478.00
1787, 2479.00
1788, 2477.00
1789, 2476.00
1790, 2476.00
1791, 2477.00
1792, 2476.00
1793, 2474.00
1794, 2473.00
1795, 2474.00
1796, 2472.00
1797, 2474.00
1798, 2472.00
1799, 2472.00
1800, 2472.00
1801, 2472.00
1802, 2471.00
1803, 2471.00
1804, 2470.00
1805, 2468.00
1806, 2469.00
1807, 2469.00
1808, 2467.00
1809, 2465.00
1810, 2466.00
1811, 2467.00
1812, 2466.00
1813, 2464.00
1814, 2465.00
1815, 2461.00
1816, 2461.00
1817, 2462.00
1818, 2460.00
1819, 2459.00
1820, 2457.00
1821, 2456.00
1822, 2456.00
1823, 2455.00
1824, 2454.00
1825, 2453.00
1826, 2451.00
1827, 2449.00
1828, 2449.00
1829, 2448.00
1830, 2444.00
1831, 2443.00
1832, 2442.00
1833, 2441.00
1834, 2438.00
1835, 2436.00
1836, 2436.00
1837, 2433.00
1838, 2429.00
1839, 2429.00
1840, 2425.00
1841, 2425.00
1842, 2422.00
1843, 2420.00
1844, 2416.00
1845, 2417.00
1846, 2412.00
1847, 2409.00
1848, 2407.00
1849, 2402.00
1850, 2399.00
1851, 2399.00
1852, 2397.00
1853, 2395.00
1854, 2390.00
1855, 2390.00
1856, 2386.00
1857, 2384.00
1858, 2383.00
1859, 2381.00
1860, 2377.00
1861, 2376.00
1862, 2374.00
1863, 2372.00
1864, 2368.00
1865, 2368.00
1866, 2366.00
1867, 2364.00
1868, 2362.00
1869, 2361.00
1870, 2358.00
1871, 2357.00
1872, 2357.00
1873, 2355.00
1874, 2354.00
1875, 2353.00
1876, 2351.00
1877, 2351.00
1878, 2349.00
1879, 2349.00
1880, 2348.00
1881, 2347.00
1882, 2346.00
1883, 2344.00
1884, 2345.00
1885, 2344.00
1886, 2342.00
1887, 2345.00
1888, 2341.00
1889, 2342.00
1890, 2342.00
1891, 2342.00
1892, 2339.00
1893, 2339.00
1894, 2342.00
1895, 2340.00
1896, 2338.00
1897, 2338.00
1898, 2336.00
1899, 2336.00
1900, 2339.00
1901, 2336.00
1902, 2336.00
1903, 2336.00
1904, 2335.00
1905, 2336.00
1906, 2335.00
1907, 2332.00
1908, 2333.00
1909, 2333.00
1910, 2333.00
1911, 2332.00
1912, 2331.00
1913, 2334.00
1914, 2334.00
1915, 2333.00
1916, 2332.00
1917, 2330.00
1918, 2331.00
1919, 2331.00
1920, 2331.00
1921, 2333.00
1922, 2333.00
1923, 2332.00
1924, 2332.00
1925, 2332.00
1926, 2331.00
1927, 2332.00
1928, 2332.00
1929, 2332.00
1930, 2331.00
1931, 2333.00
1932, 2331.00
1933, 2332.00
1934, 2334.00
1935, 2331.00
1936, 2330.00
1937, 2330.00
1938, 2333.00
1939, 2331.00
1940, 2331.00
1941, 2332.00
1942, 2332.00
1943, 2333.00
1944, 2333.00
1945, 2334.00
1946, 2333.00
1947, 2334.00
1948, 2335.00
1949, 2335.00
1950, 2334.00
1951, 2334.00
1952, 2335.00
1953, 2338.00
1954, 2336.00
1955, 2337.00
1956, 2339.00
1957, 2338.00
1958, 2339.00
1959, 2338.00
1960, 2339.00
1961, 2339.00
1962, 2339.00
1963, 2339.00
1964, 2340.00
1965, 2340.00
1966, 2343.00
1967, 2341.00
1968, 2342.00
1969, 2343.00
1970, 2343.00
1971, 2345.00
1972, 2345.00
1973, 2344.00
1974, 2346.00
1975, 2347.00
1976, 2346.00
1977, 2349.00
1978, 2348.00
1979, 2348.00
1980, 2349.00
1981, 2349.00
1982, 2350.00
1983, 2350.00
1984, 2350.00
1985, 2352.00
1986, 2352.00
1987, 2352.00
1988, 2353.00
1989, 2354.00
1990, 2354.00
1991, 2355.00
1992, 2355.00
1993, 2356.00
1994, 2357.00
1995, 2357.00
1996, 2359.00
1997, 2358.00
1998, 2360.00
1999, 2359.00
2000, 2360.00
2001, 2360.00
2002, 2361.00
2003, 2361.00
2004, 2364.00
2005, 2363.00
2006, 2365.00
2007, 2365.00
2008, 2365.00
2009, 2366.00
2010, 2364.00
2011, 2366.00
2012, 2368.00
2013, 2367.00
2014, 2368.00
2015, 2368.00
2016, 2369.00
2017, 2369.00
2018, 2370.00
2019, 2373.00
2020, 2371.00
2021, 2372.00
2022, 2373.00
2023, 2374.00
2024, 2377.00
2025, 2374.00
2026, 2377.00
2027, 2375.00
2028, 2377.00
2029, 2378.00
2030, 2378.00
2031, 2379.00
2032, 2381.00
2033, 2381.00
2034, 2379.00
2035, 2381.00
2036, 2382.00
2037, 2383.00
2038, 2384.00
2039, 2383.00
2040, 2385.00
2041, 2385.00
2042, 2389.00
2043, 2386.00
2044, 2389.00
2045, 2390.00
2046, 2391.00
2047, 2391.00
2048, 2391.00
2049, 2392.00
2050, 2395.00
2051, 2393.00
2052, 2397.00
2053, 2394.00
2054, 2395.00
2055, 2396.00
2056, 2399.00
2057, 2399.00
2058, 2401.00
2059, 2402.00
2060, 2402.00
2061, 2404.00
2062, 2405.00
2063, 2406.00
2064, 2404.00
2065, 2407.00
2066, 2407.00
2067, 2409.00
2068, 2409.00
2069, 2410.00
2070, 2411.00
2071, 2412.00
2072, 2413.00
2073, 2414.00
2074, 2415.00
2075, 2416.00
2076, 2418.00
2077, 2418.00
2078, 2418.00
2079, 2417.00
2080, 2422.00
2081, 2420.00
2082, 2422.00
2083, 2422.00
2084, 2423.00
2085, 2423.00
2086, 2425.00
2087, 2428.00
2088, 2425.00
2089, 2428.00
2090, 2427.00
2091, 2429.00
2092, 2430.00
2093, 2429.00
2094, 2430.00
2095, 2431.00
2096, 2431.00
2097, 2431.00
2098, 2431.00
2099, 2433.00
2100, 2432.00
2101, 2433.00
2102, 2435.00
2103, 2434.00
2104, 2435.00
2105, 2437.00
2106, 2439.00
2107, 2437.00
2108, 2439.00
2109, 2438.00
2110, 2438.00
2111, 2440.00
2112, 2439.00
2113, 2440.00
2114, 2441.00
2115, 2441.00
2116, 2441.00
2117, 2443.00
2118, 2442.00
2119, 2443.00
2120, 2441.00
2121, 2442.00
2122, 2445.00
2123, 2444.00
2124, 2443.00
2125, 2444.00
2126, 2443.00
2127, 2445.00
2128, 2445.00
2129, 2448.00
2130, 2445.00
2131, 2445.00
2132, 2448.00
2133, 2447.00
2134, 2448.00
2135, 2448.00
2136, 2445.00
2137, 2448.00
2138, 2449.00
2139, 2451.00
2140, 2449.00
2141, 2450.00
2142, 2451.00
2143, 2451.00
2144, 2451.00
2145, 2452.00
2146, 2452.00
2147, 2452.00
2148, 2450.00
2149, 2453.00
2150, 2452.00
