FW version: 24
Log Version: 3.0.3

General Info:
       Command/Macro Performed,            Timestamp,             Device ID, COM Port, UART/I2C, Test Name, Host Major, Host Minor, Host Revision, Host Git Commit
            Single_measurement,  2023_07_18_10_46_16,       Insight2_F4_xxx,    USB-C,      USB,          ,          0,          1,             1,      4031237645

Show Spectrometer Status:
l0_version, f4_version, battery_perc, battery_mVolt, accelerometer_temp, accelerometer_x, accelerometer_y, accelerometer_z, compass_temp, compass_x, compass_y, compass_z, lamp_0, lamp_1, gain_0, gain_1
        17,         24,           71,          1980,               5680,           65172,            1096,           18776,            0,     65429,     65276,     18938,   2457,   2457,      1,      1

Temperature Statistic Info:
NTC AVG [°C], NTC2 AVG [°C]
      35.809,        35.555

Statistic Info:
M1:  num,      min,      max,   median,      AVG,      STD,M2:  num,      min,      max,   median,      AVG,      STD
     301,  1255.00,  1452.00,  1295.00,  1319.64,  61.2590,     401,  1687.00,  1806.00,  1736.00,  1739.16,  38.9634,

Measurements:
Wavelength, Data Amplitude
1350, 1289.00
1351, 1289.00
1352, 1288.00
1353, 1288.00
1354, 1286.00
1355, 1286.00
1356, 1286.00
1357, 1284.00
1358, 1284.00
1359, 1283.00
1360, 1283.00
1361, 1281.00
1362, 1281.00
1363, 1280.00
1364, 1280.00
1365, 1278.00
1366, 1278.00
1367, 1278.00
1368, 1276.00
1369, 1274.00
1370, 1273.00
1371, 1273.00
1372, 1271.00
1373, 1272.00
1374, 1271.00
1375, 1271.00
1376, 1270.00
1377, 1268.00
1378, 1267.00
1379, 1265.00
1380, 1266.00
1381, 1265.00
1382, 1265.00
1383, 1264.00
1384, 1264.00
1385, 1263.00
1386, 1262.00
1387, 1262.00
1388, 1262.00
1389, 1261.00
1390, 1261.00
1391, 1259.00
1392, 1259.00
1393, 1260.00
1394, 1259.00
1395, 1258.00
1396, 1258.00
1397, 1259.00
1398, 1258.00
1399, 1258.00
1400, 1257.00
1401, 1257.00
1402, 1257.00
1403, 1257.00
1404, 1257.00
1405, 1257.00
1406, 1257.00
1407, 1257.00
1408, 1256.00
1409, 1256.00
1410, 1256.00
1411, 1255.00
1412, 1258.00
1413, 1256.00
1414, 1256.00
1415, 1256.00
1416, 1256.00
1417, 1256.00
1418, 1256.00
1419, 1256.00
1420, 1257.00
1421, 1256.00
1422, 1256.00
1423, 1256.00
1424, 1255.00
1425, 1255.00
1426, 1255.00
1427, 1256.00
1428, 1256.00
1429, 1257.00
1430, 1256.00
1431, 1256.00
1432, 1257.00
1433, 1258.00
1434, 1257.00
1435, 1257.00
1436, 1258.00
1437, 1258.00
1438, 1258.00
1439, 1259.00
1440, 1259.00
1441, 1259.00
1442, 1259.00
1443, 1260.00
1444, 1260.00
1445, 1261.00
1446, 1261.00
1447, 1261.00
1448, 1261.00
1449, 1262.00
1450, 1263.00
1451, 1263.00
1452, 1261.00
1453, 1264.00
1454, 1264.00
1455, 1264.00
1456, 1265.00
1457, 1265.00
1458, 1266.00
1459, 1266.00
1460, 1267.00
1461, 1268.00
1462, 1267.00
1463, 1269.00
1464, 1269.00
1465, 1269.00
1466, 1270.00
1467, 1271.00
1468, 1272.00
1469, 1272.00
1470, 1273.00
1471, 1272.00
1472, 1273.00
1473, 1274.00
1474, 1275.00
1475, 1275.00
1476, 1276.00
1477, 1277.00
1478, 1278.00
1479, 1279.00
1480, 1280.00
1481, 1280.00
1482, 1280.00
1483, 1282.00
1484, 1281.00
1485, 1283.00
1486, 1283.00
1487, 1284.00
1488, 1286.00
1489, 1286.00
1490, 1288.00
1491, 1288.00
1492, 1288.00
1493, 1289.00
1494, 1290.00
1495, 1290.00
1496, 1291.00
1497, 1292.00
1498, 1293.00
1499, 1295.00
1500, 1294.00
1501, 1295.00
1502, 1297.00
1503, 1297.00
1504, 1299.00
1505, 1300.00
1506, 1300.00
1507, 1300.00
1508, 1302.00
1509, 1302.00
1510, 1304.00
1511, 1304.00
1512, 1305.00
1513, 1306.00
1514, 1307.00
1515, 1308.00
1516, 1309.00
1517, 1310.00
1518, 1312.00
1519, 1311.00
1520, 1313.00
1521, 1315.00
1522, 1315.00
1523, 1316.00
1524, 1317.00
1525, 1318.00
1526, 1320.00
1527, 1320.00
1528, 1321.00
1529, 1322.00
1530, 1323.00
1531, 1324.00
1532, 1326.00
1533, 1325.00
1534, 1328.00
1535, 1328.00
1536, 1329.00
1537, 1331.00
1538, 1332.00
1539, 1333.00
1540, 1333.00
1541, 1334.00
1542, 1335.00
1543, 1336.00
1544, 1338.00
1545, 1339.00
1546, 1340.00
1547, 1339.00
1548, 1342.00
1549, 1342.00
1550, 1342.00
1551, 1344.00
1552, 1345.00
1553, 1346.00
1554, 1348.00
1555, 1348.00
1556, 1350.00
1557, 1350.00
1558, 1352.00
1559, 1353.00
1560, 1353.00
1561, 1356.00
1562, 1356.00
1563, 1356.00
1564, 1358.00
1565, 1360.00
1566, 1359.00
1567, 1362.00
1568, 1362.00
1569, 1363.00
1570, 1366.00
1571, 1366.00
1572, 1367.00
1573, 1369.00
1574, 1370.00
1575, 1370.00
1576, 1371.00
1577, 1372.00
1578, 1373.00
1579, 1374.00
1580, 1374.00
1581, 1377.00
1582, 1378.00
1583, 1378.00
1584, 1379.00
1585, 1380.00
1586, 1380.00
1587, 1381.00
1588, 1382.00
1589, 1383.00
1590, 1385.00
1591, 1385.00
1592, 1387.00
1593, 1387.00
1594, 1388.00
1595, 1389.00
1596, 1390.00
1597, 1391.00
1598, 1393.00
1599, 1393.00
1600, 1394.00
1601, 1396.00
1602, 1396.00
1603, 1397.00
1604, 1399.00
1605, 1401.00
1606, 1400.00
1607, 1403.00
1608, 1403.00
1609, 1403.00
1610, 1406.00
1611, 1407.00
1612, 1408.00
1613, 1409.00
1614, 1411.00
1615, 1412.00
1616, 1413.00
1617, 1415.00
1618, 1416.00
1619, 1416.00
1620, 1418.00
1621, 1420.00
1622, 1422.00
1623, 1421.00
1624, 1425.00
1625, 1425.00
1626, 1426.00
1627, 1427.00
1628, 1428.00
1629, 1430.00
1630, 1431.00
1631, 1432.00
1632, 1434.00
1633, 1434.00
1634, 1436.00
1635, 1437.00
1636, 1437.00
1637, 1439.00
1638, 1440.00
1639, 1440.00
1640, 1442.00
1641, 1443.00
1642, 1443.00
1643, 1445.00
1644, 1446.00
1645, 1446.00
1646, 1448.00
1647, 1448.00
1648, 1449.00
1649, 1450.00
1650, 1452.00

1750, 1804.00
1751, 1805.00
1752, 1803.00
1753, 1803.00
1754, 1806.00
1755, 1803.00
1756, 1804.00
1757, 1805.00
1758, 1803.00
1759, 1804.00
1760, 1804.00
1761, 1805.00
1762, 1805.00
1763, 1804.00
1764, 1804.00
1765, 1805.00
1766, 1804.00
1767, 1803.00
1768, 1802.00
1769, 1803.00
1770, 1804.00
1771, 1802.00
1772, 1800.00
1773, 1802.00
1774, 1802.00
1775, 1801.00
1776, 1802.00
1777, 1801.00
1778, 1800.00
1779, 1801.00
1780, 1800.00
1781, 1800.00
1782, 1798.00
1783, 1798.00
1784, 1799.00
1785, 1797.00
1786, 1798.00
1787, 1797.00
1788, 1798.00
1789, 1797.00
1790, 1795.00
1791, 1797.00
1792, 1796.00
1793, 1795.00
1794, 1794.00
1795, 1793.00
1796, 1793.00
1797, 1793.00
1798, 1792.00
1799, 1793.00
1800, 1793.00
1801, 1791.00
1802, 1790.00
1803, 1791.00
1804, 1790.00
1805, 1790.00
1806, 1791.00
1807, 1790.00
1808, 1789.00
1809, 1788.00
1810, 1788.00
1811, 1788.00
1812, 1788.00
1813, 1787.00
1814, 1787.00
1815, 1785.00
1816, 1786.00
1817, 1785.00
1818, 1785.00
1819, 1785.00
1820, 1781.00
1821, 1783.00
1822, 1782.00
1823, 1781.00
1824, 1782.00
1825, 1780.00
1826, 1778.00
1827, 1779.00
1828, 1777.00
1829, 1775.00
1830, 1773.00
1831, 1773.00
1832, 1772.00
1833, 1770.00
1834, 1769.00
1835, 1768.00
1836, 1765.00
1837, 1765.00
1838, 1764.00
1839, 1763.00
1840, 1759.00
1841, 1759.00
1842, 1759.00
1843, 1755.00
1844, 1754.00
1845, 1750.00
1846, 1750.00
1847, 1748.00
1848, 1746.00
1849, 1744.00
1850, 1744.00
1851, 1741.00
1852, 1739.00
1853, 1739.00
1854, 1734.00
1855, 1733.00
1856, 1733.00
1857, 1730.00
1858, 1729.00
1859, 1727.00
1860, 1723.00
1861, 1724.00
1862, 1722.00
1863, 1721.00
1864, 1720.00
1865, 1716.00
1866, 1717.00
1867, 1715.00
1868, 1714.00
1869, 1712.00
1870, 1711.00
1871, 1709.00
1872, 1708.00
1873, 1708.00
1874, 1707.00
1875, 1705.00
1876, 1705.00
1877, 1703.00
1878, 1703.00
1879, 1703.00
1880, 1700.00
1881, 1701.00
1882, 1700.00
1883, 1700.00
1884, 1701.00
1885, 1699.00
1886, 1696.00
1887, 1698.00
1888, 1697.00
1889, 1697.00
1890, 1696.00
1891, 1696.00
1892, 1695.00
1893, 1695.00
1894, 1693.00
1895, 1695.00
1896, 1693.00
1897, 1694.00
1898, 1693.00
1899, 1692.00
1900, 1694.00
1901, 1691.00
1902, 1693.00
1903, 1690.00
1904, 1691.00
1905, 1691.00
1906, 1690.00
1907, 1691.00
1908, 1691.00
1909, 1689.00
1910, 1691.00
1911, 1690.00
1912, 1689.00
1913, 1690.00
1914, 1688.00
1915, 1689.00
1916, 1688.00
1917, 1689.00
1918, 1690.00
1919, 1689.00
1920, 1687.00
1921, 1688.00
1922, 1687.00
1923, 1689.00
1924, 1689.00
1925, 1688.00
1926, 1687.00
1927, 1687.00
1928, 1688.00
1929, 1688.00
1930, 1688.00
1931, 1688.00
1932, 1689.00
1933, 1690.00
1934, 1688.00
1935, 1688.00
1936, 1689.00
1937, 1691.00
1938, 1688.00
1939, 1689.00
1940, 1687.00
1941, 1689.00
1942, 1688.00
1943, 1689.00
1944, 1689.00
1945, 1687.00
1946, 1689.00
1947, 1688.00
1948, 1691.00
1949, 1690.00
1950, 1690.00
1951, 1691.00
1952, 1691.00
1953, 1691.00
1954, 1692.00
1955, 1692.00
1956, 1691.00
1957, 1692.00
1958, 1691.00
1959, 1692.00
1960, 1693.00
1961, 1693.00
1962, 1693.00
1963, 1694.00
1964, 1695.00
1965, 1695.00
1966, 1694.00
1967, 1695.00
1968, 1697.00
1969, 1696.00
1970, 1696.00
1971, 1697.00
1972, 1697.00
1973, 1697.00
1974, 1697.00
1975, 1699.00
1976, 1698.00
1977, 1699.00
1978, 1698.00
1979, 1700.00
1980, 1701.00
1981, 1702.00
1982, 1701.00
1983, 1702.00
1984, 1701.00
1985, 1701.00
1986, 1705.00
1987, 1703.00
1988, 1703.00
1989, 1704.00
1990, 1704.00
1991, 1705.00
1992, 1705.00
1993, 1706.00
1994, 1707.00
1995, 1707.00
1996, 1707.00
1997, 1707.00
1998, 1708.00
1999, 1708.00
2000, 1707.00
2001, 1709.00
2002, 1711.00
2003, 1709.00
2004, 1710.00
2005, 1711.00
2006, 1711.00
2007, 1712.00
2008, 1714.00
2009, 1712.00
2010, 1714.00
2011, 1713.00
2012, 1715.00
2013, 1714.00
2014, 1712.00
2015, 1715.00
2016, 1715.00
2017, 1715.00
2018, 1716.00
2019, 1717.00
2020, 1717.00
2021, 1716.00
2022, 1718.00
2023, 1719.00
2024, 1719.00
2025, 1720.00
2026, 1721.00
2027, 1721.00
2028, 1720.00
2029, 1720.00
2030, 1720.00
2031, 1723.00
2032, 1722.00
2033, 1723.00
2034, 1723.00
2035, 1723.00
2036, 1724.00
2037, 1727.00
2038, 1725.00
2039, 1724.00
2040, 1728.00
2041, 1725.00
2042, 1729.00
2043, 1729.00
2044, 1729.00
2045, 1730.00
2046, 1732.00
2047, 1731.00
2048, 1733.00
2049, 1733.00
2050, 1733.00
2051, 1733.00
2052, 1733.00
2053, 1736.00
2054, 1735.00
2055, 1736.00
2056, 1737.00
2057, 1737.00
2058, 1739.00
2059, 1736.00
2060, 1741.00
2061, 1739.00
2062, 1739.00
2063, 1742.00
2064, 1742.00
2065, 1742.00
2066, 1743.00
2067, 1744.00
2068, 1745.00
2069, 1745.00
2070, 1747.00
2071, 1747.00
2072, 1746.00
2073, 1749.00
2074, 1749.00
2075, 1750.00
2076, 1752.00
2077, 1749.00
2078, 1751.00
2079, 1752.00
2080, 1752.00
2081, 1754.00
2082, 1754.00
2083, 1754.00
2084, 1756.00
2085, 1755.00
2086, 1756.00
2087, 1758.00
2088, 1757.00
2089, 1757.00
2090, 1758.00
2091, 1759.00
2092, 1761.00
2093, 1761.00
2094, 1761.00
2095, 1762.00
2096, 1762.00
2097, 1762.00
2098, 1763.00
2099, 1764.00
2100, 1763.00
2101, 1763.00
2102, 1764.00
2103, 1766.00
2104, 1764.00
2105, 1765.00
2106, 1764.00
2107, 1766.00
2108, 1765.00
2109, 1764.00
2110, 1766.00
2111, 1765.00
2112, 1767.00
2113, 1769.00
2114, 1768.00
2115, 1768.00
2116, 1769.00
2117, 1770.00
2118, 1769.00
2119, 1771.00
2120, 1770.00
2121, 1769.00
2122, 1769.00
2123, 1771.00
2124, 1770.00
2125, 1772.00
2126, 1771.00
2127, 1771.00
2128, 1771.00
2129, 1773.00
2130, 1772.00
2131, 1773.00
2132, 1772.00
2133, 1773.00
2134, 1773.00
2135, 1773.00
2136, 1772.00
2137, 1774.00
2138, 1774.00
2139, 1777.00
2140, 1775.00
2141, 1775.00
2142, 1775.00
2143, 1774.00
2144, 1775.00
2145, 1775.00
2146, 1776.00
2147, 1777.00
2148, 1778.00
2149, 1775.00
2150, 1777.00
