FW version: 24
Log Version: 3.0.3

General Info:
       Command/Macro Performed,            Timestamp,             Device ID, COM Port, UART/I2C, Test Name, Host Major, Host Minor, Host Revision, Host Git Commit
            Single_measurement,  2023_07_04_10_57_27,       Insight2_F4_xxx,    USB-C,      USB,          ,          0,          1,             1,      4031237645

Show Spectrometer Status:
l0_version, f4_version, battery_perc, battery_mVolt, accelerometer_temp, accelerometer_x, accelerometer_y, accelerometer_z, compass_temp, compass_x, compass_y, compass_z, lamp_0, lamp_1, gain_0, gain_1
        17,         24,           12,          1832,               5472,           64920,            2088,           19180,            0,     65502,     65384,     19182,   2457,   2457,      1,      1

Temperature Statistic Info:
NTC AVG [°C], NTC2 AVG [°C]
      35.555,        35.185

Statistic Info:
M1:  num,      min,      max,   median,      AVG,      STD,M2:  num,      min,      max,   median,      AVG,      STD
     301,  1056.00,  1228.00,  1092.00,  1112.40,  53.2593,     401,  1515.00,  1617.00,  1557.00,  1560.09,  33.5426,

Measurements:
Wavelength, Data Amplitude
1350, 1085.00
1351, 1085.00
1352, 1084.00
1353, 1084.00
1354, 1084.00
1355, 1083.00
1356, 1081.00
1357, 1082.00
1358, 1082.00
1359, 1081.00
1360, 1080.00
1361, 1078.00
1362, 1078.00
1363, 1077.00
1364, 1076.00
1365, 1077.00
1366, 1076.00
1367, 1075.00
1368, 1074.00
1369, 1073.00
1370, 1072.00
1371, 1071.00
1372, 1071.00
1373, 1070.00
1374, 1069.00
1375, 1069.00
1376, 1069.00
1377, 1067.00
1378, 1066.00
1379, 1067.00
1380, 1066.00
1381, 1065.00
1382, 1064.00
1383, 1063.00
1384, 1063.00
1385, 1062.00
1386, 1062.00
1387, 1062.00
1388, 1062.00
1389, 1061.00
1390, 1061.00
1391, 1061.00
1392, 1060.00
1393, 1060.00
1394, 1060.00
1395, 1060.00
1396, 1060.00
1397, 1059.00
1398, 1058.00
1399, 1059.00
1400, 1059.00
1401, 1058.00
1402, 1058.00
1403, 1058.00
1404, 1057.00
1405, 1058.00
1406, 1058.00
1407, 1057.00
1408, 1058.00
1409, 1058.00
1410, 1058.00
1411, 1057.00
1412, 1057.00
1413, 1057.00
1414, 1057.00
1415, 1057.00
1416, 1057.00
1417, 1057.00
1418, 1056.00
1419, 1056.00
1420, 1056.00
1421, 1056.00
1422, 1057.00
1423, 1057.00
1424, 1058.00
1425, 1057.00
1426, 1056.00
1427, 1057.00
1428, 1057.00
1429, 1058.00
1430, 1058.00
1431, 1058.00
1432, 1059.00
1433, 1058.00
1434, 1059.00
1435, 1057.00
1436, 1058.00
1437, 1060.00
1438, 1058.00
1439, 1059.00
1440, 1060.00
1441, 1060.00
1442, 1060.00
1443, 1060.00
1444, 1060.00
1445, 1061.00
1446, 1061.00
1447, 1062.00
1448, 1062.00
1449, 1062.00
1450, 1062.00
1451, 1062.00
1452, 1063.00
1453, 1064.00
1454, 1062.00
1455, 1065.00
1456, 1065.00
1457, 1065.00
1458, 1067.00
1459, 1067.00
1460, 1066.00
1461, 1068.00
1462, 1066.00
1463, 1068.00
1464, 1067.00
1465, 1068.00
1466, 1069.00
1467, 1070.00
1468, 1071.00
1469, 1071.00
1470, 1071.00
1471, 1073.00
1472, 1073.00
1473, 1073.00
1474, 1073.00
1475, 1074.00
1476, 1075.00
1477, 1075.00
1478, 1075.00
1479, 1077.00
1480, 1078.00
1481, 1078.00
1482, 1079.00
1483, 1079.00
1484, 1080.00
1485, 1081.00
1486, 1081.00
1487, 1083.00
1488, 1083.00
1489, 1084.00
1490, 1083.00
1491, 1084.00
1492, 1086.00
1493, 1086.00
1494, 1087.00
1495, 1089.00
1496, 1089.00
1497, 1089.00
1498, 1090.00
1499, 1092.00
1500, 1091.00
1501, 1092.00
1502, 1093.00
1503, 1093.00
1504, 1095.00
1505, 1095.00
1506, 1096.00
1507, 1097.00
1508, 1097.00
1509, 1098.00
1510, 1099.00
1511, 1100.00
1512, 1101.00
1513, 1101.00
1514, 1103.00
1515, 1103.00
1516, 1104.00
1517, 1105.00
1518, 1106.00
1519, 1106.00
1520, 1107.00
1521, 1108.00
1522, 1109.00
1523, 1110.00
1524, 1110.00
1525, 1111.00
1526, 1113.00
1527, 1113.00
1528, 1114.00
1529, 1115.00
1530, 1115.00
1531, 1116.00
1532, 1117.00
1533, 1118.00
1534, 1119.00
1535, 1121.00
1536, 1121.00
1537, 1122.00
1538, 1124.00
1539, 1124.00
1540, 1124.00
1541, 1124.00
1542, 1126.00
1543, 1127.00
1544, 1127.00
1545, 1128.00
1546, 1130.00
1547, 1130.00
1548, 1130.00
1549, 1132.00
1550, 1133.00
1551, 1134.00
1552, 1134.00
1553, 1135.00
1554, 1136.00
1555, 1138.00
1556, 1137.00
1557, 1139.00
1558, 1140.00
1559, 1140.00
1560, 1141.00
1561, 1142.00
1562, 1144.00
1563, 1145.00
1564, 1146.00
1565, 1147.00
1566, 1148.00
1567, 1148.00
1568, 1149.00
1569, 1150.00
1570, 1152.00
1571, 1152.00
1572, 1154.00
1573, 1154.00
1574, 1155.00
1575, 1156.00
1576, 1155.00
1577, 1158.00
1578, 1159.00
1579, 1159.00
1580, 1160.00
1581, 1161.00
1582, 1163.00
1583, 1162.00
1584, 1163.00
1585, 1164.00
1586, 1164.00
1587, 1166.00
1588, 1168.00
1589, 1168.00
1590, 1169.00
1591, 1170.00
1592, 1170.00
1593, 1170.00
1594, 1172.00
1595, 1173.00
1596, 1174.00
1597, 1174.00
1598, 1176.00
1599, 1176.00
1600, 1176.00
1601, 1178.00
1602, 1180.00
1603, 1180.00
1604, 1182.00
1605, 1182.00
1606, 1183.00
1607, 1184.00
1608, 1185.00
1609, 1186.00
1610, 1186.00
1611, 1188.00
1612, 1190.00
1613, 1191.00
1614, 1192.00
1615, 1193.00
1616, 1194.00
1617, 1194.00
1618, 1196.00
1619, 1197.00
1620, 1198.00
1621, 1200.00
1622, 1201.00
1623, 1201.00
1624, 1203.00
1625, 1204.00
1626, 1206.00
1627, 1205.00
1628, 1207.00
1629, 1208.00
1630, 1210.00
1631, 1211.00
1632, 1211.00
1633, 1212.00
1634, 1213.00
1635, 1214.00
1636, 1215.00
1637, 1216.00
1638, 1217.00
1639, 1219.00
1640, 1219.00
1641, 1220.00
1642, 1220.00
1643, 1221.00
1644, 1222.00
1645, 1224.00
1646, 1223.00
1647, 1224.00
1648, 1225.00
1649, 1226.00
1650, 1228.00

1750, 1617.00
1751, 1613.00
1752, 1616.00
1753, 1615.00
1754, 1615.00
1755, 1615.00
1756, 1614.00
1757, 1614.00
1758, 1615.00
1759, 1616.00
1760, 1614.00
1761, 1615.00
1762, 1615.00
1763, 1615.00
1764, 1614.00
1765, 1615.00
1766, 1614.00
1767, 1614.00
1768, 1614.00
1769, 1613.00
1770, 1614.00
1771, 1613.00
1772, 1613.00
1773, 1613.00
1774, 1615.00
1775, 1612.00
1776, 1613.00
1777, 1612.00
1778, 1611.00
1779, 1612.00
1780, 1612.00
1781, 1611.00
1782, 1611.00
1783, 1610.00
1784, 1610.00
1785, 1609.00
1786, 1610.00
1787, 1609.00
1788, 1611.00
1789, 1609.00
1790, 1609.00
1791, 1609.00
1792, 1608.00
1793, 1607.00
1794, 1607.00
1795, 1607.00
1796, 1607.00
1797, 1605.00
1798, 1605.00
1799, 1605.00
1800, 1605.00
1801, 1605.00
1802, 1605.00
1803, 1604.00
1804, 1603.00
1805, 1603.00
1806, 1604.00
1807, 1602.00
1808, 1602.00
1809, 1602.00
1810, 1601.00
1811, 1602.00
1812, 1601.00
1813, 1602.00
1814, 1601.00
1815, 1600.00
1816, 1600.00
1817, 1601.00
1818, 1597.00
1819, 1598.00
1820, 1598.00
1821, 1597.00
1822, 1595.00
1823, 1596.00
1824, 1596.00
1825, 1594.00
1826, 1592.00
1827, 1591.00
1828, 1592.00
1829, 1591.00
1830, 1591.00
1831, 1589.00
1832, 1588.00
1833, 1588.00
1834, 1585.00
1835, 1585.00
1836, 1584.00
1837, 1581.00
1838, 1581.00
1839, 1580.00
1840, 1578.00
1841, 1577.00
1842, 1575.00
1843, 1573.00
1844, 1570.00
1845, 1570.00
1846, 1570.00
1847, 1566.00
1848, 1566.00
1849, 1564.00
1850, 1563.00
1851, 1560.00
1852, 1559.00
1853, 1559.00
1854, 1557.00
1855, 1554.00
1856, 1554.00
1857, 1552.00
1858, 1549.00
1859, 1547.00
1860, 1548.00
1861, 1545.00
1862, 1544.00
1863, 1544.00
1864, 1542.00
1865, 1540.00
1866, 1539.00
1867, 1538.00
1868, 1537.00
1869, 1536.00
1870, 1534.00
1871, 1534.00
1872, 1533.00
1873, 1532.00
1874, 1531.00
1875, 1530.00
1876, 1528.00
1877, 1529.00
1878, 1527.00
1879, 1528.00
1880, 1527.00
1881, 1527.00
1882, 1526.00
1883, 1527.00
1884, 1524.00
1885, 1524.00
1886, 1522.00
1887, 1523.00
1888, 1523.00
1889, 1523.00
1890, 1520.00
1891, 1523.00
1892, 1522.00
1893, 1521.00
1894, 1521.00
1895, 1521.00
1896, 1521.00
1897, 1519.00
1898, 1520.00
1899, 1519.00
1900, 1519.00
1901, 1519.00
1902, 1519.00
1903, 1519.00
1904, 1519.00
1905, 1518.00
1906, 1518.00
1907, 1517.00
1908, 1517.00
1909, 1519.00
1910, 1517.00
1911, 1517.00
1912, 1516.00
1913, 1517.00
1914, 1519.00
1915, 1517.00
1916, 1516.00
1917, 1516.00
1918, 1516.00
1919, 1515.00
1920, 1518.00
1921, 1517.00
1922, 1516.00
1923, 1517.00
1924, 1515.00
1925, 1515.00
1926, 1516.00
1927, 1516.00
1928, 1517.00
1929, 1516.00
1930, 1515.00
1931, 1515.00
1932, 1515.00
1933, 1516.00
1934, 1515.00
1935, 1515.00
1936, 1518.00
1937, 1517.00
1938, 1517.00
1939, 1516.00
1940, 1516.00
1941, 1517.00
1942, 1515.00
1943, 1517.00
1944, 1516.00
1945, 1519.00
1946, 1517.00
1947, 1517.00
1948, 1518.00
1949, 1518.00
1950, 1518.00
1951, 1519.00
1952, 1517.00
1953, 1518.00
1954, 1518.00
1955, 1520.00
1956, 1520.00
1957, 1519.00
1958, 1521.00
1959, 1521.00
1960, 1523.00
1961, 1521.00
1962, 1522.00
1963, 1521.00
1964, 1522.00
1965, 1523.00
1966, 1522.00
1967, 1522.00
1968, 1523.00
1969, 1525.00
1970, 1524.00
1971, 1524.00
1972, 1525.00
1973, 1524.00
1974, 1525.00
1975, 1524.00
1976, 1526.00
1977, 1526.00
1978, 1527.00
1979, 1526.00
1980, 1527.00
1981, 1526.00
1982, 1528.00
1983, 1528.00
1984, 1527.00
1985, 1529.00
1986, 1529.00
1987, 1529.00
1988, 1530.00
1989, 1530.00
1990, 1532.00
1991, 1531.00
1992, 1530.00
1993, 1533.00
1994, 1531.00
1995, 1532.00
1996, 1533.00
1997, 1533.00
1998, 1534.00
1999, 1533.00
2000, 1533.00
2001, 1533.00
2002, 1534.00
2003, 1534.00
2004, 1536.00
2005, 1535.00
2006, 1535.00
2007, 1538.00
2008, 1534.00
2009, 1536.00
2010, 1538.00
2011, 1537.00
2012, 1539.00
2013, 1539.00
2014, 1538.00
2015, 1538.00
2016, 1541.00
2017, 1540.00
2018, 1541.00
2019, 1543.00
2020, 1541.00
2021, 1541.00
2022, 1542.00
2023, 1542.00
2024, 1542.00
2025, 1542.00
2026, 1545.00
2027, 1544.00
2028, 1545.00
2029, 1545.00
2030, 1544.00
2031, 1546.00
2032, 1545.00
2033, 1547.00
2034, 1548.00
2035, 1547.00
2036, 1548.00
2037, 1548.00
2038, 1548.00
2039, 1549.00
2040, 1550.00
2041, 1552.00
2042, 1551.00
2043, 1552.00
2044, 1554.00
2045, 1553.00
2046, 1553.00
2047, 1553.00
2048, 1554.00
2049, 1554.00
2050, 1555.00
2051, 1554.00
2052, 1555.00
2053, 1555.00
2054, 1557.00
2055, 1558.00
2056, 1557.00
2057, 1557.00
2058, 1561.00
2059, 1560.00
2060, 1561.00
2061, 1562.00
2062, 1561.00
2063, 1563.00
2064, 1562.00
2065, 1564.00
2066, 1564.00
2067, 1563.00
2068, 1566.00
2069, 1567.00
2070, 1567.00
2071, 1568.00
2072, 1568.00
2073, 1569.00
2074, 1570.00
2075, 1570.00
2076, 1571.00
2077, 1569.00
2078, 1572.00
2079, 1574.00
2080, 1572.00
2081, 1574.00
2082, 1575.00
2083, 1575.00
2084, 1574.00
2085, 1575.00
2086, 1575.00
2087, 1578.00
2088, 1575.00
2089, 1576.00
2090, 1577.00
2091, 1578.00
2092, 1578.00
2093, 1579.00
2094, 1580.00
2095, 1580.00
2096, 1581.00
2097, 1579.00
2098, 1581.00
2099, 1582.00
2100, 1581.00
2101, 1582.00
2102, 1582.00
2103, 1583.00
2104, 1583.00
2105, 1584.00
2106, 1584.00
2107, 1584.00
2108, 1585.00
2109, 1585.00
2110, 1585.00
2111, 1586.00
2112, 1585.00
2113, 1585.00
2114, 1586.00
2115, 1584.00
2116, 1585.00
2117, 1586.00
2118, 1588.00
2119, 1586.00
2120, 1587.00
2121, 1587.00
2122, 1589.00
2123, 1589.00
2124, 1588.00
2125, 1589.00
2126, 1589.00
2127, 1588.00
2128, 1589.00
2129, 1590.00
2130, 1591.00
2131, 1590.00
2132, 1591.00
2133, 1591.00
2134, 1590.00
2135, 1591.00
2136, 1592.00
2137, 1593.00
2138, 1594.00
2139, 1593.00
2140, 1592.00
2141, 1593.00
2142, 1593.00
2143, 1592.00
2144, 1594.00
2145, 1593.00
2146, 1593.00
2147, 1594.00
2148, 1593.00
2149, 1595.00
2150, 1592.00
