FW version: 24
Log Version: 3.0.3

General Info:
       Command/Macro Performed,            Timestamp,             Device ID, COM Port, UART/I2C, Test Name, Host Major, Host Minor, Host Revision, Host Git Commit
            Single_measurement,  2023_07_04_10_58_06,       Insight2_F4_xxx,    USB-C,      USB,          ,          0,          1,             1,      4031237645

Show Spectrometer Status:
l0_version, f4_version, battery_perc, battery_mVolt, accelerometer_temp, accelerometer_x, accelerometer_y, accelerometer_z, compass_temp, compass_x, compass_y, compass_z, lamp_0, lamp_1, gain_0, gain_1
        17,         24,           12,          1831,               5520,           64952,            2148,           19124,            0,     65534,     65383,     19188,   3276,   3276,      1,      1

Temperature Statistic Info:
NTC AVG [°C], NTC2 AVG [°C]
      35.921,        35.584

Statistic Info:
M1:  num,      min,      max,   median,      AVG,      STD,M2:  num,      min,      max,   median,      AVG,      STD
     301,  1824.00,  2101.00,  1879.00,  1914.88,  85.6052,     401,  2426.00,  2587.00,  2492.00,  2496.31,  52.6829,

Measurements:
Wavelength, Data Amplitude
1350, 1877.00
1351, 1877.00
1352, 1875.00
1353, 1874.00
1354, 1874.00
1355, 1873.00
1356, 1872.00
1357, 1870.00
1358, 1871.00
1359, 1869.00
1360, 1869.00
1361, 1866.00
1362, 1866.00
1363, 1864.00
1364, 1862.00
1365, 1861.00
1366, 1860.00
1367, 1860.00
1368, 1857.00
1369, 1854.00
1370, 1855.00
1371, 1853.00
1372, 1851.00
1373, 1850.00
1374, 1849.00
1375, 1848.00
1376, 1847.00
1377, 1844.00
1378, 1845.00
1379, 1843.00
1380, 1842.00
1381, 1840.00
1382, 1840.00
1383, 1838.00
1384, 1838.00
1385, 1837.00
1386, 1837.00
1387, 1835.00
1388, 1836.00
1389, 1834.00
1390, 1833.00
1391, 1832.00
1392, 1832.00
1393, 1831.00
1394, 1831.00
1395, 1831.00
1396, 1830.00
1397, 1830.00
1398, 1829.00
1399, 1829.00
1400, 1829.00
1401, 1828.00
1402, 1827.00
1403, 1828.00
1404, 1828.00
1405, 1828.00
1406, 1826.00
1407, 1827.00
1408, 1826.00
1409, 1827.00
1410, 1827.00
1411, 1825.00
1412, 1827.00
1413, 1826.00
1414, 1825.00
1415, 1826.00
1416, 1824.00
1417, 1825.00
1418, 1824.00
1419, 1825.00
1420, 1825.00
1421, 1826.00
1422, 1825.00
1423, 1825.00
1424, 1825.00
1425, 1824.00
1426, 1825.00
1427, 1825.00
1428, 1825.00
1429, 1826.00
1430, 1825.00
1431, 1827.00
1432, 1827.00
1433, 1826.00
1434, 1828.00
1435, 1827.00
1436, 1828.00
1437, 1827.00
1438, 1829.00
1439, 1829.00
1440, 1830.00
1441, 1829.00
1442, 1828.00
1443, 1829.00
1444, 1831.00
1445, 1832.00
1446, 1831.00
1447, 1832.00
1448, 1832.00
1449, 1833.00
1450, 1833.00
1451, 1835.00
1452, 1835.00
1453, 1835.00
1454, 1835.00
1455, 1836.00
1456, 1838.00
1457, 1839.00
1458, 1838.00
1459, 1840.00
1460, 1840.00
1461, 1841.00
1462, 1840.00
1463, 1841.00
1464, 1843.00
1465, 1844.00
1466, 1844.00
1467, 1846.00
1468, 1846.00
1469, 1848.00
1470, 1848.00
1471, 1847.00
1472, 1849.00
1473, 1851.00
1474, 1851.00
1475, 1852.00
1476, 1854.00
1477, 1855.00
1478, 1855.00
1479, 1857.00
1480, 1858.00
1481, 1859.00
1482, 1861.00
1483, 1860.00
1484, 1862.00
1485, 1863.00
1486, 1864.00
1487, 1864.00
1488, 1866.00
1489, 1867.00
1490, 1869.00
1491, 1869.00
1492, 1871.00
1493, 1872.00
1494, 1874.00
1495, 1874.00
1496, 1875.00
1497, 1877.00
1498, 1877.00
1499, 1878.00
1500, 1879.00
1501, 1881.00
1502, 1882.00
1503, 1884.00
1504, 1883.00
1505, 1886.00
1506, 1886.00
1507, 1888.00
1508, 1889.00
1509, 1891.00
1510, 1891.00
1511, 1894.00
1512, 1894.00
1513, 1896.00
1514, 1897.00
1515, 1898.00
1516, 1899.00
1517, 1900.00
1518, 1903.00
1519, 1904.00
1520, 1905.00
1521, 1906.00
1522, 1907.00
1523, 1908.00
1524, 1910.00
1525, 1911.00
1526, 1913.00
1527, 1914.00
1528, 1915.00
1529, 1917.00
1530, 1918.00
1531, 1919.00
1532, 1919.00
1533, 1922.00
1534, 1924.00
1535, 1925.00
1536, 1927.00
1537, 1927.00
1538, 1930.00
1539, 1930.00
1540, 1932.00
1541, 1933.00
1542, 1934.00
1543, 1936.00
1544, 1937.00
1545, 1940.00
1546, 1941.00
1547, 1942.00
1548, 1944.00
1549, 1945.00
1550, 1946.00
1551, 1947.00
1552, 1949.00
1553, 1950.00
1554, 1951.00
1555, 1955.00
1556, 1955.00
1557, 1957.00
1558, 1958.00
1559, 1960.00
1560, 1961.00
1561, 1963.00
1562, 1963.00
1563, 1965.00
1564, 1968.00
1565, 1969.00
1566, 1971.00
1567, 1972.00
1568, 1973.00
1569, 1975.00
1570, 1977.00
1571, 1977.00
1572, 1979.00
1573, 1981.00
1574, 1983.00
1575, 1984.00
1576, 1986.00
1577, 1988.00
1578, 1989.00
1579, 1990.00
1580, 1991.00
1581, 1994.00
1582, 1995.00
1583, 1996.00
1584, 1997.00
1585, 1999.00
1586, 2001.00
1587, 2002.00
1588, 2003.00
1589, 2005.00
1590, 2004.00
1591, 2007.00
1592, 2008.00
1593, 2010.00
1594, 2012.00
1595, 2012.00
1596, 2014.00
1597, 2016.00
1598, 2017.00
1599, 2018.00
1600, 2020.00
1601, 2020.00
1602, 2023.00
1603, 2024.00
1604, 2027.00
1605, 2027.00
1606, 2029.00
1607, 2031.00
1608, 2032.00
1609, 2034.00
1610, 2035.00
1611, 2037.00
1612, 2039.00
1613, 2041.00
1614, 2043.00
1615, 2043.00
1616, 2047.00
1617, 2048.00
1618, 2050.00
1619, 2052.00
1620, 2055.00
1621, 2056.00
1622, 2058.00
1623, 2059.00
1624, 2061.00
1625, 2062.00
1626, 2065.00
1627, 2067.00
1628, 2068.00
1629, 2069.00
1630, 2072.00
1631, 2072.00
1632, 2073.00
1633, 2076.00
1634, 2077.00
1635, 2078.00
1636, 2080.00
1637, 2081.00
1638, 2083.00
1639, 2084.00
1640, 2086.00
1641, 2088.00
1642, 2088.00
1643, 2090.00
1644, 2091.00
1645, 2093.00
1646, 2095.00
1647, 2096.00
1648, 2098.00
1649, 2099.00
1650, 2101.00

1750, 2586.00
1751, 2585.00
1752, 2586.00
1753, 2587.00
1754, 2587.00
1755, 2587.00
1756, 2587.00
1757, 2587.00
1758, 2585.00
1759, 2587.00
1760, 2587.00
1761, 2585.00
1762, 2586.00
1763, 2586.00
1764, 2585.00
1765, 2586.00
1766, 2586.00
1767, 2585.00
1768, 2584.00
1769, 2585.00
1770, 2583.00
1771, 2585.00
1772, 2585.00
1773, 2583.00
1774, 2581.00
1775, 2584.00
1776, 2584.00
1777, 2580.00
1778, 2583.00
1779, 2580.00
1780, 2581.00
1781, 2579.00
1782, 2578.00
1783, 2579.00
1784, 2580.00
1785, 2580.00
1786, 2577.00
1787, 2576.00
1788, 2579.00
1789, 2576.00
1790, 2575.00
1791, 2575.00
1792, 2571.00
1793, 2573.00
1794, 2572.00
1795, 2573.00
1796, 2571.00
1797, 2571.00
1798, 2570.00
1799, 2570.00
1800, 2572.00
1801, 2570.00
1802, 2571.00
1803, 2568.00
1804, 2568.00
1805, 2568.00
1806, 2567.00
1807, 2565.00
1808, 2567.00
1809, 2564.00
1810, 2562.00
1811, 2564.00
1812, 2562.00
1813, 2562.00
1814, 2561.00
1815, 2560.00
1816, 2559.00
1817, 2559.00
1818, 2558.00
1819, 2557.00
1820, 2557.00
1821, 2556.00
1822, 2555.00
1823, 2552.00
1824, 2553.00
1825, 2551.00
1826, 2552.00
1827, 2549.00
1828, 2548.00
1829, 2547.00
1830, 2543.00
1831, 2543.00
1832, 2540.00
1833, 2539.00
1834, 2538.00
1835, 2536.00
1836, 2534.00
1837, 2532.00
1838, 2530.00
1839, 2528.00
1840, 2526.00
1841, 2525.00
1842, 2520.00
1843, 2517.00
1844, 2517.00
1845, 2513.00
1846, 2510.00
1847, 2508.00
1848, 2505.00
1849, 2502.00
1850, 2501.00
1851, 2499.00
1852, 2496.00
1853, 2493.00
1854, 2492.00
1855, 2488.00
1856, 2483.00
1857, 2485.00
1858, 2481.00
1859, 2477.00
1860, 2476.00
1861, 2475.00
1862, 2473.00
1863, 2471.00
1864, 2468.00
1865, 2467.00
1866, 2466.00
1867, 2463.00
1868, 2463.00
1869, 2459.00
1870, 2456.00
1871, 2456.00
1872, 2455.00
1873, 2453.00
1874, 2453.00
1875, 2451.00
1876, 2450.00
1877, 2450.00
1878, 2446.00
1879, 2445.00
1880, 2446.00
1881, 2442.00
1882, 2444.00
1883, 2442.00
1884, 2441.00
1885, 2442.00
1886, 2439.00
1887, 2439.00
1888, 2440.00
1889, 2439.00
1890, 2438.00
1891, 2436.00
1892, 2437.00
1893, 2436.00
1894, 2436.00
1895, 2435.00
1896, 2435.00
1897, 2435.00
1898, 2433.00
1899, 2435.00
1900, 2433.00
1901, 2433.00
1902, 2432.00
1903, 2432.00
1904, 2433.00
1905, 2431.00
1906, 2431.00
1907, 2431.00
1908, 2431.00
1909, 2429.00
1910, 2431.00
1911, 2429.00
1912, 2428.00
1913, 2431.00
1914, 2430.00
1915, 2428.00
1916, 2428.00
1917, 2429.00
1918, 2428.00
1919, 2430.00
1920, 2431.00
1921, 2427.00
1922, 2428.00
1923, 2429.00
1924, 2428.00
1925, 2429.00
1926, 2429.00
1927, 2428.00
1928, 2427.00
1929, 2426.00
1930, 2430.00
1931, 2427.00
1932, 2430.00
1933, 2427.00
1934, 2429.00
1935, 2430.00
1936, 2429.00
1937, 2430.00
1938, 2429.00
1939, 2430.00
1940, 2429.00
1941, 2429.00
1942, 2429.00
1943, 2428.00
1944, 2431.00
1945, 2429.00
1946, 2431.00
1947, 2431.00
1948, 2431.00
1949, 2431.00
1950, 2431.00
1951, 2432.00
1952, 2431.00
1953, 2431.00
1954, 2431.00
1955, 2432.00
1956, 2433.00
1957, 2433.00
1958, 2435.00
1959, 2435.00
1960, 2435.00
1961, 2434.00
1962, 2436.00
1963, 2436.00
1964, 2435.00
1965, 2437.00
1966, 2436.00
1967, 2437.00
1968, 2438.00
1969, 2439.00
1970, 2439.00
1971, 2440.00
1972, 2441.00
1973, 2443.00
1974, 2441.00
1975, 2442.00
1976, 2442.00
1977, 2443.00
1978, 2444.00
1979, 2444.00
1980, 2443.00
1981, 2445.00
1982, 2444.00
1983, 2447.00
1984, 2447.00
1985, 2449.00
1986, 2448.00
1987, 2449.00
1988, 2449.00
1989, 2450.00
1990, 2450.00
1991, 2449.00
1992, 2451.00
1993, 2452.00
1994, 2451.00
1995, 2451.00
1996, 2453.00
1997, 2455.00
1998, 2456.00
1999, 2454.00
2000, 2455.00
2001, 2456.00
2002, 2455.00
2003, 2456.00
2004, 2458.00
2005, 2459.00
2006, 2459.00
2007, 2460.00
2008, 2460.00
2009, 2461.00
2010, 2461.00
2011, 2462.00
2012, 2462.00
2013, 2463.00
2014, 2462.00
2015, 2463.00
2016, 2464.00
2017, 2464.00
2018, 2467.00
2019, 2466.00
2020, 2464.00
2021, 2466.00
2022, 2468.00
2023, 2467.00
2024, 2469.00
2025, 2469.00
2026, 2470.00
2027, 2472.00
2028, 2471.00
2029, 2473.00
2030, 2473.00
2031, 2472.00
2032, 2474.00
2033, 2474.00
2034, 2475.00
2035, 2475.00
2036, 2477.00
2037, 2477.00
2038, 2479.00
2039, 2479.00
2040, 2480.00
2041, 2478.00
2042, 2481.00
2043, 2480.00
2044, 2483.00
2045, 2483.00
2046, 2482.00
2047, 2485.00
2048, 2483.00
2049, 2487.00
2050, 2487.00
2051, 2487.00
2052, 2489.00
2053, 2489.00
2054, 2489.00
2055, 2492.00
2056, 2492.00
2057, 2492.00
2058, 2493.00
2059, 2496.00
2060, 2496.00
2061, 2497.00
2062, 2500.00
2063, 2497.00
2064, 2499.00
2065, 2501.00
2066, 2501.00
2067, 2501.00
2068, 2501.00
2069, 2505.00
2070, 2505.00
2071, 2506.00
2072, 2506.00
2073, 2506.00
2074, 2509.00
2075, 2509.00
2076, 2511.00
2077, 2511.00
2078, 2511.00
2079, 2512.00
2080, 2514.00
2081, 2515.00
2082, 2515.00
2083, 2515.00
2084, 2514.00
2085, 2518.00
2086, 2518.00
2087, 2517.00
2088, 2519.00
2089, 2521.00
2090, 2519.00
2091, 2521.00
2092, 2523.00
2093, 2523.00
2094, 2523.00
2095, 2522.00
2096, 2526.00
2097, 2523.00
2098, 2524.00
2099, 2526.00
2100, 2526.00
2101, 2526.00
2102, 2528.00
2103, 2528.00
2104, 2529.00
2105, 2528.00
2106, 2528.00
2107, 2530.00
2108, 2531.00
2109, 2530.00
2110, 2530.00
2111, 2531.00
2112, 2532.00
2113, 2533.00
2114, 2532.00
2115, 2533.00
2116, 2532.00
2117, 2535.00
2118, 2534.00
2119, 2535.00
2120, 2535.00
2121, 2534.00
2122, 2534.00
2123, 2537.00
2124, 2537.00
2125, 2537.00
2126, 2537.00
2127, 2539.00
2128, 2539.00
2129, 2539.00
2130, 2538.00
2131, 2539.00
2132, 2538.00
2133, 2539.00
2134, 2542.00
2135, 2539.00
2136, 2541.00
2137, 2540.00
2138, 2541.00
2139, 2541.00
2140, 2540.00
2141, 2543.00
2142, 2541.00
2143, 2541.00
2144, 2545.00
2145, 2543.00
2146, 2544.00
2147, 2545.00
2148, 2545.00
2149, 2544.00
2150, 2544.00
