FW version: 24
Log Version: 3.0.3

General Info:
       Command/Macro Performed,            Timestamp,             Device ID, COM Port, UART/I2C, Test Name, Host Major, Host Minor, Host Revision, Host Git Commit
            Single_measurement,  2023_07_04_10_57_32,       Insight2_F4_xxx,    USB-C,      USB,          ,          0,          1,             1,      4031237645

Show Spectrometer Status:
l0_version, f4_version, battery_perc, battery_mVolt, accelerometer_temp, accelerometer_x, accelerometer_y, accelerometer_z, compass_temp, compass_x, compass_y, compass_z, lamp_0, lamp_1, gain_0, gain_1
        17,         24,           12,          1833,               5472,           64932,            2084,           18948,            0,     65509,     65342,     19031,   2457,   2457,      1,      1

Temperature Statistic Info:
NTC AVG [°C], NTC2 AVG [°C]
      35.668,        35.243

Statistic Info:
M1:  num,      min,      max,   median,      AVG,      STD,M2:  num,      min,      max,   median,      AVG,      STD
     301,  1055.00,  1228.00,  1091.00,  1111.81,  53.2420,     401,  1513.00,  1615.00,  1557.00,  1559.53,  33.4847,

Measurements:
Wavelength, Data Amplitude
1350, 1084.00
1351, 1083.00
1352, 1085.00
1353, 1083.00
1354, 1082.00
1355, 1082.00
1356, 1082.00
1357, 1080.00
1358, 1079.00
1359, 1079.00
1360, 1080.00
1361, 1078.00
1362, 1078.00
1363, 1076.00
1364, 1076.00
1365, 1076.00
1366, 1075.00
1367, 1074.00
1368, 1073.00
1369, 1073.00
1370, 1072.00
1371, 1071.00
1372, 1070.00
1373, 1069.00
1374, 1069.00
1375, 1068.00
1376, 1068.00
1377, 1066.00
1378, 1065.00
1379, 1066.00
1380, 1065.00
1381, 1064.00
1382, 1063.00
1383, 1063.00
1384, 1064.00
1385, 1062.00
1386, 1061.00
1387, 1061.00
1388, 1061.00
1389, 1061.00
1390, 1061.00
1391, 1059.00
1392, 1059.00
1393, 1060.00
1394, 1059.00
1395, 1059.00
1396, 1059.00
1397, 1058.00
1398, 1058.00
1399, 1058.00
1400, 1058.00
1401, 1057.00
1402, 1058.00
1403, 1057.00
1404, 1057.00
1405, 1058.00
1406, 1057.00
1407, 1056.00
1408, 1056.00
1409, 1057.00
1410, 1056.00
1411, 1056.00
1412, 1056.00
1413, 1057.00
1414, 1057.00
1415, 1056.00
1416, 1057.00
1417, 1056.00
1418, 1055.00
1419, 1056.00
1420, 1057.00
1421, 1056.00
1422, 1056.00
1423, 1057.00
1424, 1055.00
1425, 1056.00
1426, 1057.00
1427, 1057.00
1428, 1056.00
1429, 1056.00
1430, 1057.00
1431, 1057.00
1432, 1058.00
1433, 1058.00
1434, 1057.00
1435, 1059.00
1436, 1058.00
1437, 1058.00
1438, 1058.00
1439, 1058.00
1440, 1059.00
1441, 1059.00
1442, 1060.00
1443, 1060.00
1444, 1060.00
1445, 1060.00
1446, 1061.00
1447, 1061.00
1448, 1061.00
1449, 1062.00
1450, 1061.00
1451, 1063.00
1452, 1063.00
1453, 1062.00
1454, 1064.00
1455, 1064.00
1456, 1064.00
1457, 1064.00
1458, 1066.00
1459, 1065.00
1460, 1066.00
1461, 1066.00
1462, 1067.00
1463, 1068.00
1464, 1068.00
1465, 1067.00
1466, 1068.00
1467, 1069.00
1468, 1069.00
1469, 1070.00
1470, 1071.00
1471, 1071.00
1472, 1071.00
1473, 1073.00
1474, 1073.00
1475, 1074.00
1476, 1074.00
1477, 1076.00
1478, 1076.00
1479, 1076.00
1480, 1077.00
1481, 1077.00
1482, 1078.00
1483, 1079.00
1484, 1079.00
1485, 1080.00
1486, 1081.00
1487, 1081.00
1488, 1082.00
1489, 1083.00
1490, 1084.00
1491, 1085.00
1492, 1086.00
1493, 1086.00
1494, 1087.00
1495, 1087.00
1496, 1089.00
1497, 1089.00
1498, 1089.00
1499, 1091.00
1500, 1091.00
1501, 1092.00
1502, 1093.00
1503, 1093.00
1504, 1094.00
1505, 1094.00
1506, 1096.00
1507, 1097.00
1508, 1097.00
1509, 1098.00
1510, 1098.00
1511, 1100.00
1512, 1101.00
1513, 1101.00
1514, 1102.00
1515, 1103.00
1516, 1104.00
1517, 1104.00
1518, 1105.00
1519, 1106.00
1520, 1107.00
1521, 1108.00
1522, 1109.00
1523, 1109.00
1524, 1110.00
1525, 1110.00
1526, 1111.00
1527, 1113.00
1528, 1114.00
1529, 1114.00
1530, 1115.00
1531, 1117.00
1532, 1116.00
1533, 1118.00
1534, 1120.00
1535, 1120.00
1536, 1121.00
1537, 1121.00
1538, 1123.00
1539, 1123.00
1540, 1125.00
1541, 1125.00
1542, 1125.00
1543, 1127.00
1544, 1127.00
1545, 1128.00
1546, 1129.00
1547, 1130.00
1548, 1131.00
1549, 1131.00
1550, 1132.00
1551, 1132.00
1552, 1134.00
1553, 1135.00
1554, 1136.00
1555, 1137.00
1556, 1138.00
1557, 1138.00
1558, 1139.00
1559, 1141.00
1560, 1140.00
1561, 1142.00
1562, 1143.00
1563, 1143.00
1564, 1145.00
1565, 1147.00
1566, 1147.00
1567, 1148.00
1568, 1149.00
1569, 1149.00
1570, 1151.00
1571, 1152.00
1572, 1152.00
1573, 1154.00
1574, 1155.00
1575, 1155.00
1576, 1156.00
1577, 1157.00
1578, 1157.00
1579, 1158.00
1580, 1160.00
1581, 1161.00
1582, 1161.00
1583, 1162.00
1584, 1163.00
1585, 1164.00
1586, 1165.00
1587, 1165.00
1588, 1166.00
1589, 1168.00
1590, 1168.00
1591, 1169.00
1592, 1170.00
1593, 1170.00
1594, 1171.00
1595, 1172.00
1596, 1173.00
1597, 1173.00
1598, 1175.00
1599, 1176.00
1600, 1177.00
1601, 1178.00
1602, 1179.00
1603, 1179.00
1604, 1180.00
1605, 1181.00
1606, 1182.00
1607, 1184.00
1608, 1184.00
1609, 1186.00
1610, 1187.00
1611, 1188.00
1612, 1188.00
1613, 1190.00
1614, 1190.00
1615, 1191.00
1616, 1193.00
1617, 1196.00
1618, 1195.00
1619, 1196.00
1620, 1197.00
1621, 1198.00
1622, 1201.00
1623, 1201.00
1624, 1202.00
1625, 1203.00
1626, 1203.00
1627, 1206.00
1628, 1206.00
1629, 1207.00
1630, 1208.00
1631, 1210.00
1632, 1210.00
1633, 1211.00
1634, 1212.00
1635, 1213.00
1636, 1215.00
1637, 1216.00
1638, 1216.00
1639, 1217.00
1640, 1218.00
1641, 1219.00
1642, 1220.00
1643, 1220.00
1644, 1221.00
1645, 1222.00
1646, 1224.00
1647, 1224.00
1648, 1225.00
1649, 1226.00
1650, 1228.00

1750, 1614.00
1751, 1614.00
1752, 1615.00
1753, 1613.00
1754, 1613.00
1755, 1614.00
1756, 1615.00
1757, 1614.00
1758, 1614.00
1759, 1615.00
1760, 1615.00
1761, 1615.00
1762, 1614.00
1763, 1614.00
1764, 1615.00
1765, 1614.00
1766, 1613.00
1767, 1613.00
1768, 1614.00
1769, 1614.00
1770, 1613.00
1771, 1613.00
1772, 1613.00
1773, 1613.00
1774, 1613.00
1775, 1615.00
1776, 1613.00
1777, 1611.00
1778, 1612.00
1779, 1609.00
1780, 1611.00
1781, 1611.00
1782, 1609.00
1783, 1608.00
1784, 1609.00
1785, 1611.00
1786, 1609.00
1787, 1609.00
1788, 1607.00
1789, 1609.00
1790, 1608.00
1791, 1607.00
1792, 1607.00
1793, 1607.00
1794, 1609.00
1795, 1605.00
1796, 1606.00
1797, 1606.00
1798, 1605.00
1799, 1605.00
1800, 1604.00
1801, 1605.00
1802, 1605.00
1803, 1604.00
1804, 1602.00
1805, 1604.00
1806, 1602.00
1807, 1603.00
1808, 1603.00
1809, 1601.00
1810, 1600.00
1811, 1601.00
1812, 1600.00
1813, 1599.00
1814, 1602.00
1815, 1598.00
1816, 1599.00
1817, 1598.00
1818, 1598.00
1819, 1597.00
1820, 1598.00
1821, 1597.00
1822, 1596.00
1823, 1596.00
1824, 1594.00
1825, 1594.00
1826, 1591.00
1827, 1593.00
1828, 1591.00
1829, 1590.00
1830, 1591.00
1831, 1588.00
1832, 1588.00
1833, 1586.00
1834, 1585.00
1835, 1584.00
1836, 1582.00
1837, 1581.00
1838, 1581.00
1839, 1579.00
1840, 1578.00
1841, 1575.00
1842, 1574.00
1843, 1573.00
1844, 1571.00
1845, 1571.00
1846, 1570.00
1847, 1565.00
1848, 1565.00
1849, 1562.00
1850, 1561.00
1851, 1561.00
1852, 1559.00
1853, 1558.00
1854, 1558.00
1855, 1554.00
1856, 1553.00
1857, 1551.00
1858, 1549.00
1859, 1549.00
1860, 1548.00
1861, 1544.00
1862, 1544.00
1863, 1543.00
1864, 1540.00
1865, 1540.00
1866, 1538.00
1867, 1538.00
1868, 1536.00
1869, 1535.00
1870, 1535.00
1871, 1534.00
1872, 1533.00
1873, 1531.00
1874, 1531.00
1875, 1529.00
1876, 1529.00
1877, 1528.00
1878, 1528.00
1879, 1526.00
1880, 1527.00
1881, 1525.00
1882, 1524.00
1883, 1524.00
1884, 1524.00
1885, 1525.00
1886, 1523.00
1887, 1523.00
1888, 1522.00
1889, 1522.00
1890, 1521.00
1891, 1522.00
1892, 1518.00
1893, 1520.00
1894, 1520.00
1895, 1521.00
1896, 1521.00
1897, 1519.00
1898, 1519.00
1899, 1520.00
1900, 1518.00
1901, 1517.00
1902, 1518.00
1903, 1518.00
1904, 1518.00
1905, 1518.00
1906, 1517.00
1907, 1519.00
1908, 1517.00
1909, 1517.00
1910, 1516.00
1911, 1518.00
1912, 1515.00
1913, 1517.00
1914, 1517.00
1915, 1517.00
1916, 1516.00
1917, 1515.00
1918, 1515.00
1919, 1517.00
1920, 1516.00
1921, 1517.00
1922, 1517.00
1923, 1515.00
1924, 1515.00
1925, 1515.00
1926, 1513.00
1927, 1516.00
1928, 1515.00
1929, 1517.00
1930, 1516.00
1931, 1515.00
1932, 1516.00
1933, 1516.00
1934, 1516.00
1935, 1515.00
1936, 1516.00
1937, 1515.00
1938, 1516.00
1939, 1518.00
1940, 1515.00
1941, 1517.00
1942, 1516.00
1943, 1517.00
1944, 1516.00
1945, 1517.00
1946, 1518.00
1947, 1517.00
1948, 1518.00
1949, 1517.00
1950, 1517.00
1951, 1517.00
1952, 1518.00
1953, 1518.00
1954, 1518.00
1955, 1518.00
1956, 1518.00
1957, 1521.00
1958, 1520.00
1959, 1522.00
1960, 1519.00
1961, 1521.00
1962, 1521.00
1963, 1520.00
1964, 1522.00
1965, 1522.00
1966, 1522.00
1967, 1523.00
1968, 1522.00
1969, 1522.00
1970, 1523.00
1971, 1523.00
1972, 1525.00
1973, 1523.00
1974, 1523.00
1975, 1525.00
1976, 1525.00
1977, 1525.00
1978, 1526.00
1979, 1526.00
1980, 1527.00
1981, 1527.00
1982, 1527.00
1983, 1527.00
1984, 1527.00
1985, 1528.00
1986, 1528.00
1987, 1528.00
1988, 1529.00
1989, 1528.00
1990, 1531.00
1991, 1530.00
1992, 1531.00
1993, 1531.00
1994, 1532.00
1995, 1531.00
1996, 1533.00
1997, 1533.00
1998, 1531.00
1999, 1532.00
2000, 1534.00
2001, 1534.00
2002, 1533.00
2003, 1535.00
2004, 1535.00
2005, 1536.00
2006, 1535.00
2007, 1536.00
2008, 1536.00
2009, 1538.00
2010, 1538.00
2011, 1538.00
2012, 1538.00
2013, 1536.00
2014, 1539.00
2015, 1539.00
2016, 1538.00
2017, 1539.00
2018, 1540.00
2019, 1541.00
2020, 1541.00
2021, 1539.00
2022, 1541.00
2023, 1543.00
2024, 1543.00
2025, 1544.00
2026, 1543.00
2027, 1543.00
2028, 1543.00
2029, 1545.00
2030, 1544.00
2031, 1543.00
2032, 1547.00
2033, 1546.00
2034, 1547.00
2035, 1547.00
2036, 1547.00
2037, 1547.00
2038, 1549.00
2039, 1548.00
2040, 1548.00
2041, 1550.00
2042, 1549.00
2043, 1550.00
2044, 1551.00
2045, 1553.00
2046, 1551.00
2047, 1553.00
2048, 1553.00
2049, 1554.00
2050, 1554.00
2051, 1554.00
2052, 1555.00
2053, 1557.00
2054, 1557.00
2055, 1557.00
2056, 1557.00
2057, 1559.00
2058, 1559.00
2059, 1560.00
2060, 1562.00
2061, 1562.00
2062, 1560.00
2063, 1561.00
2064, 1563.00
2065, 1563.00
2066, 1564.00
2067, 1564.00
2068, 1565.00
2069, 1565.00
2070, 1567.00
2071, 1569.00
2072, 1568.00
2073, 1568.00
2074, 1568.00
2075, 1570.00
2076, 1568.00
2077, 1569.00
2078, 1571.00
2079, 1572.00
2080, 1572.00
2081, 1573.00
2082, 1573.00
2083, 1575.00
2084, 1574.00
2085, 1575.00
2086, 1576.00
2087, 1574.00
2088, 1576.00
2089, 1576.00
2090, 1576.00
2091, 1578.00
2092, 1577.00
2093, 1578.00
2094, 1579.00
2095, 1577.00
2096, 1580.00
2097, 1580.00
2098, 1582.00
2099, 1580.00
2100, 1581.00
2101, 1581.00
2102, 1580.00
2103, 1581.00
2104, 1581.00
2105, 1583.00
2106, 1583.00
2107, 1585.00
2108, 1584.00
2109, 1585.00
2110, 1582.00
2111, 1586.00
2112, 1585.00
2113, 1585.00
2114, 1585.00
2115, 1586.00
2116, 1585.00
2117, 1587.00
2118, 1586.00
2119, 1588.00
2120, 1586.00
2121, 1588.00
2122, 1586.00
2123, 1587.00
2124, 1588.00
2125, 1588.00
2126, 1589.00
2127, 1589.00
2128, 1590.00
2129, 1588.00
2130, 1588.00
2131, 1588.00
2132, 1590.00
2133, 1590.00
2134, 1590.00
2135, 1591.00
2136, 1591.00
2137, 1590.00
2138, 1590.00
2139, 1591.00
2140, 1592.00
2141, 1591.00
2142, 1591.00
2143, 1592.00
2144, 1592.00
2145, 1594.00
2146, 1593.00
2147, 1593.00
2148, 1592.00
2149, 1593.00
2150, 1591.00
