FW version: 24
Log Version: 3.0.3

General Info:
       Command/Macro Performed,            Timestamp,             Device ID, COM Port, UART/I2C, Test Name, Host Major, Host Minor, Host Revision, Host Git Commit
            Single_measurement,  2023_06_30_10_54_46,       Insight2_F4_xxx,    USB-C,      USB,          ,          0,          1,             1,      4031237645

Show Spectrometer Status:
l0_version, f4_version, battery_perc, battery_mVolt, accelerometer_temp, accelerometer_x, accelerometer_y, accelerometer_z, compass_temp, compass_x, compass_y, compass_z, lamp_0, lamp_1, gain_0, gain_1
        17,         24,           93,          2064,               5936,           65368,             264,           18492,            0,     65375,     65374,     65535,   3276,   3276,      0,      0

Temperature Statistic Info:
NTC AVG [°C], NTC2 AVG [°C]
      37.411,        37.092

Statistic Info:
M1:  num,      min,      max,   median,      AVG,      STD,M2:  num,      min,      max,   median,      AVG,      STD
     301,   613.00,   696.00,   630.00,   640.38,  25.5439,     401,   808.00,   859.00,   829.00,   830.70,  16.4726,

Measurements:
Wavelength, Data Amplitude
1350, 628.00
1351, 629.00
1352, 628.00
1353, 628.00
1354, 627.00
1355, 628.00
1356, 627.00
1357, 627.00
1358, 627.00
1359, 626.00
1360, 626.00
1361, 625.00
1362, 625.00
1363, 625.00
1364, 625.00
1365, 624.00
1366, 624.00
1367, 624.00
1368, 623.00
1369, 622.00
1370, 622.00
1371, 622.00
1372, 621.00
1373, 621.00
1374, 620.00
1375, 620.00
1376, 620.00
1377, 619.00
1378, 619.00
1379, 619.00
1380, 619.00
1381, 618.00
1382, 618.00
1383, 618.00
1384, 617.00
1385, 617.00
1386, 617.00
1387, 617.00
1388, 617.00
1389, 616.00
1390, 616.00
1391, 616.00
1392, 616.00
1393, 616.00
1394, 615.00
1395, 615.00
1396, 615.00
1397, 615.00
1398, 615.00
1399, 614.00
1400, 615.00
1401, 615.00
1402, 614.00
1403, 614.00
1404, 614.00
1405, 614.00
1406, 615.00
1407, 614.00
1408, 614.00
1409, 614.00
1410, 614.00
1411, 614.00
1412, 614.00
1413, 613.00
1414, 614.00
1415, 614.00
1416, 614.00
1417, 614.00
1418, 614.00
1419, 613.00
1420, 614.00
1421, 614.00
1422, 614.00
1423, 613.00
1424, 613.00
1425, 613.00
1426, 613.00
1427, 614.00
1428, 614.00
1429, 614.00
1430, 613.00
1431, 614.00
1432, 614.00
1433, 614.00
1434, 614.00
1435, 615.00
1436, 614.00
1437, 614.00
1438, 614.00
1439, 615.00
1440, 615.00
1441, 615.00
1442, 615.00
1443, 615.00
1444, 615.00
1445, 615.00
1446, 616.00
1447, 616.00
1448, 616.00
1449, 616.00
1450, 617.00
1451, 616.00
1452, 616.00
1453, 617.00
1454, 617.00
1455, 617.00
1456, 617.00
1457, 617.00
1458, 618.00
1459, 618.00
1460, 618.00
1461, 619.00
1462, 618.00
1463, 618.00
1464, 619.00
1465, 619.00
1466, 620.00
1467, 620.00
1468, 619.00
1469, 620.00
1470, 620.00
1471, 621.00
1472, 621.00
1473, 621.00
1474, 621.00
1475, 622.00
1476, 622.00
1477, 623.00
1478, 623.00
1479, 623.00
1480, 623.00
1481, 624.00
1482, 624.00
1483, 624.00
1484, 625.00
1485, 625.00
1486, 625.00
1487, 626.00
1488, 626.00
1489, 626.00
1490, 627.00
1491, 627.00
1492, 627.00
1493, 627.00
1494, 628.00
1495, 628.00
1496, 629.00
1497, 629.00
1498, 629.00
1499, 630.00
1500, 630.00
1501, 630.00
1502, 631.00
1503, 631.00
1504, 631.00
1505, 631.00
1506, 632.00
1507, 632.00
1508, 633.00
1509, 633.00
1510, 633.00
1511, 633.00
1512, 634.00
1513, 635.00
1514, 635.00
1515, 635.00
1516, 636.00
1517, 636.00
1518, 637.00
1519, 637.00
1520, 637.00
1521, 638.00
1522, 638.00
1523, 639.00
1524, 639.00
1525, 639.00
1526, 640.00
1527, 640.00
1528, 641.00
1529, 641.00
1530, 641.00
1531, 642.00
1532, 642.00
1533, 643.00
1534, 643.00
1535, 644.00
1536, 644.00
1537, 644.00
1538, 645.00
1539, 645.00
1540, 646.00
1541, 646.00
1542, 647.00
1543, 647.00
1544, 647.00
1545, 648.00
1546, 648.00
1547, 649.00
1548, 649.00
1549, 649.00
1550, 650.00
1551, 650.00
1552, 651.00
1553, 651.00
1554, 652.00
1555, 652.00
1556, 652.00
1557, 653.00
1558, 653.00
1559, 654.00
1560, 655.00
1561, 655.00
1562, 656.00
1563, 656.00
1564, 656.00
1565, 657.00
1566, 657.00
1567, 658.00
1568, 658.00
1569, 659.00
1570, 659.00
1571, 659.00
1572, 660.00
1573, 660.00
1574, 661.00
1575, 661.00
1576, 662.00
1577, 662.00
1578, 663.00
1579, 663.00
1580, 664.00
1581, 664.00
1582, 664.00
1583, 665.00
1584, 665.00
1585, 665.00
1586, 666.00
1587, 666.00
1588, 666.00
1589, 667.00
1590, 668.00
1591, 667.00
1592, 668.00
1593, 669.00
1594, 669.00
1595, 669.00
1596, 670.00
1597, 670.00
1598, 670.00
1599, 671.00
1600, 672.00
1601, 672.00
1602, 673.00
1603, 673.00
1604, 673.00
1605, 674.00
1606, 674.00
1607, 675.00
1608, 675.00
1609, 676.00
1610, 676.00
1611, 677.00
1612, 677.00
1613, 678.00
1614, 678.00
1615, 679.00
1616, 679.00
1617, 680.00
1618, 681.00
1619, 681.00
1620, 682.00
1621, 682.00
1622, 683.00
1623, 683.00
1624, 684.00
1625, 684.00
1626, 685.00
1627, 685.00
1628, 686.00
1629, 686.00
1630, 687.00
1631, 687.00
1632, 688.00
1633, 688.00
1634, 689.00
1635, 689.00
1636, 690.00
1637, 690.00
1638, 691.00
1639, 691.00
1640, 692.00
1641, 692.00
1642, 692.00
1643, 693.00
1644, 693.00
1645, 694.00
1646, 694.00
1647, 694.00
1648, 694.00
1649, 696.00
1650, 696.00

1750, 858.00
1751, 858.00
1752, 858.00
1753, 859.00
1754, 859.00
1755, 858.00
1756, 859.00
1757, 858.00
1758, 859.00
1759, 858.00
1760, 859.00
1761, 858.00
1762, 859.00
1763, 859.00
1764, 858.00
1765, 859.00
1766, 859.00
1767, 859.00
1768, 858.00
1769, 857.00
1770, 858.00
1771, 858.00
1772, 858.00
1773, 857.00
1774, 857.00
1775, 857.00
1776, 857.00
1777, 857.00
1778, 856.00
1779, 856.00
1780, 856.00
1781, 856.00
1782, 856.00
1783, 856.00
1784, 855.00
1785, 855.00
1786, 855.00
1787, 856.00
1788, 856.00
1789, 855.00
1790, 855.00
1791, 855.00
1792, 855.00
1793, 854.00
1794, 854.00
1795, 855.00
1796, 854.00
1797, 854.00
1798, 853.00
1799, 853.00
1800, 854.00
1801, 853.00
1802, 853.00
1803, 853.00
1804, 853.00
1805, 853.00
1806, 852.00
1807, 852.00
1808, 852.00
1809, 851.00
1810, 852.00
1811, 852.00
1812, 851.00
1813, 851.00
1814, 850.00
1815, 851.00
1816, 850.00
1817, 850.00
1818, 850.00
1819, 849.00
1820, 849.00
1821, 849.00
1822, 848.00
1823, 848.00
1824, 848.00
1825, 847.00
1826, 847.00
1827, 847.00
1828, 847.00
1829, 846.00
1830, 846.00
1831, 845.00
1832, 844.00
1833, 844.00
1834, 843.00
1835, 842.00
1836, 842.00
1837, 842.00
1838, 841.00
1839, 840.00
1840, 840.00
1841, 839.00
1842, 838.00
1843, 837.00
1844, 837.00
1845, 836.00
1846, 835.00
1847, 835.00
1848, 834.00
1849, 833.00
1850, 833.00
1851, 831.00
1852, 830.00
1853, 829.00
1854, 829.00
1855, 828.00
1856, 828.00
1857, 827.00
1858, 826.00
1859, 825.00
1860, 824.00
1861, 824.00
1862, 823.00
1863, 823.00
1864, 822.00
1865, 821.00
1866, 820.00
1867, 820.00
1868, 819.00
1869, 819.00
1870, 818.00
1871, 818.00
1872, 818.00
1873, 817.00
1874, 817.00
1875, 816.00
1876, 816.00
1877, 815.00
1878, 816.00
1879, 815.00
1880, 814.00
1881, 815.00
1882, 814.00
1883, 814.00
1884, 814.00
1885, 814.00
1886, 813.00
1887, 813.00
1888, 813.00
1889, 812.00
1890, 812.00
1891, 811.00
1892, 812.00
1893, 812.00
1894, 812.00
1895, 812.00
1896, 811.00
1897, 811.00
1898, 811.00
1899, 811.00
1900, 811.00
1901, 810.00
1902, 811.00
1903, 810.00
1904, 810.00
1905, 811.00
1906, 810.00
1907, 810.00
1908, 810.00
1909, 810.00
1910, 810.00
1911, 810.00
1912, 811.00
1913, 810.00
1914, 810.00
1915, 809.00
1916, 809.00
1917, 809.00
1918, 809.00
1919, 809.00
1920, 809.00
1921, 808.00
1922, 809.00
1923, 809.00
1924, 808.00
1925, 809.00
1926, 809.00
1927, 809.00
1928, 809.00
1929, 809.00
1930, 809.00
1931, 809.00
1932, 809.00
1933, 809.00
1934, 809.00
1935, 809.00
1936, 809.00
1937, 810.00
1938, 809.00
1939, 809.00
1940, 810.00
1941, 810.00
1942, 810.00
1943, 810.00
1944, 810.00
1945, 810.00
1946, 810.00
1947, 810.00
1948, 810.00
1949, 810.00
1950, 809.00
1951, 810.00
1952, 810.00
1953, 811.00
1954, 810.00
1955, 812.00
1956, 810.00
1957, 812.00
1958, 811.00
1959, 811.00
1960, 811.00
1961, 812.00
1962, 812.00
1963, 812.00
1964, 812.00
1965, 812.00
1966, 812.00
1967, 813.00
1968, 812.00
1969, 813.00
1970, 813.00
1971, 813.00
1972, 813.00
1973, 814.00
1974, 813.00
1975, 814.00
1976, 813.00
1977, 815.00
1978, 815.00
1979, 814.00
1980, 814.00
1981, 815.00
1982, 815.00
1983, 814.00
1984, 815.00
1985, 815.00
1986, 815.00
1987, 816.00
1988, 816.00
1989, 816.00
1990, 816.00
1991, 817.00
1992, 816.00
1993, 817.00
1994, 817.00
1995, 818.00
1996, 818.00
1997, 818.00
1998, 818.00
1999, 817.00
2000, 818.00
2001, 818.00
2002, 818.00
2003, 819.00
2004, 819.00
2005, 818.00
2006, 819.00
2007, 819.00
2008, 819.00
2009, 820.00
2010, 820.00
2011, 820.00
2012, 820.00
2013, 819.00
2014, 820.00
2015, 821.00
2016, 820.00
2017, 821.00
2018, 821.00
2019, 822.00
2020, 821.00
2021, 821.00
2022, 822.00
2023, 822.00
2024, 822.00
2025, 822.00
2026, 822.00
2027, 823.00
2028, 823.00
2029, 823.00
2030, 823.00
2031, 824.00
2032, 824.00
2033, 824.00
2034, 824.00
2035, 824.00
2036, 824.00
2037, 825.00
2038, 825.00
2039, 826.00
2040, 826.00
2041, 826.00
2042, 826.00
2043, 826.00
2044, 826.00
2045, 827.00
2046, 827.00
2047, 827.00
2048, 828.00
2049, 828.00
2050, 828.00
2051, 828.00
2052, 828.00
2053, 829.00
2054, 829.00
2055, 829.00
2056, 829.00
2057, 830.00
2058, 831.00
2059, 831.00
2060, 831.00
2061, 831.00
2062, 831.00
2063, 833.00
2064, 832.00
2065, 833.00
2066, 833.00
2067, 833.00
2068, 833.00
2069, 833.00
2070, 834.00
2071, 833.00
2072, 835.00
2073, 834.00
2074, 834.00
2075, 835.00
2076, 835.00
2077, 836.00
2078, 836.00
2079, 836.00
2080, 836.00
2081, 837.00
2082, 837.00
2083, 837.00
2084, 837.00
2085, 837.00
2086, 838.00
2087, 837.00
2088, 839.00
2089, 838.00
2090, 839.00
2091, 839.00
2092, 839.00
2093, 839.00
2094, 840.00
2095, 840.00
2096, 840.00
2097, 839.00
2098, 840.00
2099, 841.00
2100, 840.00
2101, 841.00
2102, 841.00
2103, 841.00
2104, 841.00
2105, 841.00
2106, 841.00
2107, 842.00
2108, 842.00
2109, 842.00
2110, 842.00
2111, 841.00
2112, 843.00
2113, 843.00
2114, 843.00
2115, 842.00
2116, 842.00
2117, 843.00
2118, 843.00
2119, 843.00
2120, 843.00
2121, 843.00
2122, 844.00
2123, 844.00
2124, 844.00
2125, 844.00
2126, 844.00
2127, 844.00
2128, 844.00
2129, 844.00
2130, 845.00
2131, 844.00
2132, 844.00
2133, 844.00
2134, 845.00
2135, 845.00
2136, 846.00
2137, 845.00
2138, 846.00
2139, 846.00
2140, 846.00
2141, 846.00
2142, 846.00
2143, 846.00
2144, 846.00
2145, 846.00
2146, 846.00
2147, 847.00
2148, 847.00
2149, 847.00
2150, 846.00
