FW version: 24
Log Version: 3.0.3

General Info:
       Command/Macro Performed,            Timestamp,             Device ID, COM Port, UART/I2C, Test Name, Host Major, Host Minor, Host Revision, Host Git Commit
            Single_measurement,  2023_06_30_10_55_44,       Insight2_F4_xxx,    USB-C,      USB,          ,          0,          1,             1,      4031237645

Show Spectrometer Status:
l0_version, f4_version, battery_perc, battery_mVolt, accelerometer_temp, accelerometer_x, accelerometer_y, accelerometer_z, compass_temp, compass_x, compass_y, compass_z, lamp_0, lamp_1, gain_0, gain_1
        17,         24,           93,          2070,               5952,           65324,             308,           18540,            0,     65390,     65396,     65533,   2866,   2866,      1,      1

Temperature Statistic Info:
NTC AVG [°C], NTC2 AVG [°C]
      37.925,        37.583

Statistic Info:
M1:  num,      min,      max,   median,      AVG,      STD,M2:  num,      min,      max,   median,      AVG,      STD
     301,  1382.00,  1575.00,  1421.00,  1445.16,  59.8994,     401,  1885.00,  2002.00,  1934.00,  1936.64,  38.3702,

Measurements:
Wavelength, Data Amplitude
1350, 1415.00
1351, 1415.00
1352, 1413.00
1353, 1413.00
1354, 1413.00
1355, 1413.00
1356, 1413.00
1357, 1412.00
1358, 1411.00
1359, 1409.00
1360, 1409.00
1361, 1407.00
1362, 1408.00
1363, 1406.00
1364, 1406.00
1365, 1405.00
1366, 1404.00
1367, 1404.00
1368, 1402.00
1369, 1401.00
1370, 1400.00
1371, 1400.00
1372, 1400.00
1373, 1397.00
1374, 1397.00
1375, 1397.00
1376, 1395.00
1377, 1394.00
1378, 1394.00
1379, 1393.00
1380, 1394.00
1381, 1392.00
1382, 1392.00
1383, 1392.00
1384, 1390.00
1385, 1389.00
1386, 1389.00
1387, 1389.00
1388, 1388.00
1389, 1387.00
1390, 1387.00
1391, 1387.00
1392, 1386.00
1393, 1386.00
1394, 1385.00
1395, 1385.00
1396, 1385.00
1397, 1385.00
1398, 1385.00
1399, 1384.00
1400, 1384.00
1401, 1385.00
1402, 1385.00
1403, 1383.00
1404, 1383.00
1405, 1384.00
1406, 1383.00
1407, 1383.00
1408, 1383.00
1409, 1383.00
1410, 1383.00
1411, 1382.00
1412, 1384.00
1413, 1382.00
1414, 1383.00
1415, 1383.00
1416, 1383.00
1417, 1383.00
1418, 1383.00
1419, 1383.00
1420, 1383.00
1421, 1382.00
1422, 1383.00
1423, 1383.00
1424, 1383.00
1425, 1382.00
1426, 1383.00
1427, 1382.00
1428, 1382.00
1429, 1384.00
1430, 1383.00
1431, 1383.00
1432, 1384.00
1433, 1384.00
1434, 1384.00
1435, 1383.00
1436, 1385.00
1437, 1385.00
1438, 1385.00
1439, 1386.00
1440, 1385.00
1441, 1386.00
1442, 1386.00
1443, 1387.00
1444, 1387.00
1445, 1388.00
1446, 1387.00
1447, 1388.00
1448, 1389.00
1449, 1389.00
1450, 1389.00
1451, 1390.00
1452, 1389.00
1453, 1390.00
1454, 1390.00
1455, 1391.00
1456, 1391.00
1457, 1392.00
1458, 1393.00
1459, 1392.00
1460, 1393.00
1461, 1394.00
1462, 1395.00
1463, 1396.00
1464, 1396.00
1465, 1396.00
1466, 1397.00
1467, 1397.00
1468, 1398.00
1469, 1399.00
1470, 1400.00
1471, 1399.00
1472, 1401.00
1473, 1400.00
1474, 1401.00
1475, 1403.00
1476, 1403.00
1477, 1403.00
1478, 1405.00
1479, 1405.00
1480, 1407.00
1481, 1407.00
1482, 1407.00
1483, 1409.00
1484, 1408.00
1485, 1409.00
1486, 1410.00
1487, 1411.00
1488, 1412.00
1489, 1413.00
1490, 1414.00
1491, 1415.00
1492, 1415.00
1493, 1415.00
1494, 1417.00
1495, 1417.00
1496, 1418.00
1497, 1419.00
1498, 1420.00
1499, 1420.00
1500, 1422.00
1501, 1421.00
1502, 1422.00
1503, 1423.00
1504, 1425.00
1505, 1425.00
1506, 1426.00
1507, 1428.00
1508, 1428.00
1509, 1429.00
1510, 1430.00
1511, 1430.00
1512, 1431.00
1513, 1432.00
1514, 1433.00
1515, 1434.00
1516, 1435.00
1517, 1437.00
1518, 1437.00
1519, 1437.00
1520, 1439.00
1521, 1440.00
1522, 1440.00
1523, 1442.00
1524, 1443.00
1525, 1444.00
1526, 1445.00
1527, 1446.00
1528, 1447.00
1529, 1448.00
1530, 1449.00
1531, 1449.00
1532, 1450.00
1533, 1451.00
1534, 1452.00
1535, 1454.00
1536, 1454.00
1537, 1455.00
1538, 1457.00
1539, 1458.00
1540, 1458.00
1541, 1459.00
1542, 1461.00
1543, 1462.00
1544, 1462.00
1545, 1462.00
1546, 1463.00
1547, 1466.00
1548, 1466.00
1549, 1467.00
1550, 1468.00
1551, 1469.00
1552, 1470.00
1553, 1470.00
1554, 1471.00
1555, 1473.00
1556, 1474.00
1557, 1475.00
1558, 1476.00
1559, 1477.00
1560, 1478.00
1561, 1479.00
1562, 1481.00
1563, 1481.00
1564, 1482.00
1565, 1484.00
1566, 1484.00
1567, 1485.00
1568, 1486.00
1569, 1488.00
1570, 1489.00
1571, 1489.00
1572, 1491.00
1573, 1492.00
1574, 1494.00
1575, 1494.00
1576, 1495.00
1577, 1496.00
1578, 1498.00
1579, 1499.00
1580, 1499.00
1581, 1501.00
1582, 1501.00
1583, 1502.00
1584, 1505.00
1585, 1503.00
1586, 1505.00
1587, 1506.00
1588, 1508.00
1589, 1508.00
1590, 1508.00
1591, 1510.00
1592, 1511.00
1593, 1512.00
1594, 1514.00
1595, 1513.00
1596, 1514.00
1597, 1515.00
1598, 1516.00
1599, 1516.00
1600, 1518.00
1601, 1519.00
1602, 1521.00
1603, 1521.00
1604, 1522.00
1605, 1523.00
1606, 1525.00
1607, 1525.00
1608, 1527.00
1609, 1528.00
1610, 1529.00
1611, 1530.00
1612, 1532.00
1613, 1534.00
1614, 1534.00
1615, 1535.00
1616, 1537.00
1617, 1538.00
1618, 1539.00
1619, 1541.00
1620, 1542.00
1621, 1543.00
1622, 1544.00
1623, 1546.00
1624, 1546.00
1625, 1548.00
1626, 1550.00
1627, 1549.00
1628, 1551.00
1629, 1552.00
1630, 1554.00
1631, 1555.00
1632, 1556.00
1633, 1557.00
1634, 1558.00
1635, 1559.00
1636, 1560.00
1637, 1562.00
1638, 1563.00
1639, 1563.00
1640, 1565.00
1641, 1566.00
1642, 1567.00
1643, 1567.00
1644, 1568.00
1645, 1570.00
1646, 1571.00
1647, 1573.00
1648, 1573.00
1649, 1573.00
1650, 1575.00

1750, 1999.00
1751, 2001.00
1752, 2002.00
1753, 2000.00
1754, 2001.00
1755, 2002.00
1756, 2000.00
1757, 1999.00
1758, 2002.00
1759, 1999.00
1760, 2000.00
1761, 2000.00
1762, 2000.00
1763, 2000.00
1764, 1999.00
1765, 2000.00
1766, 2000.00
1767, 2000.00
1768, 1999.00
1769, 1999.00
1770, 1999.00
1771, 2000.00
1772, 1997.00
1773, 1999.00
1774, 1998.00
1775, 1997.00
1776, 1998.00
1777, 1998.00
1778, 1996.00
1779, 1995.00
1780, 1995.00
1781, 1996.00
1782, 1994.00
1783, 1994.00
1784, 1992.00
1785, 1993.00
1786, 1993.00
1787, 1994.00
1788, 1992.00
1789, 1991.00
1790, 1992.00
1791, 1992.00
1792, 1991.00
1793, 1992.00
1794, 1992.00
1795, 1990.00
1796, 1989.00
1797, 1988.00
1798, 1988.00
1799, 1988.00
1800, 1987.00
1801, 1989.00
1802, 1988.00
1803, 1987.00
1804, 1987.00
1805, 1987.00
1806, 1987.00
1807, 1985.00
1808, 1986.00
1809, 1984.00
1810, 1982.00
1811, 1982.00
1812, 1983.00
1813, 1983.00
1814, 1983.00
1815, 1983.00
1816, 1982.00
1817, 1980.00
1818, 1981.00
1819, 1981.00
1820, 1978.00
1821, 1977.00
1822, 1978.00
1823, 1977.00
1824, 1978.00
1825, 1975.00
1826, 1975.00
1827, 1972.00
1828, 1971.00
1829, 1971.00
1830, 1970.00
1831, 1969.00
1832, 1967.00
1833, 1968.00
1834, 1965.00
1835, 1964.00
1836, 1961.00
1837, 1961.00
1838, 1959.00
1839, 1957.00
1840, 1956.00
1841, 1956.00
1842, 1953.00
1843, 1951.00
1844, 1951.00
1845, 1948.00
1846, 1947.00
1847, 1945.00
1848, 1943.00
1849, 1941.00
1850, 1938.00
1851, 1939.00
1852, 1936.00
1853, 1934.00
1854, 1929.00
1855, 1931.00
1856, 1928.00
1857, 1927.00
1858, 1926.00
1859, 1923.00
1860, 1920.00
1861, 1918.00
1862, 1918.00
1863, 1918.00
1864, 1916.00
1865, 1912.00
1866, 1913.00
1867, 1911.00
1868, 1909.00
1869, 1908.00
1870, 1907.00
1871, 1908.00
1872, 1906.00
1873, 1905.00
1874, 1903.00
1875, 1903.00
1876, 1901.00
1877, 1901.00
1878, 1900.00
1879, 1898.00
1880, 1897.00
1881, 1897.00
1882, 1895.00
1883, 1896.00
1884, 1895.00
1885, 1894.00
1886, 1897.00
1887, 1895.00
1888, 1896.00
1889, 1893.00
1890, 1892.00
1891, 1892.00
1892, 1891.00
1893, 1892.00
1894, 1892.00
1895, 1891.00
1896, 1891.00
1897, 1891.00
1898, 1891.00
1899, 1889.00
1900, 1890.00
1901, 1889.00
1902, 1890.00
1903, 1889.00
1904, 1889.00
1905, 1888.00
1906, 1888.00
1907, 1889.00
1908, 1888.00
1909, 1888.00
1910, 1888.00
1911, 1888.00
1912, 1887.00
1913, 1888.00
1914, 1886.00
1915, 1886.00
1916, 1887.00
1917, 1886.00
1918, 1888.00
1919, 1886.00
1920, 1887.00
1921, 1885.00
1922, 1885.00
1923, 1885.00
1924, 1885.00
1925, 1886.00
1926, 1885.00
1927, 1885.00
1928, 1885.00
1929, 1886.00
1930, 1885.00
1931, 1886.00
1932, 1886.00
1933, 1886.00
1934, 1887.00
1935, 1885.00
1936, 1886.00
1937, 1885.00
1938, 1888.00
1939, 1886.00
1940, 1888.00
1941, 1887.00
1942, 1889.00
1943, 1887.00
1944, 1888.00
1945, 1887.00
1946, 1888.00
1947, 1889.00
1948, 1886.00
1949, 1887.00
1950, 1889.00
1951, 1890.00
1952, 1890.00
1953, 1890.00
1954, 1888.00
1955, 1890.00
1956, 1891.00
1957, 1891.00
1958, 1889.00
1959, 1891.00
1960, 1891.00
1961, 1892.00
1962, 1892.00
1963, 1893.00
1964, 1893.00
1965, 1893.00
1966, 1895.00
1967, 1895.00
1968, 1895.00
1969, 1895.00
1970, 1895.00
1971, 1894.00
1972, 1895.00
1973, 1896.00
1974, 1897.00
1975, 1897.00
1976, 1897.00
1977, 1898.00
1978, 1901.00
1979, 1898.00
1980, 1900.00
1981, 1900.00
1982, 1898.00
1983, 1899.00
1984, 1901.00
1985, 1900.00
1986, 1901.00
1987, 1902.00
1988, 1903.00
1989, 1902.00
1990, 1903.00
1991, 1903.00
1992, 1903.00
1993, 1905.00
1994, 1905.00
1995, 1906.00
1996, 1906.00
1997, 1906.00
1998, 1905.00
1999, 1906.00
2000, 1907.00
2001, 1908.00
2002, 1908.00
2003, 1908.00
2004, 1909.00
2005, 1912.00
2006, 1910.00
2007, 1910.00
2008, 1911.00
2009, 1911.00
2010, 1911.00
2011, 1913.00
2012, 1911.00
2013, 1911.00
2014, 1912.00
2015, 1915.00
2016, 1914.00
2017, 1915.00
2018, 1915.00
2019, 1916.00
2020, 1916.00
2021, 1917.00
2022, 1916.00
2023, 1917.00
2024, 1917.00
2025, 1917.00
2026, 1917.00
2027, 1919.00
2028, 1919.00
2029, 1919.00
2030, 1919.00
2031, 1920.00
2032, 1921.00
2033, 1922.00
2034, 1922.00
2035, 1923.00
2036, 1923.00
2037, 1923.00
2038, 1923.00
2039, 1923.00
2040, 1925.00
2041, 1926.00
2042, 1926.00
2043, 1928.00
2044, 1929.00
2045, 1929.00
2046, 1928.00
2047, 1931.00
2048, 1930.00
2049, 1929.00
2050, 1930.00
2051, 1932.00
2052, 1933.00
2053, 1933.00
2054, 1934.00
2055, 1935.00
2056, 1935.00
2057, 1936.00
2058, 1936.00
2059, 1938.00
2060, 1936.00
2061, 1938.00
2062, 1940.00
2063, 1941.00
2064, 1941.00
2065, 1942.00
2066, 1941.00
2067, 1942.00
2068, 1943.00
2069, 1944.00
2070, 1945.00
2071, 1944.00
2072, 1947.00
2073, 1947.00
2074, 1946.00
2075, 1948.00
2076, 1948.00
2077, 1950.00
2078, 1951.00
2079, 1951.00
2080, 1950.00
2081, 1951.00
2082, 1952.00
2083, 1954.00
2084, 1953.00
2085, 1953.00
2086, 1954.00
2087, 1954.00
2088, 1956.00
2089, 1956.00
2090, 1955.00
2091, 1957.00
2092, 1958.00
2093, 1959.00
2094, 1959.00
2095, 1959.00
2096, 1960.00
2097, 1960.00
2098, 1958.00
2099, 1961.00
2100, 1961.00
2101, 1961.00
2102, 1962.00
2103, 1962.00
2104, 1963.00
2105, 1963.00
2106, 1962.00
2107, 1963.00
2108, 1965.00
2109, 1965.00
2110, 1965.00
2111, 1967.00
2112, 1965.00
2113, 1966.00
2114, 1966.00
2115, 1964.00
2116, 1967.00
2117, 1968.00
2118, 1967.00
2119, 1967.00
2120, 1968.00
2121, 1969.00
2122, 1966.00
2123, 1969.00
2124, 1969.00
2125, 1968.00
2126, 1969.00
2127, 1971.00
2128, 1969.00
2129, 1969.00
2130, 1969.00
2131, 1970.00
2132, 1969.00
2133, 1972.00
2134, 1971.00
2135, 1970.00
2136, 1971.00
2137, 1972.00
2138, 1973.00
2139, 1974.00
2140, 1972.00
2141, 1973.00
2142, 1973.00
2143, 1974.00
2144, 1973.00
2145, 1975.00
2146, 1975.00
2147, 1975.00
2148, 1974.00
2149, 1977.00
2150, 1976.00
