FW version: 24
Log Version: 3.0.3

General Info:
       Command/Macro Performed,            Timestamp,             Device ID, COM Port, UART/I2C, Test Name, Host Major, Host Minor, Host Revision, Host Git Commit
            Single_measurement,  2023_07_11_11_14_26,       Insight2_F4_xxx,    USB-C,      USB,          ,          0,          1,             1,      4031237645

Show Spectrometer Status:
l0_version, f4_version, battery_perc, battery_mVolt, accelerometer_temp, accelerometer_x, accelerometer_y, accelerometer_z, compass_temp, compass_x, compass_y, compass_z, lamp_0, lamp_1, gain_0, gain_1
        17,         24,           49,          1908,               6816,           65124,             744,           18820,            0,     65381,     65514,     18822,   3276,   3276,      1,      1

Temperature Statistic Info:
NTC AVG [°C], NTC2 AVG [°C]
      41.477,        41.147

Statistic Info:
M1:  num,      min,      max,   median,      AVG,      STD,M2:  num,      min,      max,   median,      AVG,      STD
     301,  2271.00,  2636.00,  2345.00,  2390.90, 113.3685,     401,  2913.00,  3132.00,  2998.00,  3005.00,  70.8057,

Measurements:
Wavelength, Data Amplitude
1350, 2343.00
1351, 2340.00
1352, 2339.00
1353, 2339.00
1354, 2336.00
1355, 2335.00
1356, 2333.00
1357, 2332.00
1358, 2331.00
1359, 2327.00
1360, 2328.00
1361, 2325.00
1362, 2323.00
1363, 2320.00
1364, 2319.00
1365, 2318.00
1366, 2316.00
1367, 2314.00
1368, 2312.00
1369, 2310.00
1370, 2308.00
1371, 2306.00
1372, 2305.00
1373, 2303.00
1374, 2301.00
1375, 2299.00
1376, 2298.00
1377, 2295.00
1378, 2295.00
1379, 2294.00
1380, 2291.00
1381, 2290.00
1382, 2290.00
1383, 2288.00
1384, 2287.00
1385, 2285.00
1386, 2285.00
1387, 2284.00
1388, 2285.00
1389, 2283.00
1390, 2281.00
1391, 2281.00
1392, 2281.00
1393, 2281.00
1394, 2279.00
1395, 2280.00
1396, 2277.00
1397, 2279.00
1398, 2278.00
1399, 2277.00
1400, 2276.00
1401, 2275.00
1402, 2275.00
1403, 2274.00
1404, 2275.00
1405, 2274.00
1406, 2273.00
1407, 2273.00
1408, 2273.00
1409, 2274.00
1410, 2274.00
1411, 2273.00
1412, 2273.00
1413, 2273.00
1414, 2273.00
1415, 2272.00
1416, 2272.00
1417, 2273.00
1418, 2272.00
1419, 2273.00
1420, 2271.00
1421, 2272.00
1422, 2273.00
1423, 2272.00
1424, 2272.00
1425, 2273.00
1426, 2273.00
1427, 2274.00
1428, 2274.00
1429, 2274.00
1430, 2274.00
1431, 2273.00
1432, 2274.00
1433, 2275.00
1434, 2276.00
1435, 2276.00
1436, 2275.00
1437, 2276.00
1438, 2277.00
1439, 2278.00
1440, 2279.00
1441, 2279.00
1442, 2279.00
1443, 2279.00
1444, 2280.00
1445, 2281.00
1446, 2281.00
1447, 2283.00
1448, 2283.00
1449, 2283.00
1450, 2284.00
1451, 2285.00
1452, 2285.00
1453, 2287.00
1454, 2288.00
1455, 2287.00
1456, 2289.00
1457, 2290.00
1458, 2291.00
1459, 2291.00
1460, 2292.00
1461, 2293.00
1462, 2294.00
1463, 2297.00
1464, 2296.00
1465, 2297.00
1466, 2298.00
1467, 2299.00
1468, 2300.00
1469, 2303.00
1470, 2303.00
1471, 2305.00
1472, 2305.00
1473, 2306.00
1474, 2309.00
1475, 2310.00
1476, 2311.00
1477, 2313.00
1478, 2313.00
1479, 2315.00
1480, 2317.00
1481, 2317.00
1482, 2318.00
1483, 2320.00
1484, 2321.00
1485, 2324.00
1486, 2324.00
1487, 2325.00
1488, 2328.00
1489, 2328.00
1490, 2330.00
1491, 2331.00
1492, 2333.00
1493, 2333.00
1494, 2337.00
1495, 2337.00
1496, 2338.00
1497, 2340.00
1498, 2341.00
1499, 2342.00
1500, 2345.00
1501, 2346.00
1502, 2348.00
1503, 2350.00
1504, 2350.00
1505, 2352.00
1506, 2354.00
1507, 2355.00
1508, 2357.00
1509, 2359.00
1510, 2361.00
1511, 2361.00
1512, 2363.00
1513, 2366.00
1514, 2367.00
1515, 2369.00
1516, 2369.00
1517, 2372.00
1518, 2373.00
1519, 2375.00
1520, 2377.00
1521, 2379.00
1522, 2380.00
1523, 2382.00
1524, 2383.00
1525, 2385.00
1526, 2387.00
1527, 2390.00
1528, 2391.00
1529, 2394.00
1530, 2395.00
1531, 2396.00
1532, 2399.00
1533, 2400.00
1534, 2403.00
1535, 2404.00
1536, 2406.00
1537, 2407.00
1538, 2409.00
1539, 2411.00
1540, 2414.00
1541, 2415.00
1542, 2415.00
1543, 2419.00
1544, 2419.00
1545, 2423.00
1546, 2425.00
1547, 2425.00
1548, 2429.00
1549, 2430.00
1550, 2431.00
1551, 2434.00
1552, 2435.00
1553, 2438.00
1554, 2440.00
1555, 2442.00
1556, 2444.00
1557, 2446.00
1558, 2448.00
1559, 2450.00
1560, 2452.00
1561, 2454.00
1562, 2457.00
1563, 2458.00
1564, 2461.00
1565, 2463.00
1566, 2466.00
1567, 2467.00
1568, 2470.00
1569, 2473.00
1570, 2476.00
1571, 2476.00
1572, 2478.00
1573, 2481.00
1574, 2482.00
1575, 2484.00
1576, 2487.00
1577, 2488.00
1578, 2490.00
1579, 2491.00
1580, 2495.00
1581, 2495.00
1582, 2498.00
1583, 2499.00
1584, 2502.00
1585, 2503.00
1586, 2504.00
1587, 2508.00
1588, 2509.00
1589, 2509.00
1590, 2511.00
1591, 2513.00
1592, 2516.00
1593, 2517.00
1594, 2520.00
1595, 2522.00
1596, 2523.00
1597, 2525.00
1598, 2527.00
1599, 2529.00
1600, 2531.00
1601, 2532.00
1602, 2535.00
1603, 2537.00
1604, 2540.00
1605, 2541.00
1606, 2542.00
1607, 2545.00
1608, 2547.00
1609, 2549.00
1610, 2552.00
1611, 2554.00
1612, 2557.00
1613, 2559.00
1614, 2561.00
1615, 2563.00
1616, 2565.00
1617, 2567.00
1618, 2569.00
1619, 2572.00
1620, 2575.00
1621, 2577.00
1622, 2579.00
1623, 2582.00
1624, 2584.00
1625, 2586.00
1626, 2589.00
1627, 2590.00
1628, 2592.00
1629, 2593.00
1630, 2597.00
1631, 2599.00
1632, 2601.00
1633, 2603.00
1634, 2604.00
1635, 2607.00
1636, 2610.00
1637, 2611.00
1638, 2612.00
1639, 2615.00
1640, 2616.00
1641, 2618.00
1642, 2620.00
1643, 2621.00
1644, 2624.00
1645, 2625.00
1646, 2627.00
1647, 2629.00
1648, 2632.00
1649, 2634.00
1650, 2636.00

1750, 3130.00
1751, 3130.00
1752, 3130.00
1753, 3127.00
1754, 3128.00
1755, 3131.00
1756, 3132.00
1757, 3132.00
1758, 3129.00
1759, 3127.00
1760, 3131.00
1761, 3131.00
1762, 3127.00
1763, 3127.00
1764, 3127.00
1765, 3126.00
1766, 3126.00
1767, 3128.00
1768, 3126.00
1769, 3124.00
1770, 3127.00
1771, 3124.00
1772, 3124.00
1773, 3125.00
1774, 3123.00
1775, 3124.00
1776, 3121.00
1777, 3121.00
1778, 3119.00
1779, 3117.00
1780, 3120.00
1781, 3119.00
1782, 3118.00
1783, 3118.00
1784, 3116.00
1785, 3113.00
1786, 3115.00
1787, 3113.00
1788, 3112.00
1789, 3113.00
1790, 3111.00
1791, 3111.00
1792, 3111.00
1793, 3111.00
1794, 3107.00
1795, 3105.00
1796, 3108.00
1797, 3106.00
1798, 3106.00
1799, 3104.00
1800, 3106.00
1801, 3104.00
1802, 3103.00
1803, 3099.00
1804, 3099.00
1805, 3102.00
1806, 3101.00
1807, 3099.00
1808, 3097.00
1809, 3096.00
1810, 3096.00
1811, 3097.00
1812, 3093.00
1813, 3092.00
1814, 3092.00
1815, 3090.00
1816, 3090.00
1817, 3089.00
1818, 3087.00
1819, 3087.00
1820, 3082.00
1821, 3084.00
1822, 3081.00
1823, 3078.00
1824, 3078.00
1825, 3074.00
1826, 3075.00
1827, 3072.00
1828, 3070.00
1829, 3065.00
1830, 3065.00
1831, 3063.00
1832, 3061.00
1833, 3056.00
1834, 3056.00
1835, 3052.00
1836, 3050.00
1837, 3047.00
1838, 3044.00
1839, 3041.00
1840, 3036.00
1841, 3037.00
1842, 3034.00
1843, 3027.00
1844, 3026.00
1845, 3023.00
1846, 3018.00
1847, 3015.00
1848, 3011.00
1849, 3008.00
1850, 3003.00
1851, 3000.00
1852, 2997.00
1853, 2998.00
1854, 2990.00
1855, 2989.00
1856, 2985.00
1857, 2983.00
1858, 2979.00
1859, 2976.00
1860, 2974.00
1861, 2968.00
1862, 2967.00
1863, 2963.00
1864, 2962.00
1865, 2958.00
1866, 2960.00
1867, 2956.00
1868, 2954.00
1869, 2953.00
1870, 2949.00
1871, 2948.00
1872, 2946.00
1873, 2946.00
1874, 2943.00
1875, 2942.00
1876, 2940.00
1877, 2937.00
1878, 2938.00
1879, 2937.00
1880, 2937.00
1881, 2933.00
1882, 2934.00
1883, 2932.00
1884, 2933.00
1885, 2930.00
1886, 2930.00
1887, 2929.00
1888, 2929.00
1889, 2927.00
1890, 2927.00
1891, 2927.00
1892, 2925.00
1893, 2925.00
1894, 2924.00
1895, 2921.00
1896, 2923.00
1897, 2923.00
1898, 2922.00
1899, 2921.00
1900, 2921.00
1901, 2921.00
1902, 2921.00
1903, 2919.00
1904, 2919.00
1905, 2919.00
1906, 2919.00
1907, 2917.00
1908, 2918.00
1909, 2918.00
1910, 2916.00
1911, 2915.00
1912, 2917.00
1913, 2916.00
1914, 2914.00
1915, 2917.00
1916, 2915.00
1917, 2915.00
1918, 2914.00
1919, 2913.00
1920, 2914.00
1921, 2915.00
1922, 2915.00
1923, 2914.00
1924, 2915.00
1925, 2913.00
1926, 2915.00
1927, 2914.00
1928, 2916.00
1929, 2913.00
1930, 2915.00
1931, 2914.00
1932, 2913.00
1933, 2914.00
1934, 2914.00
1935, 2913.00
1936, 2914.00
1937, 2914.00
1938, 2914.00
1939, 2916.00
1940, 2914.00
1941, 2916.00
1942, 2918.00
1943, 2916.00
1944, 2916.00
1945, 2918.00
1946, 2919.00
1947, 2919.00
1948, 2918.00
1949, 2919.00
1950, 2918.00
1951, 2919.00
1952, 2920.00
1953, 2920.00
1954, 2920.00
1955, 2922.00
1956, 2921.00
1957, 2923.00
1958, 2923.00
1959, 2923.00
1960, 2924.00
1961, 2924.00
1962, 2923.00
1963, 2923.00
1964, 2926.00
1965, 2926.00
1966, 2929.00
1967, 2927.00
1968, 2928.00
1969, 2929.00
1970, 2929.00
1971, 2931.00
1972, 2931.00
1973, 2930.00
1974, 2931.00
1975, 2931.00
1976, 2934.00
1977, 2935.00
1978, 2933.00
1979, 2935.00
1980, 2936.00
1981, 2935.00
1982, 2937.00
1983, 2938.00
1984, 2937.00
1985, 2940.00
1986, 2940.00
1987, 2941.00
1988, 2943.00
1989, 2943.00
1990, 2945.00
1991, 2945.00
1992, 2947.00
1993, 2947.00
1994, 2947.00
1995, 2947.00
1996, 2948.00
1997, 2948.00
1998, 2951.00
1999, 2950.00
2000, 2950.00
2001, 2950.00
2002, 2952.00
2003, 2952.00
2004, 2953.00
2005, 2954.00
2006, 2954.00
2007, 2955.00
2008, 2958.00
2009, 2959.00
2010, 2959.00
2011, 2960.00
2012, 2960.00
2013, 2961.00
2014, 2963.00
2015, 2962.00
2016, 2963.00
2017, 2963.00
2018, 2966.00
2019, 2963.00
2020, 2964.00
2021, 2967.00
2022, 2968.00
2023, 2968.00
2024, 2969.00
2025, 2969.00
2026, 2971.00
2027, 2972.00
2028, 2971.00
2029, 2973.00
2030, 2974.00
2031, 2975.00
2032, 2977.00
2033, 2976.00
2034, 2978.00
2035, 2979.00
2036, 2979.00
2037, 2979.00
2038, 2981.00
2039, 2981.00
2040, 2983.00
2041, 2984.00
2042, 2986.00
2043, 2987.00
2044, 2987.00
2045, 2987.00
2046, 2990.00
2047, 2991.00
2048, 2993.00
2049, 2991.00
2050, 2993.00
2051, 2995.00
2052, 2997.00
2053, 2998.00
2054, 2998.00
2055, 2998.00
2056, 3001.00
2057, 3000.00
2058, 3002.00
2059, 3003.00
2060, 3006.00
2061, 3007.00
2062, 3006.00
2063, 3011.00
2064, 3010.00
2065, 3011.00
2066, 3012.00
2067, 3013.00
2068, 3015.00
2069, 3016.00
2070, 3017.00
2071, 3018.00
2072, 3019.00
2073, 3019.00
2074, 3021.00
2075, 3022.00
2076, 3024.00
2077, 3024.00
2078, 3024.00
2079, 3026.00
2080, 3028.00
2081, 3027.00
2082, 3028.00
2083, 3031.00
2084, 3031.00
2085, 3032.00
2086, 3033.00
2087, 3034.00
2088, 3035.00
2089, 3034.00
2090, 3037.00
2091, 3038.00
2092, 3039.00
2093, 3041.00
2094, 3041.00
2095, 3042.00
2096, 3045.00
2097, 3045.00
2098, 3044.00
2099, 3044.00
2100, 3045.00
2101, 3046.00
2102, 3048.00
2103, 3047.00
2104, 3047.00
2105, 3050.00
2106, 3047.00
2107, 3050.00
2108, 3051.00
2109, 3054.00
2110, 3051.00
2111, 3055.00
2112, 3052.00
2113, 3054.00
2114, 3055.00
2115, 3052.00
2116, 3055.00
2117, 3055.00
2118, 3058.00
2119, 3057.00
2120, 3058.00
2121, 3057.00
2122, 3058.00
2123, 3058.00
2124, 3059.00
2125, 3061.00
2126, 3062.00
2127, 3059.00
2128, 3062.00
2129, 3062.00
2130, 3063.00
2131, 3064.00
2132, 3063.00
2133, 3065.00
2134, 3065.00
2135, 3065.00
2136, 3065.00
2137, 3067.00
2138, 3065.00
2139, 3065.00
2140, 3067.00
2141, 3068.00
2142, 3068.00
2143, 3070.00
2144, 3069.00
2145, 3071.00
2146, 3070.00
2147, 3069.00
2148, 3072.00
2149, 3071.00
2150, 3071.00
