FW version: 24
Log Version: 3.0.3

General Info:
       Command/Macro Performed,            Timestamp,             Device ID, COM Port, UART/I2C, Test Name, Host Major, Host Minor, Host Revision, Host Git Commit
            Single_measurement,  2023_07_11_11_13_09,       Insight2_F4_xxx,    USB-C,      USB,          ,          0,          1,             1,      4031237645

Show Spectrometer Status:
l0_version, f4_version, battery_perc, battery_mVolt, accelerometer_temp, accelerometer_x, accelerometer_y, accelerometer_z, compass_temp, compass_x, compass_y, compass_z, lamp_0, lamp_1, gain_0, gain_1
        17,         24,           49,          1907,               6768,           65092,             700,           18696,            0,     65382,     65470,     18825,   3276,   3276,      0,      0

Temperature Statistic Info:
NTC AVG [°C], NTC2 AVG [°C]
      40.851,        40.558

Statistic Info:
M1:  num,      min,      max,   median,      AVG,      STD,M2:  num,      min,      max,   median,      AVG,      STD
     301,   782.00,   907.00,   807.00,   823.14,  38.9537,     401,  1006.00,  1082.00,  1035.00,  1037.86,  24.6126,

Measurements:
Wavelength, Data Amplitude
1350, 807.00
1351, 806.00
1352, 806.00
1353, 805.00
1354, 805.00
1355, 804.00
1356, 804.00
1357, 803.00
1358, 803.00
1359, 802.00
1360, 802.00
1361, 801.00
1362, 800.00
1363, 800.00
1364, 799.00
1365, 799.00
1366, 797.00
1367, 797.00
1368, 796.00
1369, 795.00
1370, 795.00
1371, 795.00
1372, 794.00
1373, 793.00
1374, 793.00
1375, 792.00
1376, 791.00
1377, 791.00
1378, 790.00
1379, 790.00
1380, 789.00
1381, 789.00
1382, 789.00
1383, 788.00
1384, 787.00
1385, 787.00
1386, 787.00
1387, 786.00
1388, 786.00
1389, 786.00
1390, 786.00
1391, 785.00
1392, 786.00
1393, 785.00
1394, 785.00
1395, 785.00
1396, 784.00
1397, 784.00
1398, 784.00
1399, 784.00
1400, 784.00
1401, 784.00
1402, 783.00
1403, 784.00
1404, 783.00
1405, 784.00
1406, 783.00
1407, 783.00
1408, 783.00
1409, 783.00
1410, 783.00
1411, 783.00
1412, 783.00
1413, 782.00
1414, 782.00
1415, 782.00
1416, 782.00
1417, 782.00
1418, 783.00
1419, 782.00
1420, 782.00
1421, 783.00
1422, 782.00
1423, 783.00
1424, 783.00
1425, 782.00
1426, 783.00
1427, 782.00
1428, 783.00
1429, 783.00
1430, 783.00
1431, 783.00
1432, 783.00
1433, 784.00
1434, 783.00
1435, 784.00
1436, 784.00
1437, 784.00
1438, 784.00
1439, 784.00
1440, 785.00
1441, 784.00
1442, 785.00
1443, 784.00
1444, 785.00
1445, 785.00
1446, 785.00
1447, 786.00
1448, 786.00
1449, 786.00
1450, 787.00
1451, 786.00
1452, 787.00
1453, 787.00
1454, 788.00
1455, 788.00
1456, 788.00
1457, 788.00
1458, 789.00
1459, 789.00
1460, 789.00
1461, 790.00
1462, 790.00
1463, 789.00
1464, 790.00
1465, 791.00
1466, 792.00
1467, 791.00
1468, 792.00
1469, 793.00
1470, 793.00
1471, 793.00
1472, 793.00
1473, 794.00
1474, 794.00
1475, 795.00
1476, 795.00
1477, 796.00
1478, 796.00
1479, 797.00
1480, 797.00
1481, 798.00
1482, 798.00
1483, 799.00
1484, 799.00
1485, 800.00
1486, 800.00
1487, 801.00
1488, 801.00
1489, 802.00
1490, 802.00
1491, 802.00
1492, 803.00
1493, 804.00
1494, 804.00
1495, 804.00
1496, 805.00
1497, 806.00
1498, 806.00
1499, 806.00
1500, 807.00
1501, 807.00
1502, 808.00
1503, 808.00
1504, 809.00
1505, 809.00
1506, 810.00
1507, 811.00
1508, 811.00
1509, 812.00
1510, 812.00
1511, 812.00
1512, 814.00
1513, 814.00
1514, 815.00
1515, 815.00
1516, 816.00
1517, 816.00
1518, 817.00
1519, 817.00
1520, 818.00
1521, 819.00
1522, 819.00
1523, 820.00
1524, 821.00
1525, 821.00
1526, 822.00
1527, 822.00
1528, 823.00
1529, 824.00
1530, 824.00
1531, 825.00
1532, 826.00
1533, 826.00
1534, 827.00
1535, 827.00
1536, 828.00
1537, 829.00
1538, 829.00
1539, 830.00
1540, 831.00
1541, 831.00
1542, 832.00
1543, 833.00
1544, 833.00
1545, 834.00
1546, 835.00
1547, 836.00
1548, 836.00
1549, 837.00
1550, 837.00
1551, 838.00
1552, 839.00
1553, 840.00
1554, 840.00
1555, 841.00
1556, 842.00
1557, 842.00
1558, 843.00
1559, 844.00
1560, 844.00
1561, 845.00
1562, 846.00
1563, 847.00
1564, 848.00
1565, 848.00
1566, 849.00
1567, 849.00
1568, 850.00
1569, 851.00
1570, 852.00
1571, 852.00
1572, 853.00
1573, 854.00
1574, 855.00
1575, 855.00
1576, 855.00
1577, 857.00
1578, 857.00
1579, 859.00
1580, 859.00
1581, 859.00
1582, 860.00
1583, 860.00
1584, 861.00
1585, 861.00
1586, 862.00
1587, 863.00
1588, 864.00
1589, 864.00
1590, 865.00
1591, 866.00
1592, 866.00
1593, 867.00
1594, 867.00
1595, 868.00
1596, 869.00
1597, 869.00
1598, 870.00
1599, 871.00
1600, 871.00
1601, 872.00
1602, 872.00
1603, 873.00
1604, 874.00
1605, 874.00
1606, 876.00
1607, 876.00
1608, 877.00
1609, 878.00
1610, 879.00
1611, 879.00
1612, 880.00
1613, 881.00
1614, 882.00
1615, 882.00
1616, 883.00
1617, 884.00
1618, 884.00
1619, 885.00
1620, 887.00
1621, 887.00
1622, 887.00
1623, 889.00
1624, 889.00
1625, 890.00
1626, 891.00
1627, 892.00
1628, 892.00
1629, 893.00
1630, 894.00
1631, 895.00
1632, 895.00
1633, 896.00
1634, 897.00
1635, 897.00
1636, 898.00
1637, 898.00
1638, 899.00
1639, 900.00
1640, 901.00
1641, 901.00
1642, 902.00
1643, 902.00
1644, 904.00
1645, 904.00
1646, 905.00
1647, 905.00
1648, 905.00
1649, 906.00
1650, 907.00

1750, 1081.00
1751, 1081.00
1752, 1081.00
1753, 1081.00
1754, 1081.00
1755, 1081.00
1756, 1081.00
1757, 1081.00
1758, 1082.00
1759, 1081.00
1760, 1081.00
1761, 1081.00
1762, 1080.00
1763, 1081.00
1764, 1081.00
1765, 1080.00
1766, 1080.00
1767, 1080.00
1768, 1080.00
1769, 1080.00
1770, 1080.00
1771, 1079.00
1772, 1079.00
1773, 1079.00
1774, 1078.00
1775, 1079.00
1776, 1078.00
1777, 1078.00
1778, 1077.00
1779, 1078.00
1780, 1078.00
1781, 1077.00
1782, 1077.00
1783, 1077.00
1784, 1076.00
1785, 1076.00
1786, 1075.00
1787, 1075.00
1788, 1075.00
1789, 1075.00
1790, 1075.00
1791, 1075.00
1792, 1074.00
1793, 1074.00
1794, 1074.00
1795, 1074.00
1796, 1074.00
1797, 1072.00
1798, 1072.00
1799, 1073.00
1800, 1072.00
1801, 1072.00
1802, 1072.00
1803, 1071.00
1804, 1071.00
1805, 1070.00
1806, 1071.00
1807, 1071.00
1808, 1070.00
1809, 1070.00
1810, 1069.00
1811, 1070.00
1812, 1069.00
1813, 1069.00
1814, 1069.00
1815, 1068.00
1816, 1067.00
1817, 1067.00
1818, 1066.00
1819, 1065.00
1820, 1066.00
1821, 1065.00
1822, 1065.00
1823, 1064.00
1824, 1064.00
1825, 1063.00
1826, 1062.00
1827, 1061.00
1828, 1061.00
1829, 1060.00
1830, 1058.00
1831, 1058.00
1832, 1058.00
1833, 1057.00
1834, 1056.00
1835, 1055.00
1836, 1054.00
1837, 1053.00
1838, 1052.00
1839, 1051.00
1840, 1050.00
1841, 1049.00
1842, 1048.00
1843, 1046.00
1844, 1045.00
1845, 1044.00
1846, 1042.00
1847, 1042.00
1848, 1041.00
1849, 1040.00
1850, 1038.00
1851, 1036.00
1852, 1036.00
1853, 1035.00
1854, 1033.00
1855, 1032.00
1856, 1032.00
1857, 1030.00
1858, 1029.00
1859, 1029.00
1860, 1028.00
1861, 1026.00
1862, 1025.00
1863, 1025.00
1864, 1024.00
1865, 1023.00
1866, 1022.00
1867, 1019.00
1868, 1020.00
1869, 1019.00
1870, 1019.00
1871, 1019.00
1872, 1017.00
1873, 1018.00
1874, 1017.00
1875, 1015.00
1876, 1016.00
1877, 1015.00
1878, 1015.00
1879, 1014.00
1880, 1014.00
1881, 1013.00
1882, 1012.00
1883, 1013.00
1884, 1013.00
1885, 1012.00
1886, 1012.00
1887, 1011.00
1888, 1011.00
1889, 1011.00
1890, 1011.00
1891, 1010.00
1892, 1010.00
1893, 1010.00
1894, 1009.00
1895, 1010.00
1896, 1009.00
1897, 1009.00
1898, 1009.00
1899, 1009.00
1900, 1009.00
1901, 1008.00
1902, 1009.00
1903, 1008.00
1904, 1008.00
1905, 1007.00
1906, 1007.00
1907, 1007.00
1908, 1007.00
1909, 1007.00
1910, 1007.00
1911, 1006.00
1912, 1007.00
1913, 1007.00
1914, 1007.00
1915, 1007.00
1916, 1007.00
1917, 1006.00
1918, 1007.00
1919, 1007.00
1920, 1006.00
1921, 1006.00
1922, 1007.00
1923, 1006.00
1924, 1006.00
1925, 1006.00
1926, 1006.00
1927, 1007.00
1928, 1006.00
1929, 1006.00
1930, 1006.00
1931, 1006.00
1932, 1006.00
1933, 1007.00
1934, 1007.00
1935, 1006.00
1936, 1007.00
1937, 1007.00
1938, 1007.00
1939, 1007.00
1940, 1006.00
1941, 1007.00
1942, 1007.00
1943, 1007.00
1944, 1008.00
1945, 1007.00
1946, 1007.00
1947, 1008.00
1948, 1008.00
1949, 1007.00
1950, 1007.00
1951, 1008.00
1952, 1007.00
1953, 1008.00
1954, 1008.00
1955, 1009.00
1956, 1009.00
1957, 1009.00
1958, 1009.00
1959, 1009.00
1960, 1009.00
1961, 1010.00
1962, 1010.00
1963, 1010.00
1964, 1010.00
1965, 1010.00
1966, 1011.00
1967, 1011.00
1968, 1011.00
1969, 1011.00
1970, 1013.00
1971, 1012.00
1972, 1012.00
1973, 1012.00
1974, 1013.00
1975, 1013.00
1976, 1013.00
1977, 1013.00
1978, 1014.00
1979, 1014.00
1980, 1014.00
1981, 1014.00
1982, 1014.00
1983, 1015.00
1984, 1015.00
1985, 1015.00
1986, 1015.00
1987, 1016.00
1988, 1016.00
1989, 1017.00
1990, 1017.00
1991, 1017.00
1992, 1017.00
1993, 1018.00
1994, 1017.00
1995, 1017.00
1996, 1018.00
1997, 1019.00
1998, 1018.00
1999, 1019.00
2000, 1018.00
2001, 1019.00
2002, 1019.00
2003, 1019.00
2004, 1020.00
2005, 1020.00
2006, 1020.00
2007, 1021.00
2008, 1021.00
2009, 1021.00
2010, 1021.00
2011, 1022.00
2012, 1022.00
2013, 1023.00
2014, 1022.00
2015, 1022.00
2016, 1023.00
2017, 1023.00
2018, 1024.00
2019, 1024.00
2020, 1024.00
2021, 1025.00
2022, 1025.00
2023, 1026.00
2024, 1026.00
2025, 1026.00
2026, 1026.00
2027, 1027.00
2028, 1026.00
2029, 1026.00
2030, 1027.00
2031, 1027.00
2032, 1028.00
2033, 1028.00
2034, 1028.00
2035, 1028.00
2036, 1029.00
2037, 1029.00
2038, 1030.00
2039, 1030.00
2040, 1030.00
2041, 1031.00
2042, 1031.00
2043, 1032.00
2044, 1031.00
2045, 1032.00
2046, 1032.00
2047, 1033.00
2048, 1033.00
2049, 1032.00
2050, 1034.00
2051, 1034.00
2052, 1034.00
2053, 1035.00
2054, 1035.00
2055, 1036.00
2056, 1036.00
2057, 1037.00
2058, 1037.00
2059, 1037.00
2060, 1037.00
2061, 1038.00
2062, 1038.00
2063, 1038.00
2064, 1040.00
2065, 1041.00
2066, 1040.00
2067, 1040.00
2068, 1041.00
2069, 1041.00
2070, 1041.00
2071, 1042.00
2072, 1042.00
2073, 1043.00
2074, 1043.00
2075, 1044.00
2076, 1044.00
2077, 1044.00
2078, 1045.00
2079, 1045.00
2080, 1045.00
2081, 1045.00
2082, 1046.00
2083, 1048.00
2084, 1047.00
2085, 1047.00
2086, 1047.00
2087, 1048.00
2088, 1049.00
2089, 1049.00
2090, 1049.00
2091, 1050.00
2092, 1050.00
2093, 1049.00
2094, 1051.00
2095, 1050.00
2096, 1050.00
2097, 1051.00
2098, 1051.00
2099, 1052.00
2100, 1051.00
2101, 1052.00
2102, 1053.00
2103, 1053.00
2104, 1052.00
2105, 1053.00
2106, 1053.00
2107, 1054.00
2108, 1053.00
2109, 1054.00
2110, 1054.00
2111, 1054.00
2112, 1055.00
2113, 1054.00
2114, 1056.00
2115, 1055.00
2116, 1055.00
2117, 1055.00
2118, 1056.00
2119, 1056.00
2120, 1056.00
2121, 1056.00
2122, 1056.00
2123, 1056.00
2124, 1057.00
2125, 1057.00
2126, 1058.00
2127, 1057.00
2128, 1057.00
2129, 1058.00
2130, 1058.00
2131, 1058.00
2132, 1059.00
2133, 1058.00
2134, 1059.00
2135, 1058.00
2136, 1059.00
2137, 1058.00
2138, 1058.00
2139, 1060.00
2140, 1060.00
2141, 1060.00
2142, 1059.00
2143, 1060.00
2144, 1061.00
2145, 1060.00
2146, 1061.00
2147, 1061.00
2148, 1061.00
2149, 1060.00
2150, 1061.00
