FW version: 24
Log Version: 3.0.3

General Info:
       Command/Macro Performed,            Timestamp,             Device ID, COM Port, UART/I2C, Test Name, Host Major, Host Minor, Host Revision, Host Git Commit
            Single_measurement,  2023_07_11_11_13_59,       Insight2_F4_xxx,    USB-C,      USB,          ,          0,          1,             1,      4031237645

Show Spectrometer Status:
l0_version, f4_version, battery_perc, battery_mVolt, accelerometer_temp, accelerometer_x, accelerometer_y, accelerometer_z, compass_temp, compass_x, compass_y, compass_z, lamp_0, lamp_1, gain_0, gain_1
        17,         24,           49,          1905,               6784,           65072,             752,           18752,            0,     65398,     65531,     18888,   2866,   2866,      1,      1

Temperature Statistic Info:
NTC AVG [°C], NTC2 AVG [°C]
      41.237,        40.880

Statistic Info:
M1:  num,      min,      max,   median,      AVG,      STD,M2:  num,      min,      max,   median,      AVG,      STD
     301,  1765.00,  2059.00,  1824.00,  1860.96,  91.2800,     401,  2345.00,  2523.00,  2415.00,  2421.29,  57.2823,

Measurements:
Wavelength, Data Amplitude
1350, 1820.00
1351, 1819.00
1352, 1816.00
1353, 1816.00
1354, 1814.00
1355, 1814.00
1356, 1812.00
1357, 1812.00
1358, 1810.00
1359, 1809.00
1360, 1806.00
1361, 1805.00
1362, 1804.00
1363, 1803.00
1364, 1802.00
1365, 1800.00
1366, 1798.00
1367, 1798.00
1368, 1797.00
1369, 1794.00
1370, 1793.00
1371, 1792.00
1372, 1789.00
1373, 1789.00
1374, 1788.00
1375, 1786.00
1376, 1785.00
1377, 1784.00
1378, 1782.00
1379, 1782.00
1380, 1780.00
1381, 1781.00
1382, 1778.00
1383, 1779.00
1384, 1777.00
1385, 1775.00
1386, 1776.00
1387, 1774.00
1388, 1773.00
1389, 1773.00
1390, 1773.00
1391, 1773.00
1392, 1771.00
1393, 1771.00
1394, 1770.00
1395, 1770.00
1396, 1770.00
1397, 1769.00
1398, 1769.00
1399, 1768.00
1400, 1768.00
1401, 1769.00
1402, 1769.00
1403, 1768.00
1404, 1768.00
1405, 1768.00
1406, 1767.00
1407, 1767.00
1408, 1767.00
1409, 1767.00
1410, 1767.00
1411, 1767.00
1412, 1766.00
1413, 1765.00
1414, 1765.00
1415, 1766.00
1416, 1767.00
1417, 1766.00
1418, 1765.00
1419, 1765.00
1420, 1765.00
1421, 1766.00
1422, 1765.00
1423, 1766.00
1424, 1767.00
1425, 1766.00
1426, 1767.00
1427, 1766.00
1428, 1767.00
1429, 1767.00
1430, 1767.00
1431, 1768.00
1432, 1768.00
1433, 1768.00
1434, 1769.00
1435, 1768.00
1436, 1770.00
1437, 1770.00
1438, 1769.00
1439, 1771.00
1440, 1771.00
1441, 1771.00
1442, 1771.00
1443, 1772.00
1444, 1772.00
1445, 1773.00
1446, 1774.00
1447, 1774.00
1448, 1775.00
1449, 1775.00
1450, 1775.00
1451, 1777.00
1452, 1777.00
1453, 1778.00
1454, 1778.00
1455, 1779.00
1456, 1779.00
1457, 1780.00
1458, 1780.00
1459, 1782.00
1460, 1781.00
1461, 1782.00
1462, 1785.00
1463, 1785.00
1464, 1786.00
1465, 1786.00
1466, 1788.00
1467, 1789.00
1468, 1788.00
1469, 1789.00
1470, 1791.00
1471, 1791.00
1472, 1792.00
1473, 1794.00
1474, 1795.00
1475, 1795.00
1476, 1798.00
1477, 1798.00
1478, 1799.00
1479, 1801.00
1480, 1802.00
1481, 1802.00
1482, 1804.00
1483, 1804.00
1484, 1806.00
1485, 1807.00
1486, 1808.00
1487, 1809.00
1488, 1809.00
1489, 1812.00
1490, 1813.00
1491, 1814.00
1492, 1815.00
1493, 1816.00
1494, 1816.00
1495, 1817.00
1496, 1818.00
1497, 1821.00
1498, 1821.00
1499, 1823.00
1500, 1824.00
1501, 1826.00
1502, 1826.00
1503, 1828.00
1504, 1829.00
1505, 1829.00
1506, 1830.00
1507, 1833.00
1508, 1835.00
1509, 1835.00
1510, 1836.00
1511, 1837.00
1512, 1839.00
1513, 1840.00
1514, 1841.00
1515, 1843.00
1516, 1844.00
1517, 1845.00
1518, 1847.00
1519, 1848.00
1520, 1850.00
1521, 1852.00
1522, 1853.00
1523, 1854.00
1524, 1855.00
1525, 1857.00
1526, 1859.00
1527, 1861.00
1528, 1861.00
1529, 1863.00
1530, 1865.00
1531, 1865.00
1532, 1866.00
1533, 1869.00
1534, 1870.00
1535, 1872.00
1536, 1873.00
1537, 1875.00
1538, 1876.00
1539, 1878.00
1540, 1880.00
1541, 1880.00
1542, 1882.00
1543, 1883.00
1544, 1886.00
1545, 1887.00
1546, 1890.00
1547, 1891.00
1548, 1892.00
1549, 1893.00
1550, 1895.00
1551, 1896.00
1552, 1899.00
1553, 1897.00
1554, 1900.00
1555, 1902.00
1556, 1904.00
1557, 1905.00
1558, 1908.00
1559, 1909.00
1560, 1911.00
1561, 1912.00
1562, 1915.00
1563, 1916.00
1564, 1918.00
1565, 1919.00
1566, 1921.00
1567, 1923.00
1568, 1924.00
1569, 1925.00
1570, 1928.00
1571, 1929.00
1572, 1930.00
1573, 1933.00
1574, 1933.00
1575, 1936.00
1576, 1938.00
1577, 1939.00
1578, 1941.00
1579, 1941.00
1580, 1943.00
1581, 1945.00
1582, 1946.00
1583, 1948.00
1584, 1949.00
1585, 1951.00
1586, 1953.00
1587, 1953.00
1588, 1955.00
1589, 1957.00
1590, 1958.00
1591, 1960.00
1592, 1961.00
1593, 1963.00
1594, 1964.00
1595, 1965.00
1596, 1967.00
1597, 1969.00
1598, 1971.00
1599, 1971.00
1600, 1975.00
1601, 1975.00
1602, 1976.00
1603, 1978.00
1604, 1980.00
1605, 1982.00
1606, 1983.00
1607, 1985.00
1608, 1987.00
1609, 1988.00
1610, 1991.00
1611, 1993.00
1612, 1995.00
1613, 1996.00
1614, 1997.00
1615, 2000.00
1616, 2001.00
1617, 2004.00
1618, 2005.00
1619, 2007.00
1620, 2010.00
1621, 2011.00
1622, 2012.00
1623, 2015.00
1624, 2015.00
1625, 2018.00
1626, 2021.00
1627, 2022.00
1628, 2024.00
1629, 2025.00
1630, 2027.00
1631, 2027.00
1632, 2029.00
1633, 2031.00
1634, 2033.00
1635, 2035.00
1636, 2036.00
1637, 2038.00
1638, 2038.00
1639, 2040.00
1640, 2043.00
1641, 2044.00
1642, 2046.00
1643, 2047.00
1644, 2049.00
1645, 2050.00
1646, 2051.00
1647, 2054.00
1648, 2056.00
1649, 2057.00
1650, 2059.00

1750, 2519.00
1751, 2517.00
1752, 2521.00
1753, 2523.00
1754, 2521.00
1755, 2521.00
1756, 2521.00
1757, 2519.00
1758, 2521.00
1759, 2519.00
1760, 2521.00
1761, 2521.00
1762, 2520.00
1763, 2520.00
1764, 2518.00
1765, 2518.00
1766, 2519.00
1767, 2519.00
1768, 2517.00
1769, 2519.00
1770, 2517.00
1771, 2516.00
1772, 2517.00
1773, 2515.00
1774, 2516.00
1775, 2517.00
1776, 2514.00
1777, 2512.00
1778, 2513.00
1779, 2512.00
1780, 2511.00
1781, 2513.00
1782, 2509.00
1783, 2509.00
1784, 2509.00
1785, 2511.00
1786, 2508.00
1787, 2506.00
1788, 2508.00
1789, 2505.00
1790, 2505.00
1791, 2506.00
1792, 2505.00
1793, 2506.00
1794, 2505.00
1795, 2503.00
1796, 2503.00
1797, 2502.00
1798, 2503.00
1799, 2502.00
1800, 2501.00
1801, 2500.00
1802, 2499.00
1803, 2500.00
1804, 2499.00
1805, 2498.00
1806, 2495.00
1807, 2500.00
1808, 2496.00
1809, 2496.00
1810, 2494.00
1811, 2492.00
1812, 2491.00
1813, 2491.00
1814, 2489.00
1815, 2489.00
1816, 2489.00
1817, 2488.00
1818, 2488.00
1819, 2486.00
1820, 2485.00
1821, 2483.00
1822, 2481.00
1823, 2481.00
1824, 2481.00
1825, 2477.00
1826, 2476.00
1827, 2475.00
1828, 2472.00
1829, 2472.00
1830, 2468.00
1831, 2468.00
1832, 2466.00
1833, 2464.00
1834, 2463.00
1835, 2458.00
1836, 2458.00
1837, 2453.00
1838, 2452.00
1839, 2451.00
1840, 2447.00
1841, 2445.00
1842, 2441.00
1843, 2440.00
1844, 2438.00
1845, 2434.00
1846, 2431.00
1847, 2428.00
1848, 2428.00
1849, 2423.00
1850, 2421.00
1851, 2417.00
1852, 2415.00
1853, 2413.00
1854, 2409.00
1855, 2409.00
1856, 2405.00
1857, 2401.00
1858, 2400.00
1859, 2398.00
1860, 2396.00
1861, 2392.00
1862, 2391.00
1863, 2389.00
1864, 2388.00
1865, 2384.00
1866, 2381.00
1867, 2382.00
1868, 2381.00
1869, 2376.00
1870, 2375.00
1871, 2375.00
1872, 2373.00
1873, 2371.00
1874, 2371.00
1875, 2369.00
1876, 2366.00
1877, 2367.00
1878, 2368.00
1879, 2366.00
1880, 2366.00
1881, 2363.00
1882, 2364.00
1883, 2363.00
1884, 2360.00
1885, 2358.00
1886, 2361.00
1887, 2358.00
1888, 2357.00
1889, 2357.00
1890, 2357.00
1891, 2357.00
1892, 2356.00
1893, 2357.00
1894, 2355.00
1895, 2352.00
1896, 2354.00
1897, 2353.00
1898, 2355.00
1899, 2351.00
1900, 2354.00
1901, 2353.00
1902, 2352.00
1903, 2352.00
1904, 2351.00
1905, 2351.00
1906, 2350.00
1907, 2352.00
1908, 2349.00
1909, 2352.00
1910, 2349.00
1911, 2349.00
1912, 2350.00
1913, 2347.00
1914, 2350.00
1915, 2348.00
1916, 2350.00
1917, 2347.00
1918, 2345.00
1919, 2348.00
1920, 2346.00
1921, 2347.00
1922, 2347.00
1923, 2348.00
1924, 2347.00
1925, 2345.00
1926, 2347.00
1927, 2349.00
1928, 2348.00
1929, 2349.00
1930, 2348.00
1931, 2347.00
1932, 2349.00
1933, 2348.00
1934, 2349.00
1935, 2349.00
1936, 2349.00
1937, 2347.00
1938, 2347.00
1939, 2350.00
1940, 2349.00
1941, 2351.00
1942, 2348.00
1943, 2352.00
1944, 2349.00
1945, 2349.00
1946, 2351.00
1947, 2351.00
1948, 2349.00
1949, 2350.00
1950, 2351.00
1951, 2352.00
1952, 2352.00
1953, 2351.00
1954, 2353.00
1955, 2351.00
1956, 2353.00
1957, 2353.00
1958, 2354.00
1959, 2354.00
1960, 2355.00
1961, 2357.00
1962, 2356.00
1963, 2354.00
1964, 2356.00
1965, 2357.00
1966, 2359.00
1967, 2358.00
1968, 2361.00
1969, 2358.00
1970, 2362.00
1971, 2361.00
1972, 2359.00
1973, 2363.00
1974, 2362.00
1975, 2363.00
1976, 2365.00
1977, 2364.00
1978, 2363.00
1979, 2364.00
1980, 2366.00
1981, 2367.00
1982, 2365.00
1983, 2369.00
1984, 2366.00
1985, 2368.00
1986, 2370.00
1987, 2371.00
1988, 2370.00
1989, 2372.00
1990, 2372.00
1991, 2371.00
1992, 2372.00
1993, 2371.00
1994, 2373.00
1995, 2375.00
1996, 2374.00
1997, 2375.00
1998, 2377.00
1999, 2378.00
2000, 2377.00
2001, 2378.00
2002, 2381.00
2003, 2379.00
2004, 2380.00
2005, 2380.00
2006, 2379.00
2007, 2382.00
2008, 2383.00
2009, 2381.00
2010, 2383.00
2011, 2385.00
2012, 2386.00
2013, 2385.00
2014, 2387.00
2015, 2386.00
2016, 2386.00
2017, 2385.00
2018, 2387.00
2019, 2389.00
2020, 2390.00
2021, 2392.00
2022, 2391.00
2023, 2392.00
2024, 2393.00
2025, 2393.00
2026, 2395.00
2027, 2396.00
2028, 2396.00
2029, 2396.00
2030, 2398.00
2031, 2397.00
2032, 2397.00
2033, 2397.00
2034, 2400.00
2035, 2400.00
2036, 2403.00
2037, 2401.00
2038, 2403.00
2039, 2405.00
2040, 2404.00
2041, 2405.00
2042, 2406.00
2043, 2407.00
2044, 2407.00
2045, 2408.00
2046, 2409.00
2047, 2411.00
2048, 2409.00
2049, 2412.00
2050, 2411.00
2051, 2413.00
2052, 2413.00
2053, 2416.00
2054, 2417.00
2055, 2419.00
2056, 2417.00
2057, 2420.00
2058, 2419.00
2059, 2421.00
2060, 2423.00
2061, 2423.00
2062, 2423.00
2063, 2424.00
2064, 2427.00
2065, 2427.00
2066, 2426.00
2067, 2428.00
2068, 2431.00
2069, 2431.00
2070, 2431.00
2071, 2432.00
2072, 2434.00
2073, 2435.00
2074, 2436.00
2075, 2435.00
2076, 2437.00
2077, 2438.00
2078, 2438.00
2079, 2441.00
2080, 2441.00
2081, 2437.00
2082, 2441.00
2083, 2442.00
2084, 2444.00
2085, 2445.00
2086, 2446.00
2087, 2446.00
2088, 2445.00
2089, 2448.00
2090, 2448.00
2091, 2448.00
2092, 2449.00
2093, 2451.00
2094, 2451.00
2095, 2450.00
2096, 2452.00
2097, 2454.00
2098, 2453.00
2099, 2455.00
2100, 2456.00
2101, 2455.00
2102, 2456.00
2103, 2457.00
2104, 2457.00
2105, 2459.00
2106, 2459.00
2107, 2460.00
2108, 2460.00
2109, 2462.00
2110, 2461.00
2111, 2463.00
2112, 2462.00
2113, 2461.00
2114, 2463.00
2115, 2464.00
2116, 2462.00
2117, 2463.00
2118, 2466.00
2119, 2465.00
2120, 2466.00
2121, 2467.00
2122, 2467.00
2123, 2467.00
2124, 2468.00
2125, 2466.00
2126, 2469.00
2127, 2471.00
2128, 2470.00
2129, 2469.00
2130, 2470.00
2131, 2471.00
2132, 2472.00
2133, 2472.00
2134, 2472.00
2135, 2471.00
2136, 2473.00
2137, 2472.00
2138, 2475.00
2139, 2472.00
2140, 2473.00
2141, 2475.00
2142, 2474.00
2143, 2475.00
2144, 2475.00
2145, 2475.00
2146, 2478.00
2147, 2475.00
2148, 2476.00
2149, 2478.00
2150, 2477.00
