FW version: 24
Log Version: 3.0.3

General Info:
       Command/Macro Performed,            Timestamp,             Device ID, COM Port, UART/I2C, Test Name, Host Major, Host Minor, Host Revision, Host Git Commit
            Single_measurement,  2023_07_11_11_14_22,       Insight2_F4_xxx,    USB-C,      USB,          ,          0,          1,             1,      4031237645

Show Spectrometer Status:
l0_version, f4_version, battery_perc, battery_mVolt, accelerometer_temp, accelerometer_x, accelerometer_y, accelerometer_z, compass_temp, compass_x, compass_y, compass_z, lamp_0, lamp_1, gain_0, gain_1
        17,         24,           49,          1906,               6800,           65044,             760,           18756,            0,     65396,     65529,     18885,   3276,   3276,      1,      1

Temperature Statistic Info:
NTC AVG [°C], NTC2 AVG [°C]
      41.477,        41.147

Statistic Info:
M1:  num,      min,      max,   median,      AVG,      STD,M2:  num,      min,      max,   median,      AVG,      STD
     301,  2271.00,  2634.00,  2345.00,  2391.00, 113.4214,     401,  2913.00,  3131.00,  2997.00,  3005.16,  70.9433,

Measurements:
Wavelength, Data Amplitude
1350, 2343.00
1351, 2342.00
1352, 2339.00
1353, 2338.00
1354, 2337.00
1355, 2335.00
1356, 2333.00
1357, 2332.00
1358, 2330.00
1359, 2328.00
1360, 2327.00
1361, 2326.00
1362, 2324.00
1363, 2321.00
1364, 2319.00
1365, 2318.00
1366, 2315.00
1367, 2313.00
1368, 2313.00
1369, 2309.00
1370, 2309.00
1371, 2307.00
1372, 2304.00
1373, 2302.00
1374, 2301.00
1375, 2300.00
1376, 2298.00
1377, 2295.00
1378, 2295.00
1379, 2294.00
1380, 2292.00
1381, 2290.00
1382, 2289.00
1383, 2289.00
1384, 2287.00
1385, 2286.00
1386, 2285.00
1387, 2284.00
1388, 2283.00
1389, 2282.00
1390, 2283.00
1391, 2280.00
1392, 2281.00
1393, 2280.00
1394, 2278.00
1395, 2278.00
1396, 2277.00
1397, 2278.00
1398, 2277.00
1399, 2277.00
1400, 2276.00
1401, 2277.00
1402, 2276.00
1403, 2275.00
1404, 2273.00
1405, 2274.00
1406, 2275.00
1407, 2275.00
1408, 2273.00
1409, 2273.00
1410, 2274.00
1411, 2273.00
1412, 2275.00
1413, 2272.00
1414, 2271.00
1415, 2274.00
1416, 2272.00
1417, 2272.00
1418, 2272.00
1419, 2271.00
1420, 2271.00
1421, 2272.00
1422, 2272.00
1423, 2271.00
1424, 2272.00
1425, 2272.00
1426, 2272.00
1427, 2273.00
1428, 2273.00
1429, 2275.00
1430, 2274.00
1431, 2275.00
1432, 2274.00
1433, 2275.00
1434, 2276.00
1435, 2275.00
1436, 2275.00
1437, 2277.00
1438, 2275.00
1439, 2278.00
1440, 2279.00
1441, 2278.00
1442, 2280.00
1443, 2279.00
1444, 2281.00
1445, 2282.00
1446, 2282.00
1447, 2283.00
1448, 2284.00
1449, 2285.00
1450, 2285.00
1451, 2284.00
1452, 2286.00
1453, 2286.00
1454, 2287.00
1455, 2287.00
1456, 2289.00
1457, 2290.00
1458, 2290.00
1459, 2292.00
1460, 2292.00
1461, 2294.00
1462, 2295.00
1463, 2296.00
1464, 2297.00
1465, 2297.00
1466, 2299.00
1467, 2299.00
1468, 2300.00
1469, 2301.00
1470, 2303.00
1471, 2305.00
1472, 2305.00
1473, 2307.00
1474, 2309.00
1475, 2310.00
1476, 2311.00
1477, 2312.00
1478, 2313.00
1479, 2315.00
1480, 2316.00
1481, 2318.00
1482, 2318.00
1483, 2320.00
1484, 2323.00
1485, 2323.00
1486, 2326.00
1487, 2326.00
1488, 2328.00
1489, 2328.00
1490, 2330.00
1491, 2331.00
1492, 2334.00
1493, 2334.00
1494, 2337.00
1495, 2337.00
1496, 2338.00
1497, 2340.00
1498, 2341.00
1499, 2344.00
1500, 2345.00
1501, 2346.00
1502, 2348.00
1503, 2349.00
1504, 2351.00
1505, 2352.00
1506, 2354.00
1507, 2355.00
1508, 2357.00
1509, 2358.00
1510, 2359.00
1511, 2362.00
1512, 2362.00
1513, 2364.00
1514, 2367.00
1515, 2368.00
1516, 2370.00
1517, 2371.00
1518, 2374.00
1519, 2375.00
1520, 2376.00
1521, 2377.00
1522, 2380.00
1523, 2383.00
1524, 2382.00
1525, 2384.00
1526, 2387.00
1527, 2389.00
1528, 2392.00
1529, 2393.00
1530, 2394.00
1531, 2396.00
1532, 2398.00
1533, 2400.00
1534, 2403.00
1535, 2404.00
1536, 2405.00
1537, 2408.00
1538, 2409.00
1539, 2411.00
1540, 2414.00
1541, 2416.00
1542, 2416.00
1543, 2419.00
1544, 2422.00
1545, 2423.00
1546, 2425.00
1547, 2426.00
1548, 2429.00
1549, 2430.00
1550, 2433.00
1551, 2434.00
1552, 2436.00
1553, 2439.00
1554, 2439.00
1555, 2442.00
1556, 2444.00
1557, 2448.00
1558, 2449.00
1559, 2451.00
1560, 2453.00
1561, 2455.00
1562, 2457.00
1563, 2460.00
1564, 2462.00
1565, 2464.00
1566, 2466.00
1567, 2469.00
1568, 2470.00
1569, 2472.00
1570, 2475.00
1571, 2477.00
1572, 2478.00
1573, 2480.00
1574, 2483.00
1575, 2485.00
1576, 2488.00
1577, 2488.00
1578, 2490.00
1579, 2493.00
1580, 2493.00
1581, 2497.00
1582, 2498.00
1583, 2500.00
1584, 2502.00
1585, 2503.00
1586, 2504.00
1587, 2507.00
1588, 2509.00
1589, 2511.00
1590, 2513.00
1591, 2514.00
1592, 2516.00
1593, 2517.00
1594, 2519.00
1595, 2521.00
1596, 2522.00
1597, 2526.00
1598, 2527.00
1599, 2530.00
1600, 2531.00
1601, 2533.00
1602, 2535.00
1603, 2537.00
1604, 2540.00
1605, 2543.00
1606, 2543.00
1607, 2543.00
1608, 2548.00
1609, 2550.00
1610, 2553.00
1611, 2554.00
1612, 2556.00
1613, 2559.00
1614, 2562.00
1615, 2563.00
1616, 2565.00
1617, 2569.00
1618, 2570.00
1619, 2572.00
1620, 2574.00
1621, 2577.00
1622, 2580.00
1623, 2582.00
1624, 2584.00
1625, 2586.00
1626, 2588.00
1627, 2591.00
1628, 2593.00
1629, 2594.00
1630, 2596.00
1631, 2598.00
1632, 2601.00
1633, 2602.00
1634, 2605.00
1635, 2607.00
1636, 2609.00
1637, 2611.00
1638, 2613.00
1639, 2614.00
1640, 2617.00
1641, 2618.00
1642, 2619.00
1643, 2621.00
1644, 2623.00
1645, 2626.00
1646, 2628.00
1647, 2629.00
1648, 2630.00
1649, 2633.00
1650, 2634.00

1750, 3131.00
1751, 3131.00
1752, 3129.00
1753, 3129.00
1754, 3131.00
1755, 3131.00
1756, 3131.00
1757, 3129.00
1758, 3131.00
1759, 3131.00
1760, 3129.00
1761, 3130.00
1762, 3129.00
1763, 3129.00
1764, 3129.00
1765, 3129.00
1766, 3128.00
1767, 3127.00
1768, 3124.00
1769, 3126.00
1770, 3125.00
1771, 3125.00
1772, 3127.00
1773, 3124.00
1774, 3122.00
1775, 3122.00
1776, 3121.00
1777, 3121.00
1778, 3122.00
1779, 3120.00
1780, 3120.00
1781, 3119.00
1782, 3117.00
1783, 3117.00
1784, 3115.00
1785, 3115.00
1786, 3116.00
1787, 3113.00
1788, 3113.00
1789, 3111.00
1790, 3112.00
1791, 3110.00
1792, 3112.00
1793, 3111.00
1794, 3108.00
1795, 3108.00
1796, 3106.00
1797, 3105.00
1798, 3105.00
1799, 3105.00
1800, 3104.00
1801, 3104.00
1802, 3102.00
1803, 3103.00
1804, 3102.00
1805, 3102.00
1806, 3101.00
1807, 3100.00
1808, 3097.00
1809, 3097.00
1810, 3097.00
1811, 3094.00
1812, 3092.00
1813, 3093.00
1814, 3092.00
1815, 3090.00
1816, 3090.00
1817, 3088.00
1818, 3086.00
1819, 3086.00
1820, 3086.00
1821, 3083.00
1822, 3082.00
1823, 3079.00
1824, 3078.00
1825, 3076.00
1826, 3073.00
1827, 3073.00
1828, 3069.00
1829, 3067.00
1830, 3065.00
1831, 3063.00
1832, 3060.00
1833, 3057.00
1834, 3057.00
1835, 3051.00
1836, 3050.00
1837, 3047.00
1838, 3044.00
1839, 3041.00
1840, 3038.00
1841, 3034.00
1842, 3033.00
1843, 3027.00
1844, 3024.00
1845, 3020.00
1846, 3019.00
1847, 3014.00
1848, 3011.00
1849, 3009.00
1850, 3004.00
1851, 3001.00
1852, 2998.00
1853, 2997.00
1854, 2991.00
1855, 2987.00
1856, 2983.00
1857, 2981.00
1858, 2980.00
1859, 2975.00
1860, 2974.00
1861, 2970.00
1862, 2966.00
1863, 2968.00
1864, 2965.00
1865, 2961.00
1866, 2959.00
1867, 2956.00
1868, 2954.00
1869, 2952.00
1870, 2950.00
1871, 2949.00
1872, 2948.00
1873, 2944.00
1874, 2941.00
1875, 2943.00
1876, 2939.00
1877, 2938.00
1878, 2939.00
1879, 2936.00
1880, 2936.00
1881, 2935.00
1882, 2934.00
1883, 2931.00
1884, 2932.00
1885, 2930.00
1886, 2930.00
1887, 2928.00
1888, 2929.00
1889, 2927.00
1890, 2925.00
1891, 2927.00
1892, 2926.00
1893, 2923.00
1894, 2923.00
1895, 2922.00
1896, 2922.00
1897, 2921.00
1898, 2922.00
1899, 2920.00
1900, 2922.00
1901, 2920.00
1902, 2920.00
1903, 2918.00
1904, 2918.00
1905, 2919.00
1906, 2918.00
1907, 2917.00
1908, 2918.00
1909, 2919.00
1910, 2916.00
1911, 2916.00
1912, 2916.00
1913, 2917.00
1914, 2917.00
1915, 2916.00
1916, 2917.00
1917, 2915.00
1918, 2917.00
1919, 2914.00
1920, 2914.00
1921, 2915.00
1922, 2913.00
1923, 2914.00
1924, 2915.00
1925, 2915.00
1926, 2915.00
1927, 2915.00
1928, 2915.00
1929, 2915.00
1930, 2914.00
1931, 2915.00
1932, 2914.00
1933, 2913.00
1934, 2914.00
1935, 2915.00
1936, 2915.00
1937, 2915.00
1938, 2915.00
1939, 2914.00
1940, 2917.00
1941, 2914.00
1942, 2917.00
1943, 2917.00
1944, 2919.00
1945, 2917.00
1946, 2916.00
1947, 2918.00
1948, 2917.00
1949, 2918.00
1950, 2920.00
1951, 2920.00
1952, 2920.00
1953, 2919.00
1954, 2920.00
1955, 2921.00
1956, 2922.00
1957, 2921.00
1958, 2922.00
1959, 2923.00
1960, 2923.00
1961, 2925.00
1962, 2923.00
1963, 2925.00
1964, 2926.00
1965, 2926.00
1966, 2925.00
1967, 2929.00
1968, 2927.00
1969, 2929.00
1970, 2929.00
1971, 2930.00
1972, 2931.00
1973, 2929.00
1974, 2933.00
1975, 2932.00
1976, 2934.00
1977, 2934.00
1978, 2936.00
1979, 2936.00
1980, 2936.00
1981, 2937.00
1982, 2936.00
1983, 2939.00
1984, 2939.00
1985, 2940.00
1986, 2939.00
1987, 2940.00
1988, 2942.00
1989, 2943.00
1990, 2943.00
1991, 2945.00
1992, 2947.00
1993, 2947.00
1994, 2947.00
1995, 2949.00
1996, 2947.00
1997, 2949.00
1998, 2949.00
1999, 2950.00
2000, 2949.00
2001, 2953.00
2002, 2953.00
2003, 2954.00
2004, 2955.00
2005, 2955.00
2006, 2956.00
2007, 2957.00
2008, 2958.00
2009, 2958.00
2010, 2958.00
2011, 2959.00
2012, 2959.00
2013, 2962.00
2014, 2961.00
2015, 2963.00
2016, 2963.00
2017, 2965.00
2018, 2963.00
2019, 2963.00
2020, 2966.00
2021, 2968.00
2022, 2965.00
2023, 2968.00
2024, 2969.00
2025, 2970.00
2026, 2971.00
2027, 2971.00
2028, 2972.00
2029, 2973.00
2030, 2972.00
2031, 2975.00
2032, 2975.00
2033, 2978.00
2034, 2977.00
2035, 2979.00
2036, 2979.00
2037, 2979.00
2038, 2982.00
2039, 2983.00
2040, 2983.00
2041, 2984.00
2042, 2984.00
2043, 2986.00
2044, 2986.00
2045, 2987.00
2046, 2989.00
2047, 2989.00
2048, 2989.00
2049, 2989.00
2050, 2991.00
2051, 2996.00
2052, 2996.00
2053, 2999.00
2054, 2995.00
2055, 2998.00
2056, 3001.00
2057, 3003.00
2058, 3003.00
2059, 3004.00
2060, 3007.00
2061, 3006.00
2062, 3006.00
2063, 3008.00
2064, 3011.00
2065, 3011.00
2066, 3012.00
2067, 3013.00
2068, 3014.00
2069, 3016.00
2070, 3016.00
2071, 3019.00
2072, 3019.00
2073, 3019.00
2074, 3023.00
2075, 3022.00
2076, 3023.00
2077, 3026.00
2078, 3027.00
2079, 3027.00
2080, 3030.00
2081, 3028.00
2082, 3031.00
2083, 3033.00
2084, 3031.00
2085, 3034.00
2086, 3034.00
2087, 3035.00
2088, 3035.00
2089, 3037.00
2090, 3037.00
2091, 3037.00
2092, 3038.00
2093, 3040.00
2094, 3041.00
2095, 3040.00
2096, 3043.00
2097, 3043.00
2098, 3044.00
2099, 3045.00
2100, 3045.00
2101, 3047.00
2102, 3048.00
2103, 3049.00
2104, 3046.00
2105, 3051.00
2106, 3051.00
2107, 3049.00
2108, 3051.00
2109, 3052.00
2110, 3050.00
2111, 3052.00
2112, 3054.00
2113, 3054.00
2114, 3054.00
2115, 3052.00
2116, 3055.00
2117, 3057.00
2118, 3057.00
2119, 3058.00
2120, 3057.00
2121, 3058.00
2122, 3059.00
2123, 3059.00
2124, 3058.00
2125, 3061.00
2126, 3062.00
2127, 3062.00
2128, 3063.00
2129, 3063.00
2130, 3061.00
2131, 3062.00
2132, 3065.00
2133, 3063.00
2134, 3065.00
2135, 3066.00
2136, 3068.00
2137, 3068.00
2138, 3066.00
2139, 3067.00
2140, 3066.00
2141, 3069.00
2142, 3070.00
2143, 3069.00
2144, 3070.00
2145, 3071.00
2146, 3071.00
2147, 3073.00
2148, 3071.00
2149, 3073.00
2150, 3073.00
