FW version: 24
Log Version: 3.0.3

General Info:
       Command/Macro Performed,            Timestamp,             Device ID, COM Port, UART/I2C, Test Name, Host Major, Host Minor, Host Revision, Host Git Commit
            Single_measurement,  2023_06_27_11_44_52,       Insight2_F4_xxx,    USB-C,      USB,          ,          0,          1,             1,      4031237645

Show Spectrometer Status:
l0_version, f4_version, battery_perc, battery_mVolt, accelerometer_temp, accelerometer_x, accelerometer_y, accelerometer_z, compass_temp, compass_x, compass_y, compass_z, lamp_0, lamp_1, gain_0, gain_1
        17,         24,           95,          2078,               5360,              12,             180,           18488,            0,     65373,     65527,     65404,   2047,   2047,    1,    1

Temperature Statistic Info:
NTC AVG [°C], NTC2 AVG [°C]
      36.322,        36.004

Statistic Info:
M1:  num,      min,      max,   median,      AVG,      STD,M2:  num,      min,      max,   median,      AVG,      STD
     301,   753.00,   879.00,   781.00,   794.96,  38.9325,     401,  1128.00,  1203.00,  1160.00,  1162.52,  24.4492,

Measurements:
Wavelength, Data Amplitude
1350, 773.00
1351, 772.00
1352, 772.00
1353, 772.00
1354, 772.00
1355, 771.00
1356, 771.00
1357, 770.00
1358, 770.00
1359, 768.00
1360, 770.00
1361, 768.00
1362, 768.00
1363, 767.00
1364, 767.00
1365, 766.00
1366, 766.00
1367, 766.00
1368, 766.00
1369, 764.00
1370, 764.00
1371, 764.00
1372, 763.00
1373, 763.00
1374, 762.00
1375, 761.00
1376, 761.00
1377, 761.00
1378, 761.00
1379, 760.00
1380, 760.00
1381, 759.00
1382, 759.00
1383, 759.00
1384, 758.00
1385, 758.00
1386, 758.00
1387, 757.00
1388, 757.00
1389, 757.00
1390, 757.00
1391, 756.00
1392, 757.00
1393, 757.00
1394, 756.00
1395, 755.00
1396, 755.00
1397, 756.00
1398, 756.00
1399, 755.00
1400, 755.00
1401, 755.00
1402, 754.00
1403, 755.00
1404, 756.00
1405, 754.00
1406, 755.00
1407, 754.00
1408, 755.00
1409, 755.00
1410, 755.00
1411, 754.00
1412, 754.00
1413, 753.00
1414, 754.00
1415, 754.00
1416, 754.00
1417, 754.00
1418, 754.00
1419, 754.00
1420, 754.00
1421, 754.00
1422, 754.00
1423, 755.00
1424, 755.00
1425, 755.00
1426, 754.00
1427, 755.00
1428, 755.00
1429, 755.00
1430, 755.00
1431, 756.00
1432, 755.00
1433, 755.00
1434, 755.00
1435, 755.00
1436, 756.00
1437, 757.00
1438, 756.00
1439, 757.00
1440, 756.00
1441, 757.00
1442, 757.00
1443, 757.00
1444, 757.00
1445, 758.00
1446, 758.00
1447, 758.00
1448, 758.00
1449, 758.00
1450, 759.00
1451, 759.00
1452, 759.00
1453, 759.00
1454, 760.00
1455, 761.00
1456, 761.00
1457, 761.00
1458, 761.00
1459, 761.00
1460, 762.00
1461, 762.00
1462, 762.00
1463, 763.00
1464, 763.00
1465, 763.00
1466, 764.00
1467, 765.00
1468, 766.00
1469, 765.00
1470, 766.00
1471, 766.00
1472, 767.00
1473, 767.00
1474, 768.00
1475, 768.00
1476, 768.00
1477, 768.00
1478, 768.00
1479, 770.00
1480, 770.00
1481, 771.00
1482, 771.00
1483, 771.00
1484, 773.00
1485, 773.00
1486, 774.00
1487, 773.00
1488, 774.00
1489, 775.00
1490, 776.00
1491, 775.00
1492, 776.00
1493, 777.00
1494, 777.00
1495, 778.00
1496, 779.00
1497, 779.00
1498, 780.00
1499, 780.00
1500, 781.00
1501, 781.00
1502, 783.00
1503, 783.00
1504, 782.00
1505, 784.00
1506, 784.00
1507, 785.00
1508, 785.00
1509, 786.00
1510, 786.00
1511, 787.00
1512, 787.00
1513, 788.00
1514, 789.00
1515, 790.00
1516, 790.00
1517, 790.00
1518, 792.00
1519, 791.00
1520, 792.00
1521, 793.00
1522, 794.00
1523, 793.00
1524, 796.00
1525, 795.00
1526, 796.00
1527, 797.00
1528, 796.00
1529, 798.00
1530, 798.00
1531, 799.00
1532, 799.00
1533, 801.00
1534, 801.00
1535, 801.00
1536, 802.00
1537, 803.00
1538, 803.00
1539, 804.00
1540, 805.00
1541, 805.00
1542, 805.00
1543, 807.00
1544, 806.00
1545, 808.00
1546, 808.00
1547, 809.00
1548, 809.00
1549, 810.00
1550, 809.00
1551, 810.00
1552, 812.00
1553, 811.00
1554, 813.00
1555, 814.00
1556, 813.00
1557, 814.00
1558, 815.00
1559, 815.00
1560, 816.00
1561, 817.00
1562, 818.00
1563, 819.00
1564, 819.00
1565, 820.00
1566, 820.00
1567, 821.00
1568, 822.00
1569, 822.00
1570, 823.00
1571, 823.00
1572, 824.00
1573, 825.00
1574, 825.00
1575, 827.00
1576, 827.00
1577, 828.00
1578, 828.00
1579, 829.00
1580, 829.00
1581, 830.00
1582, 831.00
1583, 831.00
1584, 832.00
1585, 833.00
1586, 833.00
1587, 834.00
1588, 834.00
1589, 835.00
1590, 835.00
1591, 836.00
1592, 837.00
1593, 837.00
1594, 839.00
1595, 838.00
1596, 840.00
1597, 840.00
1598, 841.00
1599, 841.00
1600, 842.00
1601, 843.00
1602, 844.00
1603, 844.00
1604, 845.00
1605, 845.00
1606, 846.00
1607, 848.00
1608, 848.00
1609, 849.00
1610, 850.00
1611, 851.00
1612, 852.00
1613, 852.00
1614, 853.00
1615, 854.00
1616, 855.00
1617, 855.00
1618, 856.00
1619, 857.00
1620, 857.00
1621, 859.00
1622, 860.00
1623, 860.00
1624, 861.00
1625, 861.00
1626, 863.00
1627, 863.00
1628, 864.00
1629, 865.00
1630, 866.00
1631, 866.00
1632, 867.00
1633, 868.00
1634, 868.00
1635, 869.00
1636, 870.00
1637, 870.00
1638, 871.00
1639, 871.00
1640, 873.00
1641, 873.00
1642, 874.00
1643, 874.00
1644, 875.00
1645, 876.00
1646, 876.00
1647, 877.00
1648, 877.00
1649, 878.00
1650, 879.00

1750, 1201.00
1751, 1201.00
1752, 1203.00
1753, 1200.00
1754, 1201.00
1755, 1200.00
1756, 1200.00
1757, 1202.00
1758, 1203.00
1759, 1200.00
1760, 1201.00
1761, 1201.00
1762, 1203.00
1763, 1201.00
1764, 1201.00
1765, 1202.00
1766, 1202.00
1767, 1199.00
1768, 1200.00
1769, 1202.00
1770, 1200.00
1771, 1201.00
1772, 1201.00
1773, 1201.00
1774, 1202.00
1775, 1201.00
1776, 1200.00
1777, 1201.00
1778, 1201.00
1779, 1200.00
1780, 1199.00
1781, 1199.00
1782, 1199.00
1783, 1200.00
1784, 1198.00
1785, 1198.00
1786, 1198.00
1787, 1199.00
1788, 1198.00
1789, 1198.00
1790, 1198.00
1791, 1198.00
1792, 1197.00
1793, 1198.00
1794, 1198.00
1795, 1196.00
1796, 1195.00
1797, 1194.00
1798, 1196.00
1799, 1193.00
1800, 1195.00
1801, 1195.00
1802, 1194.00
1803, 1194.00
1804, 1194.00
1805, 1196.00
1806, 1193.00
1807, 1193.00
1808, 1195.00
1809, 1193.00
1810, 1194.00
1811, 1192.00
1812, 1192.00
1813, 1193.00
1814, 1192.00
1815, 1192.00
1816, 1192.00
1817, 1190.00
1818, 1190.00
1819, 1191.00
1820, 1192.00
1821, 1189.00
1822, 1190.00
1823, 1190.00
1824, 1189.00
1825, 1188.00
1826, 1185.00
1827, 1187.00
1828, 1184.00
1829, 1185.00
1830, 1185.00
1831, 1183.00
1832, 1182.00
1833, 1182.00
1834, 1180.00
1835, 1180.00
1836, 1179.00
1837, 1179.00
1838, 1178.00
1839, 1176.00
1840, 1176.00
1841, 1175.00
1842, 1173.00
1843, 1171.00
1844, 1170.00
1845, 1167.00
1846, 1169.00
1847, 1169.00
1848, 1166.00
1849, 1167.00
1850, 1164.00
1851, 1165.00
1852, 1160.00
1853, 1161.00
1854, 1158.00
1855, 1158.00
1856, 1157.00
1857, 1155.00
1858, 1156.00
1859, 1154.00
1860, 1153.00
1861, 1153.00
1862, 1150.00
1863, 1149.00
1864, 1149.00
1865, 1147.00
1866, 1147.00
1867, 1147.00
1868, 1146.00
1869, 1145.00
1870, 1143.00
1871, 1144.00
1872, 1143.00
1873, 1142.00
1874, 1141.00
1875, 1141.00
1876, 1138.00
1877, 1139.00
1878, 1140.00
1879, 1140.00
1880, 1138.00
1881, 1137.00
1882, 1138.00
1883, 1137.00
1884, 1137.00
1885, 1135.00
1886, 1135.00
1887, 1136.00
1888, 1136.00
1889, 1133.00
1890, 1137.00
1891, 1135.00
1892, 1134.00
1893, 1135.00
1894, 1134.00
1895, 1133.00
1896, 1134.00
1897, 1133.00
1898, 1134.00
1899, 1133.00
1900, 1132.00
1901, 1131.00
1902, 1131.00
1903, 1131.00
1904, 1131.00
1905, 1132.00
1906, 1133.00
1907, 1131.00
1908, 1132.00
1909, 1131.00
1910, 1132.00
1911, 1130.00
1912, 1131.00
1913, 1130.00
1914, 1130.00
1915, 1131.00
1916, 1130.00
1917, 1132.00
1918, 1129.00
1919, 1128.00
1920, 1131.00
1921, 1129.00
1922, 1130.00
1923, 1131.00
1924, 1130.00
1925, 1130.00
1926, 1131.00
1927, 1129.00
1928, 1130.00
1929, 1131.00
1930, 1131.00
1931, 1131.00
1932, 1130.00
1933, 1131.00
1934, 1131.00
1935, 1131.00
1936, 1130.00
1937, 1130.00
1938, 1130.00
1939, 1131.00
1940, 1129.00
1941, 1129.00
1942, 1132.00
1943, 1132.00
1944, 1132.00
1945, 1131.00
1946, 1133.00
1947, 1130.00
1948, 1131.00
1949, 1132.00
1950, 1132.00
1951, 1133.00
1952, 1132.00
1953, 1133.00
1954, 1132.00
1955, 1132.00
1956, 1133.00
1957, 1135.00
1958, 1133.00
1959, 1132.00
1960, 1134.00
1961, 1134.00
1962, 1135.00
1963, 1135.00
1964, 1135.00
1965, 1135.00
1966, 1135.00
1967, 1134.00
1968, 1136.00
1969, 1136.00
1970, 1135.00
1971, 1135.00
1972, 1135.00
1973, 1135.00
1974, 1137.00
1975, 1136.00
1976, 1137.00
1977, 1138.00
1978, 1138.00
1979, 1137.00
1980, 1137.00
1981, 1138.00
1982, 1139.00
1983, 1140.00
1984, 1139.00
1985, 1140.00
1986, 1141.00
1987, 1141.00
1988, 1140.00
1989, 1141.00
1990, 1141.00
1991, 1141.00
1992, 1142.00
1993, 1142.00
1994, 1142.00
1995, 1142.00
1996, 1143.00
1997, 1142.00
1998, 1143.00
1999, 1141.00
2000, 1143.00
2001, 1143.00
2002, 1146.00
2003, 1145.00
2004, 1145.00
2005, 1145.00
2006, 1144.00
2007, 1146.00
2008, 1147.00
2009, 1147.00
2010, 1145.00
2011, 1146.00
2012, 1145.00
2013, 1146.00
2014, 1146.00
2015, 1147.00
2016, 1149.00
2017, 1148.00
2018, 1149.00
2019, 1149.00
2020, 1149.00
2021, 1149.00
2022, 1150.00
2023, 1149.00
2024, 1152.00
2025, 1150.00
2026, 1150.00
2027, 1152.00
2028, 1152.00
2029, 1152.00
2030, 1150.00
2031, 1152.00
2032, 1154.00
2033, 1154.00
2034, 1153.00
2035, 1154.00
2036, 1153.00
2037, 1152.00
2038, 1154.00
2039, 1156.00
2040, 1155.00
2041, 1155.00
2042, 1156.00
2043, 1157.00
2044, 1158.00
2045, 1157.00
2046, 1157.00
2047, 1159.00
2048, 1159.00
2049, 1159.00
2050, 1158.00
2051, 1160.00
2052, 1160.00
2053, 1161.00
2054, 1161.00
2055, 1160.00
2056, 1161.00
2057, 1161.00
2058, 1163.00
2059, 1162.00
2060, 1165.00
2061, 1163.00
2062, 1165.00
2063, 1165.00
2064, 1166.00
2065, 1166.00
2066, 1165.00
2067, 1166.00
2068, 1167.00
2069, 1168.00
2070, 1167.00
2071, 1167.00
2072, 1169.00
2073, 1168.00
2074, 1170.00
2075, 1170.00
2076, 1169.00
2077, 1171.00
2078, 1171.00
2079, 1172.00
2080, 1172.00
2081, 1172.00
2082, 1173.00
2083, 1172.00
2084, 1174.00
2085, 1173.00
2086, 1175.00
2087, 1174.00
2088, 1175.00
2089, 1176.00
2090, 1176.00
2091, 1175.00
2092, 1175.00
2093, 1178.00
2094, 1176.00
2095, 1176.00
2096, 1177.00
2097, 1176.00
2098, 1178.00
2099, 1178.00
2100, 1178.00
2101, 1178.00
2102, 1180.00
2103, 1180.00
2104, 1179.00
2105, 1180.00
2106, 1179.00
2107, 1180.00
2108, 1180.00
2109, 1180.00
2110, 1182.00
2111, 1183.00
2112, 1182.00
2113, 1180.00
2114, 1184.00
2115, 1182.00
2116, 1183.00
2117, 1182.00
2118, 1181.00
2119, 1182.00
2120, 1184.00
2121, 1184.00
2122, 1184.00
2123, 1184.00
2124, 1184.00
2125, 1184.00
2126, 1184.00
2127, 1185.00
2128, 1184.00
2129, 1186.00
2130, 1186.00
2131, 1185.00
2132, 1187.00
2133, 1186.00
2134, 1185.00
2135, 1185.00
2136, 1185.00
2137, 1186.00
2138, 1187.00
2139, 1187.00
2140, 1188.00
2141, 1188.00
2142, 1187.00
2143, 1186.00
2144, 1187.00
2145, 1187.00
2146, 1186.00
2147, 1187.00
2148, 1187.00
2149, 1189.00
2150, 1187.00
