FW version: 24
Log Version: 3.0.3

General Info:
       Command/Macro Performed,            Timestamp,             Device ID, COM Port, UART/I2C, Test Name, Host Major, Host Minor, Host Revision, Host Git Commit
            Single_measurement,  2023_06_27_11_45_28,       Insight2_F4_xxx,    USB-C,      USB,          ,          0,          1,             1,      4031237645

Show Spectrometer Status:
l0_version, f4_version, battery_perc, battery_mVolt, accelerometer_temp, accelerometer_x, accelerometer_y, accelerometer_z, compass_temp, compass_x, compass_y, compass_z, lamp_0, lamp_1, gain_0, gain_1
        17,         24,           95,          2078,               5440,              16,             176,           18472,            0,     65362,     65527,     65384,   3276,   3276,    1,    1

Temperature Statistic Info:
NTC AVG [°C], NTC2 AVG [°C]
      36.693,        36.408

Statistic Info:
M1:  num,      min,      max,   median,      AVG,      STD,M2:  num,      min,      max,   median,      AVG,      STD
     301,  1877.00,  2154.00,  1933.00,  1967.69,  85.3259,     401,  2479.00,  2641.00,  2543.00,  2548.71,  52.3815,

Measurements:
Wavelength, Data Amplitude
1350, 1930.00
1351, 1931.00
1352, 1928.00
1353, 1927.00
1354, 1926.00
1355, 1925.00
1356, 1925.00
1357, 1924.00
1358, 1923.00
1359, 1921.00
1360, 1919.00
1361, 1918.00
1362, 1918.00
1363, 1917.00
1364, 1915.00
1365, 1914.00
1366, 1913.00
1367, 1911.00
1368, 1911.00
1369, 1909.00
1370, 1907.00
1371, 1905.00
1372, 1904.00
1373, 1902.00
1374, 1901.00
1375, 1900.00
1376, 1899.00
1377, 1897.00
1378, 1896.00
1379, 1895.00
1380, 1895.00
1381, 1893.00
1382, 1892.00
1383, 1892.00
1384, 1891.00
1385, 1890.00
1386, 1889.00
1387, 1888.00
1388, 1887.00
1389, 1888.00
1390, 1887.00
1391, 1886.00
1392, 1885.00
1393, 1885.00
1394, 1884.00
1395, 1883.00
1396, 1884.00
1397, 1883.00
1398, 1883.00
1399, 1883.00
1400, 1881.00
1401, 1881.00
1402, 1881.00
1403, 1881.00
1404, 1880.00
1405, 1881.00
1406, 1881.00
1407, 1880.00
1408, 1879.00
1409, 1879.00
1410, 1878.00
1411, 1879.00
1412, 1879.00
1413, 1878.00
1414, 1880.00
1415, 1878.00
1416, 1879.00
1417, 1878.00
1418, 1878.00
1419, 1877.00
1420, 1879.00
1421, 1878.00
1422, 1878.00
1423, 1878.00
1424, 1878.00
1425, 1877.00
1426, 1879.00
1427, 1878.00
1428, 1879.00
1429, 1879.00
1430, 1879.00
1431, 1879.00
1432, 1880.00
1433, 1879.00
1434, 1880.00
1435, 1881.00
1436, 1880.00
1437, 1882.00
1438, 1881.00
1439, 1881.00
1440, 1882.00
1441, 1882.00
1442, 1884.00
1443, 1883.00
1444, 1884.00
1445, 1885.00
1446, 1885.00
1447, 1887.00
1448, 1887.00
1449, 1887.00
1450, 1888.00
1451, 1887.00
1452, 1888.00
1453, 1889.00
1454, 1889.00
1455, 1890.00
1456, 1890.00
1457, 1891.00
1458, 1892.00
1459, 1893.00
1460, 1894.00
1461, 1894.00
1462, 1895.00
1463, 1895.00
1464, 1897.00
1465, 1897.00
1466, 1898.00
1467, 1899.00
1468, 1899.00
1469, 1899.00
1470, 1901.00
1471, 1902.00
1472, 1903.00
1473, 1903.00
1474, 1904.00
1475, 1907.00
1476, 1905.00
1477, 1908.00
1478, 1910.00
1479, 1910.00
1480, 1911.00
1481, 1912.00
1482, 1913.00
1483, 1913.00
1484, 1916.00
1485, 1917.00
1486, 1918.00
1487, 1918.00
1488, 1919.00
1489, 1921.00
1490, 1923.00
1491, 1923.00
1492, 1924.00
1493, 1924.00
1494, 1926.00
1495, 1928.00
1496, 1928.00
1497, 1929.00
1498, 1931.00
1499, 1931.00
1500, 1933.00
1501, 1934.00
1502, 1935.00
1503, 1937.00
1504, 1938.00
1505, 1939.00
1506, 1940.00
1507, 1941.00
1508, 1943.00
1509, 1943.00
1510, 1945.00
1511, 1946.00
1512, 1947.00
1513, 1948.00
1514, 1950.00
1515, 1951.00
1516, 1952.00
1517, 1954.00
1518, 1954.00
1519, 1957.00
1520, 1958.00
1521, 1959.00
1522, 1960.00
1523, 1961.00
1524, 1962.00
1525, 1964.00
1526, 1966.00
1527, 1966.00
1528, 1969.00
1529, 1969.00
1530, 1971.00
1531, 1973.00
1532, 1974.00
1533, 1975.00
1534, 1976.00
1535, 1976.00
1536, 1979.00
1537, 1979.00
1538, 1981.00
1539, 1983.00
1540, 1984.00
1541, 1985.00
1542, 1987.00
1543, 1988.00
1544, 1989.00
1545, 1992.00
1546, 1992.00
1547, 1994.00
1548, 1994.00
1549, 1996.00
1550, 1999.00
1551, 1999.00
1552, 2000.00
1553, 2003.00
1554, 2004.00
1555, 2005.00
1556, 2007.00
1557, 2009.00
1558, 2010.00
1559, 2010.00
1560, 2013.00
1561, 2014.00
1562, 2016.00
1563, 2017.00
1564, 2020.00
1565, 2021.00
1566, 2023.00
1567, 2024.00
1568, 2025.00
1569, 2028.00
1570, 2029.00
1571, 2030.00
1572, 2031.00
1573, 2034.00
1574, 2036.00
1575, 2038.00
1576, 2039.00
1577, 2040.00
1578, 2042.00
1579, 2043.00
1580, 2045.00
1581, 2045.00
1582, 2048.00
1583, 2049.00
1584, 2050.00
1585, 2052.00
1586, 2053.00
1587, 2055.00
1588, 2056.00
1589, 2057.00
1590, 2059.00
1591, 2060.00
1592, 2062.00
1593, 2063.00
1594, 2065.00
1595, 2066.00
1596, 2067.00
1597, 2068.00
1598, 2070.00
1599, 2071.00
1600, 2072.00
1601, 2074.00
1602, 2075.00
1603, 2077.00
1604, 2079.00
1605, 2080.00
1606, 2082.00
1607, 2083.00
1608, 2085.00
1609, 2087.00
1610, 2088.00
1611, 2090.00
1612, 2092.00
1613, 2094.00
1614, 2095.00
1615, 2097.00
1616, 2099.00
1617, 2101.00
1618, 2101.00
1619, 2105.00
1620, 2105.00
1621, 2107.00
1622, 2110.00
1623, 2111.00
1624, 2113.00
1625, 2115.00
1626, 2116.00
1627, 2118.00
1628, 2120.00
1629, 2121.00
1630, 2124.00
1631, 2125.00
1632, 2127.00
1633, 2129.00
1634, 2129.00
1635, 2131.00
1636, 2133.00
1637, 2135.00
1638, 2136.00
1639, 2137.00
1640, 2138.00
1641, 2140.00
1642, 2141.00
1643, 2142.00
1644, 2144.00
1645, 2146.00
1646, 2146.00
1647, 2148.00
1648, 2149.00
1649, 2151.00
1650, 2154.00

1750, 2640.00
1751, 2637.00
1752, 2640.00
1753, 2640.00
1754, 2639.00
1755, 2640.00
1756, 2641.00
1757, 2640.00
1758, 2638.00
1759, 2638.00
1760, 2639.00
1761, 2639.00
1762, 2639.00
1763, 2638.00
1764, 2637.00
1765, 2638.00
1766, 2639.00
1767, 2639.00
1768, 2638.00
1769, 2638.00
1770, 2638.00
1771, 2638.00
1772, 2637.00
1773, 2636.00
1774, 2636.00
1775, 2634.00
1776, 2633.00
1777, 2635.00
1778, 2632.00
1779, 2634.00
1780, 2634.00
1781, 2634.00
1782, 2632.00
1783, 2631.00
1784, 2630.00
1785, 2629.00
1786, 2630.00
1787, 2629.00
1788, 2626.00
1789, 2628.00
1790, 2627.00
1791, 2627.00
1792, 2625.00
1793, 2625.00
1794, 2626.00
1795, 2624.00
1796, 2624.00
1797, 2623.00
1798, 2623.00
1799, 2621.00
1800, 2621.00
1801, 2621.00
1802, 2621.00
1803, 2620.00
1804, 2621.00
1805, 2619.00
1806, 2617.00
1807, 2617.00
1808, 2617.00
1809, 2615.00
1810, 2617.00
1811, 2617.00
1812, 2614.00
1813, 2614.00
1814, 2615.00
1815, 2613.00
1816, 2613.00
1817, 2611.00
1818, 2610.00
1819, 2610.00
1820, 2610.00
1821, 2609.00
1822, 2607.00
1823, 2606.00
1824, 2607.00
1825, 2601.00
1826, 2602.00
1827, 2601.00
1828, 2601.00
1829, 2597.00
1830, 2596.00
1831, 2594.00
1832, 2594.00
1833, 2589.00
1834, 2588.00
1835, 2587.00
1836, 2585.00
1837, 2583.00
1838, 2581.00
1839, 2578.00
1840, 2578.00
1841, 2577.00
1842, 2574.00
1843, 2571.00
1844, 2567.00
1845, 2567.00
1846, 2563.00
1847, 2561.00
1848, 2560.00
1849, 2555.00
1850, 2553.00
1851, 2550.00
1852, 2547.00
1853, 2545.00
1854, 2543.00
1855, 2539.00
1856, 2539.00
1857, 2538.00
1858, 2533.00
1859, 2532.00
1860, 2531.00
1861, 2524.00
1862, 2525.00
1863, 2523.00
1864, 2522.00
1865, 2519.00
1866, 2517.00
1867, 2514.00
1868, 2513.00
1869, 2513.00
1870, 2512.00
1871, 2508.00
1872, 2508.00
1873, 2507.00
1874, 2503.00
1875, 2505.00
1876, 2502.00
1877, 2503.00
1878, 2501.00
1879, 2500.00
1880, 2497.00
1881, 2498.00
1882, 2497.00
1883, 2495.00
1884, 2495.00
1885, 2494.00
1886, 2493.00
1887, 2492.00
1888, 2493.00
1889, 2491.00
1890, 2491.00
1891, 2491.00
1892, 2490.00
1893, 2490.00
1894, 2489.00
1895, 2488.00
1896, 2487.00
1897, 2488.00
1898, 2488.00
1899, 2485.00
1900, 2487.00
1901, 2486.00
1902, 2487.00
1903, 2483.00
1904, 2484.00
1905, 2486.00
1906, 2483.00
1907, 2484.00
1908, 2483.00
1909, 2482.00
1910, 2483.00
1911, 2483.00
1912, 2483.00
1913, 2483.00
1914, 2482.00
1915, 2481.00
1916, 2483.00
1917, 2481.00
1918, 2481.00
1919, 2481.00
1920, 2481.00
1921, 2482.00
1922, 2479.00
1923, 2481.00
1924, 2482.00
1925, 2479.00
1926, 2482.00
1927, 2481.00
1928, 2481.00
1929, 2480.00
1930, 2479.00
1931, 2483.00
1932, 2481.00
1933, 2480.00
1934, 2482.00
1935, 2482.00
1936, 2482.00
1937, 2481.00
1938, 2481.00
1939, 2483.00
1940, 2482.00
1941, 2481.00
1942, 2480.00
1943, 2483.00
1944, 2483.00
1945, 2482.00
1946, 2483.00
1947, 2483.00
1948, 2485.00
1949, 2484.00
1950, 2484.00
1951, 2484.00
1952, 2483.00
1953, 2485.00
1954, 2486.00
1955, 2486.00
1956, 2486.00
1957, 2486.00
1958, 2487.00
1959, 2488.00
1960, 2488.00
1961, 2488.00
1962, 2488.00
1963, 2488.00
1964, 2488.00
1965, 2491.00
1966, 2489.00
1967, 2492.00
1968, 2491.00
1969, 2490.00
1970, 2492.00
1971, 2493.00
1972, 2494.00
1973, 2494.00
1974, 2494.00
1975, 2496.00
1976, 2494.00
1977, 2496.00
1978, 2496.00
1979, 2497.00
1980, 2497.00
1981, 2498.00
1982, 2499.00
1983, 2497.00
1984, 2498.00
1985, 2500.00
1986, 2502.00
1987, 2502.00
1988, 2504.00
1989, 2503.00
1990, 2501.00
1991, 2505.00
1992, 2504.00
1993, 2502.00
1994, 2506.00
1995, 2506.00
1996, 2506.00
1997, 2506.00
1998, 2508.00
1999, 2507.00
2000, 2509.00
2001, 2508.00
2002, 2509.00
2003, 2509.00
2004, 2509.00
2005, 2511.00
2006, 2511.00
2007, 2511.00
2008, 2513.00
2009, 2513.00
2010, 2513.00
2011, 2514.00
2012, 2514.00
2013, 2517.00
2014, 2515.00
2015, 2515.00
2016, 2517.00
2017, 2517.00
2018, 2518.00
2019, 2518.00
2020, 2520.00
2021, 2519.00
2022, 2520.00
2023, 2519.00
2024, 2522.00
2025, 2522.00
2026, 2523.00
2027, 2522.00
2028, 2524.00
2029, 2524.00
2030, 2525.00
2031, 2525.00
2032, 2525.00
2033, 2528.00
2034, 2528.00
2035, 2528.00
2036, 2530.00
2037, 2531.00
2038, 2530.00
2039, 2533.00
2040, 2532.00
2041, 2531.00
2042, 2532.00
2043, 2535.00
2044, 2533.00
2045, 2536.00
2046, 2537.00
2047, 2537.00
2048, 2538.00
2049, 2539.00
2050, 2540.00
2051, 2541.00
2052, 2541.00
2053, 2541.00
2054, 2543.00
2055, 2544.00
2056, 2546.00
2057, 2547.00
2058, 2547.00
2059, 2547.00
2060, 2548.00
2061, 2548.00
2062, 2550.00
2063, 2551.00
2064, 2552.00
2065, 2551.00
2066, 2555.00
2067, 2552.00
2068, 2556.00
2069, 2555.00
2070, 2556.00
2071, 2557.00
2072, 2560.00
2073, 2560.00
2074, 2560.00
2075, 2560.00
2076, 2561.00
2077, 2563.00
2078, 2563.00
2079, 2565.00
2080, 2565.00
2081, 2565.00
2082, 2566.00
2083, 2567.00
2084, 2568.00
2085, 2568.00
2086, 2570.00
2087, 2570.00
2088, 2569.00
2089, 2572.00
2090, 2572.00
2091, 2571.00
2092, 2572.00
2093, 2574.00
2094, 2576.00
2095, 2576.00
2096, 2576.00
2097, 2577.00
2098, 2576.00
2099, 2576.00
2100, 2579.00
2101, 2579.00
2102, 2580.00
2103, 2580.00
2104, 2581.00
2105, 2581.00
2106, 2580.00
2107, 2582.00
2108, 2582.00
2109, 2581.00
2110, 2582.00
2111, 2582.00
2112, 2584.00
2113, 2584.00
2114, 2584.00
2115, 2584.00
2116, 2584.00
2117, 2586.00
2118, 2585.00
2119, 2587.00
2120, 2586.00
2121, 2587.00
2122, 2587.00
2123, 2587.00
2124, 2590.00
2125, 2589.00
2126, 2587.00
2127, 2588.00
2128, 2588.00
2129, 2589.00
2130, 2589.00
2131, 2591.00
2132, 2591.00
2133, 2592.00
2134, 2591.00
2135, 2593.00
2136, 2592.00
2137, 2593.00
2138, 2592.00
2139, 2596.00
2140, 2595.00
2141, 2594.00
2142, 2593.00
2143, 2594.00
2144, 2596.00
2145, 2594.00
2146, 2595.00
2147, 2595.00
2148, 2597.00
2149, 2596.00
2150, 2595.00
