FW version: 24
Log Version: 3.0.3

General Info:
       Command/Macro Performed,            Timestamp,             Device ID, COM Port, UART/I2C, Test Name, Host Major, Host Minor, Host Revision, Host Git Commit
            Single_measurement,  2023_06_27_11_44_57,       Insight2_F4_xxx,    USB-C,      USB,          ,          0,          1,             1,      4031237645

Show Spectrometer Status:
l0_version, f4_version, battery_perc, battery_mVolt, accelerometer_temp, accelerometer_x, accelerometer_y, accelerometer_z, compass_temp, compass_x, compass_y, compass_z, lamp_0, lamp_1, gain_0, gain_1
        17,         24,           95,          2079,               5360,           65404,           65496,           18468,            0,     65405,     65503,     65388,   2047,   2047,    1,    1

Temperature Statistic Info:
NTC AVG [°C], NTC2 AVG [°C]
      36.351,        36.091

Statistic Info:
M1:  num,      min,      max,   median,      AVG,      STD,M2:  num,      min,      max,   median,      AVG,      STD
     301,   753.00,   879.00,   780.00,   794.21,  38.9133,     401,  1127.00,  1203.00,  1160.00,  1161.54,  24.4629,

Measurements:
Wavelength, Data Amplitude
1350, 772.00
1351, 771.00
1352, 771.00
1353, 771.00
1354, 770.00
1355, 770.00
1356, 770.00
1357, 769.00
1358, 770.00
1359, 769.00
1360, 768.00
1361, 767.00
1362, 768.00
1363, 768.00
1364, 766.00
1365, 765.00
1366, 764.00
1367, 765.00
1368, 764.00
1369, 763.00
1370, 763.00
1371, 763.00
1372, 761.00
1373, 762.00
1374, 761.00
1375, 762.00
1376, 760.00
1377, 761.00
1378, 759.00
1379, 760.00
1380, 757.00
1381, 759.00
1382, 759.00
1383, 757.00
1384, 758.00
1385, 757.00
1386, 756.00
1387, 756.00
1388, 756.00
1389, 756.00
1390, 756.00
1391, 755.00
1392, 756.00
1393, 755.00
1394, 754.00
1395, 755.00
1396, 756.00
1397, 755.00
1398, 754.00
1399, 755.00
1400, 755.00
1401, 754.00
1402, 755.00
1403, 753.00
1404, 754.00
1405, 754.00
1406, 754.00
1407, 753.00
1408, 753.00
1409, 754.00
1410, 754.00
1411, 754.00
1412, 754.00
1413, 754.00
1414, 753.00
1415, 754.00
1416, 753.00
1417, 754.00
1418, 753.00
1419, 753.00
1420, 753.00
1421, 753.00
1422, 753.00
1423, 754.00
1424, 754.00
1425, 754.00
1426, 754.00
1427, 754.00
1428, 754.00
1429, 754.00
1430, 755.00
1431, 755.00
1432, 756.00
1433, 754.00
1434, 755.00
1435, 755.00
1436, 756.00
1437, 755.00
1438, 755.00
1439, 756.00
1440, 756.00
1441, 756.00
1442, 757.00
1443, 757.00
1444, 757.00
1445, 756.00
1446, 757.00
1447, 758.00
1448, 759.00
1449, 758.00
1450, 759.00
1451, 759.00
1452, 759.00
1453, 759.00
1454, 759.00
1455, 760.00
1456, 759.00
1457, 760.00
1458, 761.00
1459, 761.00
1460, 762.00
1461, 762.00
1462, 762.00
1463, 762.00
1464, 762.00
1465, 763.00
1466, 764.00
1467, 764.00
1468, 765.00
1469, 764.00
1470, 766.00
1471, 766.00
1472, 766.00
1473, 766.00
1474, 766.00
1475, 768.00
1476, 768.00
1477, 767.00
1478, 769.00
1479, 770.00
1480, 770.00
1481, 770.00
1482, 770.00
1483, 771.00
1484, 771.00
1485, 772.00
1486, 772.00
1487, 773.00
1488, 774.00
1489, 773.00
1490, 776.00
1491, 776.00
1492, 776.00
1493, 776.00
1494, 776.00
1495, 777.00
1496, 777.00
1497, 779.00
1498, 779.00
1499, 780.00
1500, 780.00
1501, 781.00
1502, 781.00
1503, 781.00
1504, 782.00
1505, 783.00
1506, 783.00
1507, 784.00
1508, 784.00
1509, 785.00
1510, 786.00
1511, 785.00
1512, 787.00
1513, 787.00
1514, 788.00
1515, 789.00
1516, 789.00
1517, 789.00
1518, 791.00
1519, 791.00
1520, 791.00
1521, 792.00
1522, 793.00
1523, 793.00
1524, 794.00
1525, 795.00
1526, 795.00
1527, 797.00
1528, 797.00
1529, 798.00
1530, 797.00
1531, 798.00
1532, 800.00
1533, 800.00
1534, 800.00
1535, 800.00
1536, 801.00
1537, 802.00
1538, 802.00
1539, 803.00
1540, 804.00
1541, 804.00
1542, 804.00
1543, 804.00
1544, 805.00
1545, 806.00
1546, 807.00
1547, 808.00
1548, 808.00
1549, 809.00
1550, 809.00
1551, 810.00
1552, 810.00
1553, 812.00
1554, 811.00
1555, 811.00
1556, 812.00
1557, 813.00
1558, 814.00
1559, 815.00
1560, 815.00
1561, 817.00
1562, 817.00
1563, 817.00
1564, 818.00
1565, 819.00
1566, 819.00
1567, 820.00
1568, 821.00
1569, 822.00
1570, 823.00
1571, 823.00
1572, 823.00
1573, 824.00
1574, 825.00
1575, 826.00
1576, 826.00
1577, 827.00
1578, 828.00
1579, 828.00
1580, 829.00
1581, 829.00
1582, 830.00
1583, 830.00
1584, 832.00
1585, 832.00
1586, 832.00
1587, 833.00
1588, 834.00
1589, 835.00
1590, 836.00
1591, 835.00
1592, 836.00
1593, 837.00
1594, 838.00
1595, 838.00
1596, 839.00
1597, 840.00
1598, 840.00
1599, 841.00
1600, 842.00
1601, 842.00
1602, 843.00
1603, 843.00
1604, 845.00
1605, 845.00
1606, 845.00
1607, 846.00
1608, 847.00
1609, 847.00
1610, 849.00
1611, 850.00
1612, 850.00
1613, 851.00
1614, 852.00
1615, 852.00
1616, 854.00
1617, 855.00
1618, 854.00
1619, 855.00
1620, 856.00
1621, 857.00
1622, 859.00
1623, 860.00
1624, 859.00
1625, 861.00
1626, 861.00
1627, 863.00
1628, 863.00
1629, 864.00
1630, 865.00
1631, 865.00
1632, 867.00
1633, 867.00
1634, 867.00
1635, 868.00
1636, 870.00
1637, 870.00
1638, 871.00
1639, 871.00
1640, 872.00
1641, 871.00
1642, 874.00
1643, 874.00
1644, 875.00
1645, 875.00
1646, 876.00
1647, 877.00
1648, 877.00
1649, 877.00
1650, 879.00

1750, 1200.00
1751, 1201.00
1752, 1200.00
1753, 1199.00
1754, 1200.00
1755, 1200.00
1756, 1202.00
1757, 1202.00
1758, 1202.00
1759, 1199.00
1760, 1200.00
1761, 1200.00
1762, 1203.00
1763, 1201.00
1764, 1200.00
1765, 1199.00
1766, 1201.00
1767, 1199.00
1768, 1199.00
1769, 1201.00
1770, 1201.00
1771, 1202.00
1772, 1201.00
1773, 1198.00
1774, 1200.00
1775, 1201.00
1776, 1199.00
1777, 1197.00
1778, 1199.00
1779, 1199.00
1780, 1199.00
1781, 1198.00
1782, 1197.00
1783, 1197.00
1784, 1198.00
1785, 1199.00
1786, 1197.00
1787, 1197.00
1788, 1195.00
1789, 1198.00
1790, 1196.00
1791, 1197.00
1792, 1195.00
1793, 1195.00
1794, 1196.00
1795, 1196.00
1796, 1193.00
1797, 1193.00
1798, 1195.00
1799, 1193.00
1800, 1193.00
1801, 1194.00
1802, 1194.00
1803, 1194.00
1804, 1193.00
1805, 1192.00
1806, 1194.00
1807, 1193.00
1808, 1192.00
1809, 1192.00
1810, 1191.00
1811, 1192.00
1812, 1191.00
1813, 1190.00
1814, 1190.00
1815, 1191.00
1816, 1189.00
1817, 1190.00
1818, 1190.00
1819, 1189.00
1820, 1189.00
1821, 1189.00
1822, 1187.00
1823, 1188.00
1824, 1186.00
1825, 1188.00
1826, 1184.00
1827, 1185.00
1828, 1185.00
1829, 1182.00
1830, 1183.00
1831, 1181.00
1832, 1182.00
1833, 1180.00
1834, 1180.00
1835, 1178.00
1836, 1177.00
1837, 1177.00
1838, 1177.00
1839, 1174.00
1840, 1174.00
1841, 1173.00
1842, 1172.00
1843, 1170.00
1844, 1169.00
1845, 1169.00
1846, 1168.00
1847, 1168.00
1848, 1164.00
1849, 1164.00
1850, 1162.00
1851, 1160.00
1852, 1161.00
1853, 1160.00
1854, 1157.00
1855, 1156.00
1856, 1156.00
1857, 1155.00
1858, 1153.00
1859, 1152.00
1860, 1151.00
1861, 1152.00
1862, 1149.00
1863, 1149.00
1864, 1149.00
1865, 1147.00
1866, 1146.00
1867, 1146.00
1868, 1145.00
1869, 1143.00
1870, 1143.00
1871, 1143.00
1872, 1142.00
1873, 1141.00
1874, 1140.00
1875, 1139.00
1876, 1138.00
1877, 1138.00
1878, 1138.00
1879, 1138.00
1880, 1138.00
1881, 1138.00
1882, 1136.00
1883, 1135.00
1884, 1136.00
1885, 1136.00
1886, 1134.00
1887, 1136.00
1888, 1134.00
1889, 1134.00
1890, 1133.00
1891, 1133.00
1892, 1134.00
1893, 1133.00
1894, 1132.00
1895, 1131.00
1896, 1132.00
1897, 1133.00
1898, 1133.00
1899, 1132.00
1900, 1131.00
1901, 1133.00
1902, 1131.00
1903, 1132.00
1904, 1131.00
1905, 1131.00
1906, 1131.00
1907, 1131.00
1908, 1130.00
1909, 1131.00
1910, 1130.00
1911, 1129.00
1912, 1129.00
1913, 1130.00
1914, 1130.00
1915, 1129.00
1916, 1129.00
1917, 1128.00
1918, 1130.00
1919, 1130.00
1920, 1129.00
1921, 1130.00
1922, 1129.00
1923, 1127.00
1924, 1128.00
1925, 1128.00
1926, 1129.00
1927, 1128.00
1928, 1130.00
1929, 1130.00
1930, 1129.00
1931, 1130.00
1932, 1132.00
1933, 1128.00
1934, 1128.00
1935, 1129.00
1936, 1129.00
1937, 1127.00
1938, 1130.00
1939, 1129.00
1940, 1129.00
1941, 1129.00
1942, 1131.00
1943, 1132.00
1944, 1129.00
1945, 1130.00
1946, 1131.00
1947, 1131.00
1948, 1132.00
1949, 1131.00
1950, 1131.00
1951, 1131.00
1952, 1130.00
1953, 1131.00
1954, 1132.00
1955, 1130.00
1956, 1132.00
1957, 1131.00
1958, 1134.00
1959, 1132.00
1960, 1133.00
1961, 1132.00
1962, 1135.00
1963, 1133.00
1964, 1135.00
1965, 1134.00
1966, 1135.00
1967, 1134.00
1968, 1134.00
1969, 1134.00
1970, 1134.00
1971, 1135.00
1972, 1134.00
1973, 1134.00
1974, 1136.00
1975, 1136.00
1976, 1136.00
1977, 1136.00
1978, 1137.00
1979, 1138.00
1980, 1138.00
1981, 1138.00
1982, 1138.00
1983, 1139.00
1984, 1139.00
1985, 1137.00
1986, 1139.00
1987, 1141.00
1988, 1140.00
1989, 1141.00
1990, 1140.00
1991, 1140.00
1992, 1141.00
1993, 1140.00
1994, 1142.00
1995, 1142.00
1996, 1141.00
1997, 1141.00
1998, 1141.00
1999, 1142.00
2000, 1142.00
2001, 1143.00
2002, 1145.00
2003, 1143.00
2004, 1145.00
2005, 1145.00
2006, 1146.00
2007, 1144.00
2008, 1146.00
2009, 1143.00
2010, 1145.00
2011, 1145.00
2012, 1146.00
2013, 1147.00
2014, 1146.00
2015, 1147.00
2016, 1147.00
2017, 1146.00
2018, 1146.00
2019, 1147.00
2020, 1149.00
2021, 1148.00
2022, 1148.00
2023, 1148.00
2024, 1150.00
2025, 1149.00
2026, 1149.00
2027, 1150.00
2028, 1151.00
2029, 1151.00
2030, 1149.00
2031, 1151.00
2032, 1151.00
2033, 1151.00
2034, 1153.00
2035, 1152.00
2036, 1153.00
2037, 1154.00
2038, 1152.00
2039, 1152.00
2040, 1153.00
2041, 1154.00
2042, 1154.00
2043, 1155.00
2044, 1156.00
2045, 1157.00
2046, 1156.00
2047, 1155.00
2048, 1158.00
2049, 1158.00
2050, 1159.00
2051, 1158.00
2052, 1158.00
2053, 1159.00
2054, 1160.00
2055, 1161.00
2056, 1161.00
2057, 1161.00
2058, 1161.00
2059, 1162.00
2060, 1162.00
2061, 1163.00
2062, 1163.00
2063, 1163.00
2064, 1164.00
2065, 1164.00
2066, 1165.00
2067, 1165.00
2068, 1167.00
2069, 1167.00
2070, 1167.00
2071, 1168.00
2072, 1168.00
2073, 1168.00
2074, 1168.00
2075, 1169.00
2076, 1168.00
2077, 1170.00
2078, 1171.00
2079, 1170.00
2080, 1171.00
2081, 1172.00
2082, 1170.00
2083, 1171.00
2084, 1173.00
2085, 1172.00
2086, 1175.00
2087, 1173.00
2088, 1175.00
2089, 1175.00
2090, 1174.00
2091, 1176.00
2092, 1175.00
2093, 1176.00
2094, 1177.00
2095, 1177.00
2096, 1177.00
2097, 1178.00
2098, 1177.00
2099, 1177.00
2100, 1178.00
2101, 1178.00
2102, 1179.00
2103, 1177.00
2104, 1179.00
2105, 1179.00
2106, 1181.00
2107, 1179.00
2108, 1180.00
2109, 1181.00
2110, 1180.00
2111, 1180.00
2112, 1180.00
2113, 1181.00
2114, 1182.00
2115, 1181.00
2116, 1182.00
2117, 1181.00
2118, 1181.00
2119, 1182.00
2120, 1183.00
2121, 1182.00
2122, 1184.00
2123, 1184.00
2124, 1182.00
2125, 1182.00
2126, 1184.00
2127, 1184.00
2128, 1185.00
2129, 1184.00
2130, 1185.00
2131, 1185.00
2132, 1186.00
2133, 1184.00
2134, 1184.00
2135, 1187.00
2136, 1185.00
2137, 1186.00
2138, 1188.00
2139, 1187.00
2140, 1186.00
2141, 1187.00
2142, 1186.00
2143, 1186.00
2144, 1187.00
2145, 1187.00
2146, 1187.00
2147, 1186.00
2148, 1187.00
2149, 1189.00
2150, 1187.00
