FW version: 24
Log Version: 3.0.3

General Info:
       Command/Macro Performed,            Timestamp,             Device ID, COM Port, UART/I2C, Test Name, Host Major, Host Minor, Host Revision, Host Git Commit
            Single_measurement,  2023_06_27_11_45_31,       Insight2_F4_xxx,    USB-C,      USB,          ,          0,          1,             1,      4031237645

Show Spectrometer Status:
l0_version, f4_version, battery_perc, battery_mVolt, accelerometer_temp, accelerometer_x, accelerometer_y, accelerometer_z, compass_temp, compass_x, compass_y, compass_z, lamp_0, lamp_1, gain_0, gain_1
        17,         24,           95,          2078,               5424,           65512,           65300,           18412,            0,     65528,     65367,     65519,   3276,   3276,    1,    1

Temperature Statistic Info:
NTC AVG [°C], NTC2 AVG [°C]
      36.750,        36.465

Statistic Info:
M1:  num,      min,      max,   median,      AVG,      STD,M2:  num,      min,      max,   median,      AVG,      STD
     301,  1875.00,  2152.00,  1931.00,  1965.98,  85.2926,     401,  2478.00,  2639.00,  2541.00,  2546.59,  52.3493,

Measurements:
Wavelength, Data Amplitude
1350, 1929.00
1351, 1927.00
1352, 1926.00
1353, 1926.00
1354, 1924.00
1355, 1923.00
1356, 1923.00
1357, 1921.00
1358, 1920.00
1359, 1920.00
1360, 1918.00
1361, 1917.00
1362, 1917.00
1363, 1914.00
1364, 1913.00
1365, 1912.00
1366, 1910.00
1367, 1910.00
1368, 1908.00
1369, 1907.00
1370, 1905.00
1371, 1905.00
1372, 1902.00
1373, 1901.00
1374, 1900.00
1375, 1898.00
1376, 1897.00
1377, 1895.00
1378, 1895.00
1379, 1894.00
1380, 1893.00
1381, 1891.00
1382, 1890.00
1383, 1890.00
1384, 1889.00
1385, 1887.00
1386, 1887.00
1387, 1885.00
1388, 1885.00
1389, 1885.00
1390, 1885.00
1391, 1885.00
1392, 1883.00
1393, 1883.00
1394, 1883.00
1395, 1882.00
1396, 1881.00
1397, 1881.00
1398, 1881.00
1399, 1879.00
1400, 1880.00
1401, 1879.00
1402, 1880.00
1403, 1879.00
1404, 1879.00
1405, 1879.00
1406, 1879.00
1407, 1878.00
1408, 1879.00
1409, 1878.00
1410, 1878.00
1411, 1877.00
1412, 1877.00
1413, 1877.00
1414, 1877.00
1415, 1876.00
1416, 1877.00
1417, 1877.00
1418, 1876.00
1419, 1875.00
1420, 1876.00
1421, 1877.00
1422, 1875.00
1423, 1877.00
1424, 1876.00
1425, 1877.00
1426, 1877.00
1427, 1877.00
1428, 1878.00
1429, 1877.00
1430, 1877.00
1431, 1877.00
1432, 1877.00
1433, 1878.00
1434, 1879.00
1435, 1879.00
1436, 1880.00
1437, 1880.00
1438, 1880.00
1439, 1880.00
1440, 1881.00
1441, 1881.00
1442, 1881.00
1443, 1882.00
1444, 1883.00
1445, 1883.00
1446, 1882.00
1447, 1884.00
1448, 1884.00
1449, 1886.00
1450, 1887.00
1451, 1886.00
1452, 1887.00
1453, 1887.00
1454, 1888.00
1455, 1889.00
1456, 1889.00
1457, 1890.00
1458, 1891.00
1459, 1891.00
1460, 1891.00
1461, 1893.00
1462, 1893.00
1463, 1893.00
1464, 1895.00
1465, 1896.00
1466, 1896.00
1467, 1897.00
1468, 1898.00
1469, 1899.00
1470, 1900.00
1471, 1900.00
1472, 1901.00
1473, 1903.00
1474, 1903.00
1475, 1904.00
1476, 1905.00
1477, 1906.00
1478, 1909.00
1479, 1909.00
1480, 1909.00
1481, 1910.00
1482, 1912.00
1483, 1912.00
1484, 1913.00
1485, 1915.00
1486, 1915.00
1487, 1917.00
1488, 1918.00
1489, 1919.00
1490, 1920.00
1491, 1920.00
1492, 1924.00
1493, 1924.00
1494, 1924.00
1495, 1926.00
1496, 1926.00
1497, 1928.00
1498, 1929.00
1499, 1930.00
1500, 1931.00
1501, 1933.00
1502, 1934.00
1503, 1936.00
1504, 1936.00
1505, 1937.00
1506, 1939.00
1507, 1939.00
1508, 1941.00
1509, 1943.00
1510, 1943.00
1511, 1945.00
1512, 1945.00
1513, 1947.00
1514, 1947.00
1515, 1948.00
1516, 1950.00
1517, 1951.00
1518, 1952.00
1519, 1954.00
1520, 1956.00
1521, 1957.00
1522, 1959.00
1523, 1960.00
1524, 1961.00
1525, 1961.00
1526, 1964.00
1527, 1964.00
1528, 1966.00
1529, 1967.00
1530, 1969.00
1531, 1970.00
1532, 1971.00
1533, 1973.00
1534, 1975.00
1535, 1975.00
1536, 1977.00
1537, 1979.00
1538, 1979.00
1539, 1981.00
1540, 1983.00
1541, 1984.00
1542, 1986.00
1543, 1987.00
1544, 1987.00
1545, 1989.00
1546, 1991.00
1547, 1992.00
1548, 1993.00
1549, 1995.00
1550, 1996.00
1551, 1998.00
1552, 1999.00
1553, 2000.00
1554, 2002.00
1555, 2003.00
1556, 2006.00
1557, 2006.00
1558, 2008.00
1559, 2011.00
1560, 2011.00
1561, 2014.00
1562, 2015.00
1563, 2016.00
1564, 2018.00
1565, 2019.00
1566, 2021.00
1567, 2022.00
1568, 2024.00
1569, 2026.00
1570, 2027.00
1571, 2029.00
1572, 2030.00
1573, 2032.00
1574, 2035.00
1575, 2035.00
1576, 2036.00
1577, 2039.00
1578, 2039.00
1579, 2042.00
1580, 2043.00
1581, 2044.00
1582, 2045.00
1583, 2047.00
1584, 2049.00
1585, 2050.00
1586, 2052.00
1587, 2052.00
1588, 2053.00
1589, 2056.00
1590, 2057.00
1591, 2057.00
1592, 2060.00
1593, 2062.00
1594, 2062.00
1595, 2065.00
1596, 2066.00
1597, 2067.00
1598, 2068.00
1599, 2070.00
1600, 2071.00
1601, 2071.00
1602, 2074.00
1603, 2076.00
1604, 2078.00
1605, 2078.00
1606, 2080.00
1607, 2082.00
1608, 2083.00
1609, 2085.00
1610, 2086.00
1611, 2088.00
1612, 2090.00
1613, 2092.00
1614, 2094.00
1615, 2095.00
1616, 2097.00
1617, 2098.00
1618, 2102.00
1619, 2101.00
1620, 2104.00
1621, 2106.00
1622, 2107.00
1623, 2111.00
1624, 2111.00
1625, 2113.00
1626, 2114.00
1627, 2117.00
1628, 2120.00
1629, 2120.00
1630, 2122.00
1631, 2123.00
1632, 2124.00
1633, 2126.00
1634, 2128.00
1635, 2129.00
1636, 2130.00
1637, 2132.00
1638, 2133.00
1639, 2135.00
1640, 2137.00
1641, 2137.00
1642, 2140.00
1643, 2141.00
1644, 2142.00
1645, 2143.00
1646, 2144.00
1647, 2147.00
1648, 2149.00
1649, 2149.00
1650, 2152.00

1750, 2637.00
1751, 2637.00
1752, 2636.00
1753, 2639.00
1754, 2636.00
1755, 2637.00
1756, 2637.00
1757, 2638.00
1758, 2637.00
1759, 2637.00
1760, 2637.00
1761, 2638.00
1762, 2639.00
1763, 2637.00
1764, 2636.00
1765, 2635.00
1766, 2635.00
1767, 2635.00
1768, 2636.00
1769, 2634.00
1770, 2635.00
1771, 2634.00
1772, 2634.00
1773, 2635.00
1774, 2631.00
1775, 2633.00
1776, 2633.00
1777, 2631.00
1778, 2631.00
1779, 2632.00
1780, 2629.00
1781, 2630.00
1782, 2631.00
1783, 2629.00
1784, 2629.00
1785, 2628.00
1786, 2629.00
1787, 2627.00
1788, 2627.00
1789, 2626.00
1790, 2625.00
1791, 2623.00
1792, 2623.00
1793, 2624.00
1794, 2623.00
1795, 2621.00
1796, 2622.00
1797, 2622.00
1798, 2621.00
1799, 2618.00
1800, 2619.00
1801, 2618.00
1802, 2619.00
1803, 2617.00
1804, 2617.00
1805, 2617.00
1806, 2615.00
1807, 2615.00
1808, 2615.00
1809, 2615.00
1810, 2613.00
1811, 2613.00
1812, 2611.00
1813, 2613.00
1814, 2611.00
1815, 2611.00
1816, 2612.00
1817, 2608.00
1818, 2608.00
1819, 2609.00
1820, 2606.00
1821, 2605.00
1822, 2606.00
1823, 2604.00
1824, 2601.00
1825, 2602.00
1826, 2599.00
1827, 2599.00
1828, 2596.00
1829, 2598.00
1830, 2595.00
1831, 2594.00
1832, 2591.00
1833, 2588.00
1834, 2587.00
1835, 2585.00
1836, 2583.00
1837, 2584.00
1838, 2579.00
1839, 2578.00
1840, 2574.00
1841, 2574.00
1842, 2571.00
1843, 2568.00
1844, 2565.00
1845, 2562.00
1846, 2561.00
1847, 2559.00
1848, 2556.00
1849, 2553.00
1850, 2551.00
1851, 2551.00
1852, 2546.00
1853, 2545.00
1854, 2540.00
1855, 2539.00
1856, 2536.00
1857, 2534.00
1858, 2530.00
1859, 2529.00
1860, 2528.00
1861, 2524.00
1862, 2523.00
1863, 2522.00
1864, 2519.00
1865, 2515.00
1866, 2513.00
1867, 2512.00
1868, 2511.00
1869, 2509.00
1870, 2509.00
1871, 2506.00
1872, 2505.00
1873, 2503.00
1874, 2503.00
1875, 2500.00
1876, 2499.00
1877, 2501.00
1878, 2499.00
1879, 2497.00
1880, 2497.00
1881, 2493.00
1882, 2494.00
1883, 2494.00
1884, 2494.00
1885, 2491.00
1886, 2491.00
1887, 2491.00
1888, 2489.00
1889, 2490.00
1890, 2488.00
1891, 2488.00
1892, 2488.00
1893, 2487.00
1894, 2488.00
1895, 2485.00
1896, 2486.00
1897, 2485.00
1898, 2487.00
1899, 2485.00
1900, 2483.00
1901, 2485.00
1902, 2484.00
1903, 2483.00
1904, 2482.00
1905, 2482.00
1906, 2482.00
1907, 2480.00
1908, 2481.00
1909, 2481.00
1910, 2482.00
1911, 2480.00
1912, 2481.00
1913, 2480.00
1914, 2479.00
1915, 2479.00
1916, 2481.00
1917, 2479.00
1918, 2480.00
1919, 2480.00
1920, 2480.00
1921, 2479.00
1922, 2479.00
1923, 2479.00
1924, 2479.00
1925, 2478.00
1926, 2479.00
1927, 2478.00
1928, 2479.00
1929, 2480.00
1930, 2480.00
1931, 2480.00
1932, 2478.00
1933, 2479.00
1934, 2479.00
1935, 2480.00
1936, 2479.00
1937, 2479.00
1938, 2478.00
1939, 2480.00
1940, 2478.00
1941, 2480.00
1942, 2480.00
1943, 2479.00
1944, 2481.00
1945, 2481.00
1946, 2481.00
1947, 2482.00
1948, 2482.00
1949, 2482.00
1950, 2481.00
1951, 2483.00
1952, 2483.00
1953, 2482.00
1954, 2484.00
1955, 2484.00
1956, 2483.00
1957, 2483.00
1958, 2485.00
1959, 2485.00
1960, 2485.00
1961, 2485.00
1962, 2487.00
1963, 2485.00
1964, 2486.00
1965, 2487.00
1966, 2489.00
1967, 2490.00
1968, 2489.00
1969, 2491.00
1970, 2490.00
1971, 2492.00
1972, 2491.00
1973, 2493.00
1974, 2491.00
1975, 2492.00
1976, 2491.00
1977, 2494.00
1978, 2493.00
1979, 2496.00
1980, 2494.00
1981, 2495.00
1982, 2495.00
1983, 2498.00
1984, 2498.00
1985, 2497.00
1986, 2499.00
1987, 2499.00
1988, 2501.00
1989, 2499.00
1990, 2501.00
1991, 2500.00
1992, 2503.00
1993, 2501.00
1994, 2503.00
1995, 2504.00
1996, 2505.00
1997, 2506.00
1998, 2505.00
1999, 2506.00
2000, 2507.00
2001, 2507.00
2002, 2506.00
2003, 2507.00
2004, 2507.00
2005, 2508.00
2006, 2508.00
2007, 2511.00
2008, 2511.00
2009, 2511.00
2010, 2510.00
2011, 2513.00
2012, 2513.00
2013, 2513.00
2014, 2514.00
2015, 2515.00
2016, 2515.00
2017, 2514.00
2018, 2516.00
2019, 2517.00
2020, 2519.00
2021, 2518.00
2022, 2517.00
2023, 2519.00
2024, 2520.00
2025, 2521.00
2026, 2521.00
2027, 2521.00
2028, 2521.00
2029, 2522.00
2030, 2523.00
2031, 2523.00
2032, 2522.00
2033, 2524.00
2034, 2525.00
2035, 2526.00
2036, 2527.00
2037, 2527.00
2038, 2529.00
2039, 2530.00
2040, 2530.00
2041, 2530.00
2042, 2531.00
2043, 2533.00
2044, 2533.00
2045, 2536.00
2046, 2534.00
2047, 2534.00
2048, 2535.00
2049, 2537.00
2050, 2536.00
2051, 2536.00
2052, 2540.00
2053, 2539.00
2054, 2541.00
2055, 2542.00
2056, 2544.00
2057, 2543.00
2058, 2545.00
2059, 2546.00
2060, 2546.00
2061, 2546.00
2062, 2549.00
2063, 2550.00
2064, 2549.00
2065, 2550.00
2066, 2552.00
2067, 2553.00
2068, 2553.00
2069, 2554.00
2070, 2555.00
2071, 2556.00
2072, 2555.00
2073, 2556.00
2074, 2558.00
2075, 2558.00
2076, 2560.00
2077, 2560.00
2078, 2561.00
2079, 2562.00
2080, 2563.00
2081, 2564.00
2082, 2565.00
2083, 2566.00
2084, 2564.00
2085, 2566.00
2086, 2567.00
2087, 2568.00
2088, 2571.00
2089, 2568.00
2090, 2569.00
2091, 2570.00
2092, 2573.00
2093, 2573.00
2094, 2573.00
2095, 2572.00
2096, 2573.00
2097, 2574.00
2098, 2576.00
2099, 2575.00
2100, 2576.00
2101, 2578.00
2102, 2577.00
2103, 2575.00
2104, 2579.00
2105, 2578.00
2106, 2578.00
2107, 2579.00
2108, 2580.00
2109, 2580.00
2110, 2580.00
2111, 2581.00
2112, 2582.00
2113, 2581.00
2114, 2584.00
2115, 2582.00
2116, 2584.00
2117, 2584.00
2118, 2582.00
2119, 2583.00
2120, 2584.00
2121, 2586.00
2122, 2584.00
2123, 2586.00
2124, 2585.00
2125, 2587.00
2126, 2587.00
2127, 2586.00
2128, 2587.00
2129, 2589.00
2130, 2588.00
2131, 2586.00
2132, 2589.00
2133, 2590.00
2134, 2589.00
2135, 2591.00
2136, 2590.00
2137, 2589.00
2138, 2592.00
2139, 2590.00
2140, 2592.00
2141, 2592.00
2142, 2592.00
2143, 2591.00
2144, 2593.00
2145, 2593.00
2146, 2594.00
2147, 2593.00
2148, 2594.00
2149, 2593.00
2150, 2594.00
