FW version: 24
Log Version: 3.0.3

General Info:
       Command/Macro Performed,            Timestamp,             Device ID, COM Port, UART/I2C, Test Name, Host Major, Host Minor, Host Revision, Host Git Commit
            Single_measurement,  2023_07_18_11_22_58,       Insight2_F4_xxx,    USB-C,      USB,          ,          0,          1,             1,      4031237645

Show Spectrometer Status:
l0_version, f4_version, battery_perc, battery_mVolt, accelerometer_temp, accelerometer_x, accelerometer_y, accelerometer_z, compass_temp, compass_x, compass_y, compass_z, lamp_0, lamp_1, gain_0, gain_1
        17,         24,           77,          2003,               6528,           65208,            1432,           18916,            0,     65469,     65531,     18919,   2457,   2457,      1,      1

Temperature Statistic Info:
NTC AVG [°C], NTC2 AVG [°C]
      40.233,        39.879

Statistic Info:
M1:  num,      min,      max,   median,      AVG,      STD,M2:  num,      min,      max,   median,      AVG,      STD
     301,   984.00,  1120.00,  1015.00,  1029.71,  42.5557,     401,  1460.00,  1537.00,  1499.00,  1498.91,  25.9867,

Measurements:
Wavelength, Data Amplitude
1350, 1000.00
1351, 1001.00
1352, 999.00
1353, 999.00
1354, 999.00
1355, 999.00
1356, 999.00
1357, 998.00
1358, 999.00
1359, 996.00
1360, 997.00
1361, 997.00
1362, 997.00
1363, 995.00
1364, 996.00
1365, 994.00
1366, 994.00
1367, 995.00
1368, 994.00
1369, 992.00
1370, 994.00
1371, 993.00
1372, 992.00
1373, 991.00
1374, 991.00
1375, 991.00
1376, 990.00
1377, 990.00
1378, 989.00
1379, 989.00
1380, 989.00
1381, 989.00
1382, 988.00
1383, 989.00
1384, 987.00
1385, 988.00
1386, 988.00
1387, 988.00
1388, 988.00
1389, 986.00
1390, 987.00
1391, 986.00
1392, 986.00
1393, 986.00
1394, 986.00
1395, 985.00
1396, 986.00
1397, 985.00
1398, 985.00
1399, 985.00
1400, 985.00
1401, 985.00
1402, 985.00
1403, 984.00
1404, 986.00
1405, 985.00
1406, 986.00
1407, 985.00
1408, 985.00
1409, 986.00
1410, 986.00
1411, 985.00
1412, 986.00
1413, 985.00
1414, 985.00
1415, 985.00
1416, 985.00
1417, 985.00
1418, 985.00
1419, 985.00
1420, 985.00
1421, 985.00
1422, 985.00
1423, 985.00
1424, 985.00
1425, 985.00
1426, 985.00
1427, 985.00
1428, 986.00
1429, 986.00
1430, 987.00
1431, 986.00
1432, 987.00
1433, 987.00
1434, 987.00
1435, 988.00
1436, 989.00
1437, 987.00
1438, 989.00
1439, 988.00
1440, 989.00
1441, 988.00
1442, 989.00
1443, 989.00
1444, 990.00
1445, 989.00
1446, 990.00
1447, 991.00
1448, 990.00
1449, 991.00
1450, 992.00
1451, 991.00
1452, 991.00
1453, 993.00
1454, 993.00
1455, 993.00
1456, 994.00
1457, 994.00
1458, 995.00
1459, 995.00
1460, 995.00
1461, 996.00
1462, 995.00
1463, 996.00
1464, 996.00
1465, 996.00
1466, 997.00
1467, 998.00
1468, 998.00
1469, 999.00
1470, 1000.00
1471, 999.00
1472, 1000.00
1473, 1001.00
1474, 1001.00
1475, 1002.00
1476, 1002.00
1477, 1003.00
1478, 1003.00
1479, 1004.00
1480, 1004.00
1481, 1005.00
1482, 1005.00
1483, 1006.00
1484, 1007.00
1485, 1007.00
1486, 1009.00
1487, 1009.00
1488, 1008.00
1489, 1009.00
1490, 1010.00
1491, 1010.00
1492, 1011.00
1493, 1011.00
1494, 1012.00
1495, 1013.00
1496, 1014.00
1497, 1014.00
1498, 1015.00
1499, 1015.00
1500, 1016.00
1501, 1015.00
1502, 1017.00
1503, 1017.00
1504, 1018.00
1505, 1018.00
1506, 1019.00
1507, 1019.00
1508, 1020.00
1509, 1021.00
1510, 1021.00
1511, 1023.00
1512, 1021.00
1513, 1024.00
1514, 1024.00
1515, 1025.00
1516, 1026.00
1517, 1027.00
1518, 1026.00
1519, 1027.00
1520, 1028.00
1521, 1028.00
1522, 1029.00
1523, 1030.00
1524, 1030.00
1525, 1031.00
1526, 1032.00
1527, 1033.00
1528, 1033.00
1529, 1033.00
1530, 1035.00
1531, 1036.00
1532, 1035.00
1533, 1037.00
1534, 1037.00
1535, 1037.00
1536, 1039.00
1537, 1039.00
1538, 1040.00
1539, 1041.00
1540, 1042.00
1541, 1042.00
1542, 1043.00
1543, 1043.00
1544, 1044.00
1545, 1044.00
1546, 1046.00
1547, 1046.00
1548, 1046.00
1549, 1046.00
1550, 1048.00
1551, 1049.00
1552, 1050.00
1553, 1050.00
1554, 1051.00
1555, 1051.00
1556, 1052.00
1557, 1053.00
1558, 1053.00
1559, 1053.00
1560, 1055.00
1561, 1055.00
1562, 1056.00
1563, 1056.00
1564, 1056.00
1565, 1058.00
1566, 1059.00
1567, 1060.00
1568, 1061.00
1569, 1061.00
1570, 1062.00
1571, 1063.00
1572, 1064.00
1573, 1064.00
1574, 1064.00
1575, 1064.00
1576, 1066.00
1577, 1065.00
1578, 1067.00
1579, 1068.00
1580, 1069.00
1581, 1069.00
1582, 1069.00
1583, 1071.00
1584, 1070.00
1585, 1072.00
1586, 1072.00
1587, 1073.00
1588, 1073.00
1589, 1075.00
1590, 1074.00
1591, 1075.00
1592, 1076.00
1593, 1077.00
1594, 1077.00
1595, 1078.00
1596, 1078.00
1597, 1078.00
1598, 1080.00
1599, 1081.00
1600, 1082.00
1601, 1082.00
1602, 1082.00
1603, 1083.00
1604, 1085.00
1605, 1085.00
1606, 1086.00
1607, 1086.00
1608, 1088.00
1609, 1088.00
1610, 1089.00
1611, 1090.00
1612, 1090.00
1613, 1091.00
1614, 1092.00
1615, 1093.00
1616, 1093.00
1617, 1094.00
1618, 1097.00
1619, 1096.00
1620, 1098.00
1621, 1097.00
1622, 1099.00
1623, 1100.00
1624, 1100.00
1625, 1102.00
1626, 1102.00
1627, 1103.00
1628, 1104.00
1629, 1104.00
1630, 1106.00
1631, 1106.00
1632, 1107.00
1633, 1108.00
1634, 1108.00
1635, 1110.00
1636, 1110.00
1637, 1110.00
1638, 1112.00
1639, 1112.00
1640, 1112.00
1641, 1114.00
1642, 1115.00
1643, 1115.00
1644, 1117.00
1645, 1116.00
1646, 1118.00
1647, 1119.00
1648, 1119.00
1649, 1119.00
1650, 1120.00

1750, 1537.00
1751, 1537.00
1752, 1537.00
1753, 1535.00
1754, 1535.00
1755, 1536.00
1756, 1535.00
1757, 1537.00
1758, 1537.00
1759, 1535.00
1760, 1535.00
1761, 1537.00
1762, 1536.00
1763, 1535.00
1764, 1536.00
1765, 1535.00
1766, 1537.00
1767, 1536.00
1768, 1535.00
1769, 1535.00
1770, 1535.00
1771, 1535.00
1772, 1534.00
1773, 1535.00
1774, 1531.00
1775, 1534.00
1776, 1533.00
1777, 1533.00
1778, 1534.00
1779, 1531.00
1780, 1533.00
1781, 1533.00
1782, 1531.00
1783, 1531.00
1784, 1533.00
1785, 1530.00
1786, 1531.00
1787, 1530.00
1788, 1532.00
1789, 1531.00
1790, 1531.00
1791, 1530.00
1792, 1530.00
1793, 1528.00
1794, 1529.00
1795, 1531.00
1796, 1529.00
1797, 1530.00
1798, 1529.00
1799, 1528.00
1800, 1528.00
1801, 1528.00
1802, 1527.00
1803, 1526.00
1804, 1528.00
1805, 1527.00
1806, 1528.00
1807, 1526.00
1808, 1526.00
1809, 1528.00
1810, 1524.00
1811, 1528.00
1812, 1526.00
1813, 1526.00
1814, 1524.00
1815, 1524.00
1816, 1525.00
1817, 1524.00
1818, 1523.00
1819, 1524.00
1820, 1524.00
1821, 1521.00
1822, 1521.00
1823, 1522.00
1824, 1519.00
1825, 1521.00
1826, 1519.00
1827, 1520.00
1828, 1519.00
1829, 1519.00
1830, 1516.00
1831, 1517.00
1832, 1517.00
1833, 1515.00
1834, 1515.00
1835, 1514.00
1836, 1513.00
1837, 1511.00
1838, 1510.00
1839, 1510.00
1840, 1511.00
1841, 1508.00
1842, 1508.00
1843, 1505.00
1844, 1506.00
1845, 1504.00
1846, 1503.00
1847, 1501.00
1848, 1501.00
1849, 1499.00
1850, 1498.00
1851, 1496.00
1852, 1496.00
1853, 1495.00
1854, 1492.00
1855, 1492.00
1856, 1492.00
1857, 1490.00
1858, 1487.00
1859, 1486.00
1860, 1486.00
1861, 1485.00
1862, 1483.00
1863, 1483.00
1864, 1483.00
1865, 1482.00
1866, 1479.00
1867, 1479.00
1868, 1478.00
1869, 1477.00
1870, 1475.00
1871, 1476.00
1872, 1474.00
1873, 1474.00
1874, 1474.00
1875, 1473.00
1876, 1475.00
1877, 1472.00
1878, 1472.00
1879, 1472.00
1880, 1471.00
1881, 1470.00
1882, 1471.00
1883, 1469.00
1884, 1470.00
1885, 1468.00
1886, 1467.00
1887, 1467.00
1888, 1467.00
1889, 1467.00
1890, 1467.00
1891, 1465.00
1892, 1466.00
1893, 1467.00
1894, 1464.00
1895, 1466.00
1896, 1463.00
1897, 1465.00
1898, 1465.00
1899, 1463.00
1900, 1462.00
1901, 1464.00
1902, 1464.00
1903, 1464.00
1904, 1463.00
1905, 1463.00
1906, 1465.00
1907, 1464.00
1908, 1463.00
1909, 1466.00
1910, 1463.00
1911, 1461.00
1912, 1463.00
1913, 1464.00
1914, 1462.00
1915, 1461.00
1916, 1463.00
1917, 1463.00
1918, 1461.00
1919, 1461.00
1920, 1462.00
1921, 1462.00
1922, 1461.00
1923, 1462.00
1924, 1461.00
1925, 1461.00
1926, 1463.00
1927, 1464.00
1928, 1463.00
1929, 1462.00
1930, 1464.00
1931, 1462.00
1932, 1460.00
1933, 1462.00
1934, 1462.00
1935, 1462.00
1936, 1463.00
1937, 1463.00
1938, 1463.00
1939, 1463.00
1940, 1463.00
1941, 1462.00
1942, 1464.00
1943, 1464.00
1944, 1463.00
1945, 1465.00
1946, 1462.00
1947, 1469.00
1948, 1465.00
1949, 1464.00
1950, 1466.00
1951, 1465.00
1952, 1463.00
1953, 1466.00
1954, 1467.00
1955, 1468.00
1956, 1465.00
1957, 1466.00
1958, 1467.00
1959, 1467.00
1960, 1467.00
1961, 1467.00
1962, 1469.00
1963, 1468.00
1964, 1469.00
1965, 1469.00
1966, 1468.00
1967, 1468.00
1968, 1470.00
1969, 1470.00
1970, 1471.00
1971, 1471.00
1972, 1472.00
1973, 1471.00
1974, 1472.00
1975, 1472.00
1976, 1473.00
1977, 1474.00
1978, 1472.00
1979, 1475.00
1980, 1473.00
1981, 1475.00
1982, 1474.00
1983, 1473.00
1984, 1476.00
1985, 1476.00
1986, 1476.00
1987, 1476.00
1988, 1477.00
1989, 1477.00
1990, 1477.00
1991, 1477.00
1992, 1478.00
1993, 1479.00
1994, 1478.00
1995, 1478.00
1996, 1480.00
1997, 1480.00
1998, 1480.00
1999, 1481.00
2000, 1481.00
2001, 1481.00
2002, 1483.00
2003, 1482.00
2004, 1481.00
2005, 1482.00
2006, 1482.00
2007, 1483.00
2008, 1483.00
2009, 1483.00
2010, 1484.00
2011, 1485.00
2012, 1484.00
2013, 1485.00
2014, 1486.00
2015, 1486.00
2016, 1487.00
2017, 1488.00
2018, 1485.00
2019, 1488.00
2020, 1488.00
2021, 1489.00
2022, 1489.00
2023, 1488.00
2024, 1488.00
2025, 1490.00
2026, 1489.00
2027, 1490.00
2028, 1493.00
2029, 1491.00
2030, 1491.00
2031, 1492.00
2032, 1493.00
2033, 1492.00
2034, 1493.00
2035, 1493.00
2036, 1493.00
2037, 1495.00
2038, 1497.00
2039, 1495.00
2040, 1494.00
2041, 1497.00
2042, 1497.00
2043, 1497.00
2044, 1497.00
2045, 1498.00
2046, 1498.00
2047, 1498.00
2048, 1498.00
2049, 1499.00
2050, 1502.00
2051, 1500.00
2052, 1501.00
2053, 1501.00
2054, 1501.00
2055, 1503.00
2056, 1503.00
2057, 1504.00
2058, 1505.00
2059, 1503.00
2060, 1506.00
2061, 1504.00
2062, 1505.00
2063, 1506.00
2064, 1505.00
2065, 1507.00
2066, 1507.00
2067, 1510.00
2068, 1507.00
2069, 1510.00
2070, 1508.00
2071, 1511.00
2072, 1511.00
2073, 1511.00
2074, 1512.00
2075, 1512.00
2076, 1514.00
2077, 1513.00
2078, 1513.00
2079, 1514.00
2080, 1515.00
2081, 1514.00
2082, 1514.00
2083, 1515.00
2084, 1517.00
2085, 1515.00
2086, 1516.00
2087, 1517.00
2088, 1518.00
2089, 1517.00
2090, 1519.00
2091, 1519.00
2092, 1518.00
2093, 1519.00
2094, 1519.00
2095, 1519.00
2096, 1521.00
2097, 1522.00
2098, 1520.00
2099, 1521.00
2100, 1522.00
2101, 1522.00
2102, 1520.00
2103, 1524.00
2104, 1524.00
2105, 1523.00
2106, 1524.00
2107, 1524.00
2108, 1524.00
2109, 1523.00
2110, 1524.00
2111, 1524.00
2112, 1524.00
2113, 1524.00
2114, 1523.00
2115, 1524.00
2116, 1527.00
2117, 1526.00
2118, 1526.00
2119, 1526.00
2120, 1526.00
2121, 1526.00
2122, 1527.00
2123, 1526.00
2124, 1527.00
2125, 1528.00
2126, 1527.00
2127, 1528.00
2128, 1526.00
2129, 1529.00
2130, 1527.00
2131, 1527.00
2132, 1530.00
2133, 1529.00
2134, 1529.00
2135, 1528.00
2136, 1529.00
2137, 1531.00
2138, 1531.00
2139, 1529.00
2140, 1530.00
2141, 1530.00
2142, 1531.00
2143, 1529.00
2144, 1531.00
2145, 1531.00
2146, 1531.00
2147, 1531.00
2148, 1531.00
2149, 1532.00
2150, 1531.00
