FW version: 24
Log Version: 3.0.3

General Info:
       Command/Macro Performed,            Timestamp,             Device ID, COM Port, UART/I2C, Test Name, Host Major, Host Minor, Host Revision, Host Git Commit
            Single_measurement,  2023_07_18_11_23_37,       Insight2_F4_xxx,    USB-C,      USB,          ,          0,          1,             1,      4031237645

Show Spectrometer Status:
l0_version, f4_version, battery_perc, battery_mVolt, accelerometer_temp, accelerometer_x, accelerometer_y, accelerometer_z, compass_temp, compass_x, compass_y, compass_z, lamp_0, lamp_1, gain_0, gain_1
        17,         24,           77,          2004,               6528,           65188,            1444,           18900,            0,     65460,     65526,     18935,   3276,   3276,      1,      1

Temperature Statistic Info:
NTC AVG [°C], NTC2 AVG [°C]
      40.470,        40.173

Statistic Info:
M1:  num,      min,      max,   median,      AVG,      STD,M2:  num,      min,      max,   median,      AVG,      STD
     301,  1706.00,  1924.00,  1755.00,  1778.45,  67.8751,     401,  2345.00,  2468.00,  2404.00,  2404.25,  40.7693,

Measurements:
Wavelength, Data Amplitude
1350, 1736.00
1351, 1736.00
1352, 1735.00
1353, 1735.00
1354, 1734.00
1355, 1734.00
1356, 1734.00
1357, 1733.00
1358, 1732.00
1359, 1731.00
1360, 1730.00
1361, 1730.00
1362, 1730.00
1363, 1728.00
1364, 1727.00
1365, 1728.00
1366, 1725.00
1367, 1725.00
1368, 1725.00
1369, 1723.00
1370, 1723.00
1371, 1722.00
1372, 1721.00
1373, 1720.00
1374, 1720.00
1375, 1719.00
1376, 1718.00
1377, 1717.00
1378, 1717.00
1379, 1717.00
1380, 1715.00
1381, 1715.00
1382, 1714.00
1383, 1715.00
1384, 1712.00
1385, 1711.00
1386, 1713.00
1387, 1711.00
1388, 1711.00
1389, 1710.00
1390, 1709.00
1391, 1711.00
1392, 1709.00
1393, 1709.00
1394, 1710.00
1395, 1710.00
1396, 1709.00
1397, 1709.00
1398, 1708.00
1399, 1708.00
1400, 1707.00
1401, 1709.00
1402, 1708.00
1403, 1708.00
1404, 1707.00
1405, 1709.00
1406, 1707.00
1407, 1708.00
1408, 1707.00
1409, 1707.00
1410, 1707.00
1411, 1707.00
1412, 1707.00
1413, 1707.00
1414, 1706.00
1415, 1707.00
1416, 1707.00
1417, 1708.00
1418, 1707.00
1419, 1707.00
1420, 1706.00
1421, 1708.00
1422, 1708.00
1423, 1707.00
1424, 1707.00
1425, 1708.00
1426, 1707.00
1427, 1708.00
1428, 1709.00
1429, 1709.00
1430, 1709.00
1431, 1709.00
1432, 1709.00
1433, 1710.00
1434, 1711.00
1435, 1710.00
1436, 1711.00
1437, 1710.00
1438, 1713.00
1439, 1712.00
1440, 1712.00
1441, 1713.00
1442, 1714.00
1443, 1713.00
1444, 1714.00
1445, 1713.00
1446, 1714.00
1447, 1715.00
1448, 1717.00
1449, 1715.00
1450, 1717.00
1451, 1716.00
1452, 1718.00
1453, 1718.00
1454, 1719.00
1455, 1719.00
1456, 1720.00
1457, 1720.00
1458, 1721.00
1459, 1721.00
1460, 1722.00
1461, 1723.00
1462, 1723.00
1463, 1724.00
1464, 1725.00
1465, 1726.00
1466, 1726.00
1467, 1727.00
1468, 1727.00
1469, 1729.00
1470, 1729.00
1471, 1730.00
1472, 1729.00
1473, 1731.00
1474, 1733.00
1475, 1733.00
1476, 1734.00
1477, 1734.00
1478, 1735.00
1479, 1736.00
1480, 1736.00
1481, 1737.00
1482, 1739.00
1483, 1739.00
1484, 1741.00
1485, 1741.00
1486, 1742.00
1487, 1743.00
1488, 1744.00
1489, 1745.00
1490, 1746.00
1491, 1747.00
1492, 1747.00
1493, 1747.00
1494, 1749.00
1495, 1751.00
1496, 1750.00
1497, 1752.00
1498, 1753.00
1499, 1753.00
1500, 1755.00
1501, 1756.00
1502, 1757.00
1503, 1757.00
1504, 1758.00
1505, 1759.00
1506, 1760.00
1507, 1761.00
1508, 1761.00
1509, 1763.00
1510, 1763.00
1511, 1765.00
1512, 1765.00
1513, 1768.00
1514, 1768.00
1515, 1768.00
1516, 1770.00
1517, 1770.00
1518, 1771.00
1519, 1772.00
1520, 1773.00
1521, 1775.00
1522, 1777.00
1523, 1776.00
1524, 1778.00
1525, 1779.00
1526, 1780.00
1527, 1780.00
1528, 1782.00
1529, 1781.00
1530, 1785.00
1531, 1785.00
1532, 1786.00
1533, 1787.00
1534, 1789.00
1535, 1791.00
1536, 1791.00
1537, 1792.00
1538, 1793.00
1539, 1793.00
1540, 1795.00
1541, 1795.00
1542, 1797.00
1543, 1797.00
1544, 1799.00
1545, 1800.00
1546, 1801.00
1547, 1802.00
1548, 1802.00
1549, 1805.00
1550, 1806.00
1551, 1807.00
1552, 1808.00
1553, 1809.00
1554, 1811.00
1555, 1811.00
1556, 1812.00
1557, 1813.00
1558, 1815.00
1559, 1816.00
1560, 1817.00
1561, 1818.00
1562, 1819.00
1563, 1821.00
1564, 1822.00
1565, 1823.00
1566, 1824.00
1567, 1825.00
1568, 1826.00
1569, 1829.00
1570, 1829.00
1571, 1831.00
1572, 1831.00
1573, 1834.00
1574, 1833.00
1575, 1835.00
1576, 1836.00
1577, 1837.00
1578, 1839.00
1579, 1840.00
1580, 1841.00
1581, 1842.00
1582, 1842.00
1583, 1843.00
1584, 1845.00
1585, 1845.00
1586, 1846.00
1587, 1847.00
1588, 1848.00
1589, 1849.00
1590, 1851.00
1591, 1852.00
1592, 1853.00
1593, 1855.00
1594, 1854.00
1595, 1856.00
1596, 1857.00
1597, 1858.00
1598, 1858.00
1599, 1860.00
1600, 1862.00
1601, 1861.00
1602, 1863.00
1603, 1866.00
1604, 1865.00
1605, 1868.00
1606, 1868.00
1607, 1869.00
1608, 1870.00
1609, 1871.00
1610, 1873.00
1611, 1875.00
1612, 1876.00
1613, 1877.00
1614, 1879.00
1615, 1880.00
1616, 1882.00
1617, 1883.00
1618, 1884.00
1619, 1886.00
1620, 1887.00
1621, 1888.00
1622, 1890.00
1623, 1891.00
1624, 1892.00
1625, 1894.00
1626, 1895.00
1627, 1897.00
1628, 1898.00
1629, 1900.00
1630, 1901.00
1631, 1902.00
1632, 1903.00
1633, 1903.00
1634, 1905.00
1635, 1906.00
1636, 1907.00
1637, 1909.00
1638, 1910.00
1639, 1911.00
1640, 1913.00
1641, 1913.00
1642, 1915.00
1643, 1915.00
1644, 1916.00
1645, 1917.00
1646, 1919.00
1647, 1919.00
1648, 1921.00
1649, 1923.00
1650, 1924.00

1750, 2468.00
1751, 2465.00
1752, 2465.00
1753, 2467.00
1754, 2467.00
1755, 2466.00
1756, 2467.00
1757, 2466.00
1758, 2468.00
1759, 2465.00
1760, 2466.00
1761, 2467.00
1762, 2466.00
1763, 2465.00
1764, 2466.00
1765, 2465.00
1766, 2466.00
1767, 2465.00
1768, 2464.00
1769, 2463.00
1770, 2465.00
1771, 2462.00
1772, 2462.00
1773, 2464.00
1774, 2463.00
1775, 2464.00
1776, 2465.00
1777, 2461.00
1778, 2461.00
1779, 2463.00
1780, 2461.00
1781, 2460.00
1782, 2459.00
1783, 2459.00
1784, 2459.00
1785, 2457.00
1786, 2457.00
1787, 2458.00
1788, 2457.00
1789, 2457.00
1790, 2457.00
1791, 2457.00
1792, 2456.00
1793, 2454.00
1794, 2455.00
1795, 2454.00
1796, 2452.00
1797, 2451.00
1798, 2454.00
1799, 2452.00
1800, 2454.00
1801, 2452.00
1802, 2453.00
1803, 2449.00
1804, 2450.00
1805, 2450.00
1806, 2450.00
1807, 2451.00
1808, 2451.00
1809, 2447.00
1810, 2448.00
1811, 2448.00
1812, 2449.00
1813, 2447.00
1814, 2446.00
1815, 2447.00
1816, 2446.00
1817, 2446.00
1818, 2446.00
1819, 2444.00
1820, 2443.00
1821, 2442.00
1822, 2442.00
1823, 2440.00
1824, 2441.00
1825, 2440.00
1826, 2439.00
1827, 2440.00
1828, 2438.00
1829, 2436.00
1830, 2435.00
1831, 2436.00
1832, 2432.00
1833, 2431.00
1834, 2432.00
1835, 2429.00
1836, 2428.00
1837, 2426.00
1838, 2423.00
1839, 2425.00
1840, 2423.00
1841, 2420.00
1842, 2419.00
1843, 2416.00
1844, 2414.00
1845, 2413.00
1846, 2412.00
1847, 2409.00
1848, 2407.00
1849, 2406.00
1850, 2404.00
1851, 2403.00
1852, 2400.00
1853, 2398.00
1854, 2396.00
1855, 2396.00
1856, 2393.00
1857, 2391.00
1858, 2388.00
1859, 2386.00
1860, 2385.00
1861, 2383.00
1862, 2382.00
1863, 2381.00
1864, 2379.00
1865, 2378.00
1866, 2376.00
1867, 2374.00
1868, 2372.00
1869, 2370.00
1870, 2370.00
1871, 2368.00
1872, 2369.00
1873, 2366.00
1874, 2366.00
1875, 2365.00
1876, 2366.00
1877, 2362.00
1878, 2363.00
1879, 2360.00
1880, 2360.00
1881, 2359.00
1882, 2357.00
1883, 2358.00
1884, 2358.00
1885, 2355.00
1886, 2355.00
1887, 2356.00
1888, 2354.00
1889, 2354.00
1890, 2353.00
1891, 2353.00
1892, 2353.00
1893, 2353.00
1894, 2353.00
1895, 2353.00
1896, 2350.00
1897, 2352.00
1898, 2350.00
1899, 2352.00
1900, 2350.00
1901, 2350.00
1902, 2351.00
1903, 2349.00
1904, 2349.00
1905, 2348.00
1906, 2348.00
1907, 2349.00
1908, 2350.00
1909, 2348.00
1910, 2350.00
1911, 2349.00
1912, 2348.00
1913, 2349.00
1914, 2348.00
1915, 2347.00
1916, 2348.00
1917, 2348.00
1918, 2346.00
1919, 2346.00
1920, 2346.00
1921, 2348.00
1922, 2349.00
1923, 2347.00
1924, 2347.00
1925, 2349.00
1926, 2345.00
1927, 2347.00
1928, 2348.00
1929, 2349.00
1930, 2347.00
1931, 2347.00
1932, 2348.00
1933, 2349.00
1934, 2348.00
1935, 2347.00
1936, 2347.00
1937, 2347.00
1938, 2348.00
1939, 2349.00
1940, 2348.00
1941, 2347.00
1942, 2349.00
1943, 2349.00
1944, 2352.00
1945, 2348.00
1946, 2350.00
1947, 2350.00
1948, 2352.00
1949, 2352.00
1950, 2350.00
1951, 2350.00
1952, 2352.00
1953, 2352.00
1954, 2352.00
1955, 2351.00
1956, 2355.00
1957, 2353.00
1958, 2355.00
1959, 2356.00
1960, 2355.00
1961, 2356.00
1962, 2355.00
1963, 2357.00
1964, 2357.00
1965, 2357.00
1966, 2357.00
1967, 2359.00
1968, 2359.00
1969, 2359.00
1970, 2359.00
1971, 2360.00
1972, 2362.00
1973, 2363.00
1974, 2362.00
1975, 2362.00
1976, 2364.00
1977, 2363.00
1978, 2364.00
1979, 2363.00
1980, 2365.00
1981, 2367.00
1982, 2366.00
1983, 2367.00
1984, 2368.00
1985, 2367.00
1986, 2368.00
1987, 2367.00
1988, 2369.00
1989, 2371.00
1990, 2371.00
1991, 2371.00
1992, 2373.00
1993, 2373.00
1994, 2373.00
1995, 2373.00
1996, 2372.00
1997, 2375.00
1998, 2376.00
1999, 2375.00
2000, 2377.00
2001, 2377.00
2002, 2377.00
2003, 2376.00
2004, 2377.00
2005, 2380.00
2006, 2380.00
2007, 2380.00
2008, 2379.00
2009, 2379.00
2010, 2380.00
2011, 2379.00
2012, 2382.00
2013, 2383.00
2014, 2384.00
2015, 2384.00
2016, 2385.00
2017, 2383.00
2018, 2383.00
2019, 2385.00
2020, 2386.00
2021, 2385.00
2022, 2386.00
2023, 2388.00
2024, 2387.00
2025, 2388.00
2026, 2390.00
2027, 2390.00
2028, 2388.00
2029, 2391.00
2030, 2392.00
2031, 2392.00
2032, 2392.00
2033, 2394.00
2034, 2395.00
2035, 2393.00
2036, 2394.00
2037, 2397.00
2038, 2393.00
2039, 2395.00
2040, 2398.00
2041, 2397.00
2042, 2399.00
2043, 2398.00
2044, 2399.00
2045, 2399.00
2046, 2402.00
2047, 2400.00
2048, 2403.00
2049, 2401.00
2050, 2402.00
2051, 2407.00
2052, 2404.00
2053, 2406.00
2054, 2408.00
2055, 2408.00
2056, 2409.00
2057, 2409.00
2058, 2408.00
2059, 2412.00
2060, 2413.00
2061, 2414.00
2062, 2414.00
2063, 2414.00
2064, 2415.00
2065, 2415.00
2066, 2417.00
2067, 2416.00
2068, 2418.00
2069, 2419.00
2070, 2421.00
2071, 2420.00
2072, 2423.00
2073, 2420.00
2074, 2423.00
2075, 2420.00
2076, 2422.00
2077, 2425.00
2078, 2425.00
2079, 2426.00
2080, 2427.00
2081, 2426.00
2082, 2428.00
2083, 2430.00
2084, 2430.00
2085, 2429.00
2086, 2430.00
2087, 2429.00
2088, 2432.00
2089, 2430.00
2090, 2433.00
2091, 2434.00
2092, 2433.00
2093, 2434.00
2094, 2435.00
2095, 2435.00
2096, 2437.00
2097, 2437.00
2098, 2435.00
2099, 2435.00
2100, 2437.00
2101, 2437.00
2102, 2436.00
2103, 2439.00
2104, 2439.00
2105, 2438.00
2106, 2437.00
2107, 2438.00
2108, 2439.00
2109, 2441.00
2110, 2440.00
2111, 2440.00
2112, 2440.00
2113, 2442.00
2114, 2440.00
2115, 2442.00
2116, 2442.00
2117, 2443.00
2118, 2442.00
2119, 2443.00
2120, 2445.00
2121, 2445.00
2122, 2443.00
2123, 2446.00
2124, 2445.00
2125, 2445.00
2126, 2446.00
2127, 2445.00
2128, 2447.00
2129, 2445.00
2130, 2448.00
2131, 2446.00
2132, 2448.00
2133, 2447.00
2134, 2448.00
2135, 2448.00
2136, 2448.00
2137, 2448.00
2138, 2449.00
2139, 2449.00
2140, 2450.00
2141, 2450.00
2142, 2449.00
2143, 2451.00
2144, 2451.00
2145, 2450.00
2146, 2451.00
2147, 2451.00
2148, 2452.00
2149, 2449.00
2150, 2451.00
