FW version: 24
Log Version: 3.0.3

General Info:
       Command/Macro Performed,            Timestamp,             Device ID, COM Port, UART/I2C, Test Name, Host Major, Host Minor, Host Revision, Host Git Commit
            Single_measurement,  2023_07_18_11_23_32,       Insight2_F4_xxx,    USB-C,      USB,          ,          0,          1,             1,      4031237645

Show Spectrometer Status:
l0_version, f4_version, battery_perc, battery_mVolt, accelerometer_temp, accelerometer_x, accelerometer_y, accelerometer_z, compass_temp, compass_x, compass_y, compass_z, lamp_0, lamp_1, gain_0, gain_1
        17,         24,           77,          2004,               6528,           65164,            1464,           18864,            0,     65437,     65531,     18932,   3276,   3276,      1,      1

Temperature Statistic Info:
NTC AVG [°C], NTC2 AVG [°C]
      40.411,        40.084

Statistic Info:
M1:  num,      min,      max,   median,      AVG,      STD,M2:  num,      min,      max,   median,      AVG,      STD
     301,  1706.00,  1925.00,  1755.00,  1778.60,  67.8730,     401,  2346.00,  2468.00,  2405.00,  2404.26,  40.7702,

Measurements:
Wavelength, Data Amplitude
1350, 1736.00
1351, 1736.00
1352, 1735.00
1353, 1735.00
1354, 1734.00
1355, 1734.00
1356, 1734.00
1357, 1733.00
1358, 1732.00
1359, 1731.00
1360, 1731.00
1361, 1730.00
1362, 1729.00
1363, 1729.00
1364, 1727.00
1365, 1727.00
1366, 1726.00
1367, 1726.00
1368, 1725.00
1369, 1724.00
1370, 1723.00
1371, 1723.00
1372, 1721.00
1373, 1721.00
1374, 1720.00
1375, 1719.00
1376, 1719.00
1377, 1717.00
1378, 1717.00
1379, 1715.00
1380, 1715.00
1381, 1715.00
1382, 1714.00
1383, 1714.00
1384, 1714.00
1385, 1713.00
1386, 1712.00
1387, 1712.00
1388, 1712.00
1389, 1711.00
1390, 1711.00
1391, 1711.00
1392, 1710.00
1393, 1710.00
1394, 1709.00
1395, 1710.00
1396, 1709.00
1397, 1710.00
1398, 1710.00
1399, 1709.00
1400, 1708.00
1401, 1708.00
1402, 1708.00
1403, 1708.00
1404, 1708.00
1405, 1708.00
1406, 1708.00
1407, 1708.00
1408, 1707.00
1409, 1707.00
1410, 1707.00
1411, 1708.00
1412, 1708.00
1413, 1707.00
1414, 1707.00
1415, 1707.00
1416, 1707.00
1417, 1707.00
1418, 1706.00
1419, 1707.00
1420, 1708.00
1421, 1707.00
1422, 1707.00
1423, 1708.00
1424, 1708.00
1425, 1707.00
1426, 1708.00
1427, 1707.00
1428, 1708.00
1429, 1709.00
1430, 1709.00
1431, 1710.00
1432, 1709.00
1433, 1709.00
1434, 1710.00
1435, 1712.00
1436, 1711.00
1437, 1711.00
1438, 1712.00
1439, 1712.00
1440, 1712.00
1441, 1712.00
1442, 1714.00
1443, 1714.00
1444, 1714.00
1445, 1714.00
1446, 1714.00
1447, 1715.00
1448, 1715.00
1449, 1716.00
1450, 1717.00
1451, 1717.00
1452, 1717.00
1453, 1719.00
1454, 1719.00
1455, 1719.00
1456, 1720.00
1457, 1720.00
1458, 1721.00
1459, 1722.00
1460, 1722.00
1461, 1723.00
1462, 1723.00
1463, 1724.00
1464, 1725.00
1465, 1725.00
1466, 1726.00
1467, 1727.00
1468, 1728.00
1469, 1729.00
1470, 1729.00
1471, 1730.00
1472, 1730.00
1473, 1731.00
1474, 1732.00
1475, 1733.00
1476, 1734.00
1477, 1735.00
1478, 1736.00
1479, 1736.00
1480, 1737.00
1481, 1739.00
1482, 1739.00
1483, 1739.00
1484, 1740.00
1485, 1742.00
1486, 1742.00
1487, 1743.00
1488, 1744.00
1489, 1745.00
1490, 1746.00
1491, 1746.00
1492, 1747.00
1493, 1748.00
1494, 1750.00
1495, 1751.00
1496, 1751.00
1497, 1751.00
1498, 1753.00
1499, 1754.00
1500, 1755.00
1501, 1755.00
1502, 1757.00
1503, 1757.00
1504, 1758.00
1505, 1759.00
1506, 1760.00
1507, 1761.00
1508, 1762.00
1509, 1763.00
1510, 1764.00
1511, 1765.00
1512, 1765.00
1513, 1767.00
1514, 1767.00
1515, 1768.00
1516, 1769.00
1517, 1771.00
1518, 1772.00
1519, 1774.00
1520, 1773.00
1521, 1775.00
1522, 1775.00
1523, 1777.00
1524, 1778.00
1525, 1778.00
1526, 1779.00
1527, 1781.00
1528, 1781.00
1529, 1783.00
1530, 1783.00
1531, 1785.00
1532, 1786.00
1533, 1788.00
1534, 1788.00
1535, 1789.00
1536, 1791.00
1537, 1791.00
1538, 1793.00
1539, 1793.00
1540, 1794.00
1541, 1795.00
1542, 1797.00
1543, 1798.00
1544, 1800.00
1545, 1801.00
1546, 1802.00
1547, 1803.00
1548, 1803.00
1549, 1804.00
1550, 1806.00
1551, 1806.00
1552, 1808.00
1553, 1809.00
1554, 1811.00
1555, 1811.00
1556, 1813.00
1557, 1813.00
1558, 1814.00
1559, 1816.00
1560, 1816.00
1561, 1819.00
1562, 1820.00
1563, 1820.00
1564, 1823.00
1565, 1823.00
1566, 1825.00
1567, 1827.00
1568, 1826.00
1569, 1828.00
1570, 1829.00
1571, 1831.00
1572, 1831.00
1573, 1833.00
1574, 1834.00
1575, 1835.00
1576, 1837.00
1577, 1838.00
1578, 1838.00
1579, 1839.00
1580, 1840.00
1581, 1840.00
1582, 1843.00
1583, 1844.00
1584, 1845.00
1585, 1846.00
1586, 1848.00
1587, 1849.00
1588, 1848.00
1589, 1850.00
1590, 1850.00
1591, 1851.00
1592, 1854.00
1593, 1853.00
1594, 1855.00
1595, 1856.00
1596, 1858.00
1597, 1858.00
1598, 1859.00
1599, 1861.00
1600, 1862.00
1601, 1864.00
1602, 1863.00
1603, 1865.00
1604, 1867.00
1605, 1866.00
1606, 1869.00
1607, 1870.00
1608, 1871.00
1609, 1873.00
1610, 1873.00
1611, 1875.00
1612, 1876.00
1613, 1877.00
1614, 1879.00
1615, 1880.00
1616, 1882.00
1617, 1884.00
1618, 1885.00
1619, 1885.00
1620, 1887.00
1621, 1888.00
1622, 1890.00
1623, 1891.00
1624, 1892.00
1625, 1894.00
1626, 1895.00
1627, 1898.00
1628, 1898.00
1629, 1899.00
1630, 1900.00
1631, 1901.00
1632, 1903.00
1633, 1905.00
1634, 1906.00
1635, 1908.00
1636, 1907.00
1637, 1909.00
1638, 1910.00
1639, 1911.00
1640, 1912.00
1641, 1912.00
1642, 1915.00
1643, 1915.00
1644, 1917.00
1645, 1918.00
1646, 1919.00
1647, 1919.00
1648, 1920.00
1649, 1922.00
1650, 1925.00

1750, 2467.00
1751, 2467.00
1752, 2465.00
1753, 2468.00
1754, 2465.00
1755, 2466.00
1756, 2467.00
1757, 2466.00
1758, 2466.00
1759, 2467.00
1760, 2467.00
1761, 2465.00
1762, 2467.00
1763, 2467.00
1764, 2466.00
1765, 2466.00
1766, 2464.00
1767, 2464.00
1768, 2465.00
1769, 2463.00
1770, 2466.00
1771, 2464.00
1772, 2465.00
1773, 2465.00
1774, 2463.00
1775, 2463.00
1776, 2463.00
1777, 2461.00
1778, 2462.00
1779, 2461.00
1780, 2460.00
1781, 2460.00
1782, 2461.00
1783, 2458.00
1784, 2457.00
1785, 2459.00
1786, 2457.00
1787, 2458.00
1788, 2457.00
1789, 2456.00
1790, 2455.00
1791, 2457.00
1792, 2456.00
1793, 2455.00
1794, 2454.00
1795, 2455.00
1796, 2453.00
1797, 2455.00
1798, 2453.00
1799, 2453.00
1800, 2452.00
1801, 2451.00
1802, 2451.00
1803, 2451.00
1804, 2452.00
1805, 2451.00
1806, 2450.00
1807, 2450.00
1808, 2448.00
1809, 2451.00
1810, 2449.00
1811, 2449.00
1812, 2447.00
1813, 2447.00
1814, 2448.00
1815, 2445.00
1816, 2446.00
1817, 2444.00
1818, 2443.00
1819, 2443.00
1820, 2442.00
1821, 2443.00
1822, 2443.00
1823, 2442.00
1824, 2440.00
1825, 2442.00
1826, 2439.00
1827, 2438.00
1828, 2436.00
1829, 2436.00
1830, 2437.00
1831, 2435.00
1832, 2434.00
1833, 2431.00
1834, 2431.00
1835, 2429.00
1836, 2426.00
1837, 2428.00
1838, 2426.00
1839, 2424.00
1840, 2422.00
1841, 2421.00
1842, 2419.00
1843, 2417.00
1844, 2415.00
1845, 2413.00
1846, 2412.00
1847, 2411.00
1848, 2406.00
1849, 2405.00
1850, 2405.00
1851, 2402.00
1852, 2401.00
1853, 2400.00
1854, 2396.00
1855, 2394.00
1856, 2393.00
1857, 2391.00
1858, 2390.00
1859, 2386.00
1860, 2386.00
1861, 2382.00
1862, 2382.00
1863, 2380.00
1864, 2378.00
1865, 2379.00
1866, 2376.00
1867, 2374.00
1868, 2373.00
1869, 2373.00
1870, 2371.00
1871, 2369.00
1872, 2367.00
1873, 2366.00
1874, 2364.00
1875, 2366.00
1876, 2364.00
1877, 2363.00
1878, 2364.00
1879, 2362.00
1880, 2361.00
1881, 2360.00
1882, 2359.00
1883, 2359.00
1884, 2359.00
1885, 2356.00
1886, 2356.00
1887, 2356.00
1888, 2355.00
1889, 2354.00
1890, 2355.00
1891, 2353.00
1892, 2354.00
1893, 2354.00
1894, 2352.00
1895, 2351.00
1896, 2351.00
1897, 2351.00
1898, 2351.00
1899, 2350.00
1900, 2350.00
1901, 2350.00
1902, 2353.00
1903, 2349.00
1904, 2350.00
1905, 2351.00
1906, 2348.00
1907, 2347.00
1908, 2348.00
1909, 2346.00
1910, 2347.00
1911, 2350.00
1912, 2349.00
1913, 2348.00
1914, 2348.00
1915, 2347.00
1916, 2347.00
1917, 2348.00
1918, 2347.00
1919, 2348.00
1920, 2347.00
1921, 2347.00
1922, 2347.00
1923, 2348.00
1924, 2347.00
1925, 2347.00
1926, 2347.00
1927, 2347.00
1928, 2347.00
1929, 2348.00
1930, 2349.00
1931, 2347.00
1932, 2348.00
1933, 2348.00
1934, 2346.00
1935, 2348.00
1936, 2348.00
1937, 2348.00
1938, 2348.00
1939, 2346.00
1940, 2348.00
1941, 2349.00
1942, 2348.00
1943, 2350.00
1944, 2350.00
1945, 2350.00
1946, 2352.00
1947, 2350.00
1948, 2352.00
1949, 2351.00
1950, 2353.00
1951, 2352.00
1952, 2353.00
1953, 2352.00
1954, 2352.00
1955, 2353.00
1956, 2355.00
1957, 2353.00
1958, 2354.00
1959, 2355.00
1960, 2353.00
1961, 2356.00
1962, 2355.00
1963, 2355.00
1964, 2358.00
1965, 2358.00
1966, 2358.00
1967, 2359.00
1968, 2359.00
1969, 2359.00
1970, 2361.00
1971, 2360.00
1972, 2360.00
1973, 2361.00
1974, 2363.00
1975, 2363.00
1976, 2362.00
1977, 2361.00
1978, 2365.00
1979, 2364.00
1980, 2365.00
1981, 2365.00
1982, 2366.00
1983, 2366.00
1984, 2367.00
1985, 2369.00
1986, 2368.00
1987, 2370.00
1988, 2370.00
1989, 2372.00
1990, 2370.00
1991, 2372.00
1992, 2370.00
1993, 2372.00
1994, 2371.00
1995, 2372.00
1996, 2375.00
1997, 2373.00
1998, 2374.00
1999, 2374.00
2000, 2375.00
2001, 2376.00
2002, 2376.00
2003, 2378.00
2004, 2376.00
2005, 2380.00
2006, 2378.00
2007, 2378.00
2008, 2380.00
2009, 2379.00
2010, 2382.00
2011, 2382.00
2012, 2379.00
2013, 2382.00
2014, 2383.00
2015, 2382.00
2016, 2383.00
2017, 2383.00
2018, 2384.00
2019, 2384.00
2020, 2386.00
2021, 2384.00
2022, 2385.00
2023, 2386.00
2024, 2387.00
2025, 2389.00
2026, 2388.00
2027, 2388.00
2028, 2389.00
2029, 2393.00
2030, 2390.00
2031, 2392.00
2032, 2392.00
2033, 2392.00
2034, 2393.00
2035, 2394.00
2036, 2394.00
2037, 2393.00
2038, 2397.00
2039, 2397.00
2040, 2397.00
2041, 2398.00
2042, 2398.00
2043, 2399.00
2044, 2398.00
2045, 2402.00
2046, 2402.00
2047, 2401.00
2048, 2401.00
2049, 2402.00
2050, 2403.00
2051, 2405.00
2052, 2406.00
2053, 2405.00
2054, 2407.00
2055, 2409.00
2056, 2409.00
2057, 2410.00
2058, 2409.00
2059, 2412.00
2060, 2413.00
2061, 2413.00
2062, 2413.00
2063, 2417.00
2064, 2415.00
2065, 2415.00
2066, 2416.00
2067, 2416.00
2068, 2419.00
2069, 2418.00
2070, 2419.00
2071, 2421.00
2072, 2420.00
2073, 2422.00
2074, 2422.00
2075, 2423.00
2076, 2425.00
2077, 2426.00
2078, 2425.00
2079, 2425.00
2080, 2427.00
2081, 2427.00
2082, 2427.00
2083, 2428.00
2084, 2429.00
2085, 2429.00
2086, 2431.00
2087, 2429.00
2088, 2431.00
2089, 2432.00
2090, 2431.00
2091, 2434.00
2092, 2433.00
2093, 2435.00
2094, 2435.00
2095, 2434.00
2096, 2436.00
2097, 2436.00
2098, 2434.00
2099, 2436.00
2100, 2437.00
2101, 2436.00
2102, 2438.00
2103, 2439.00
2104, 2438.00
2105, 2437.00
2106, 2439.00
2107, 2439.00
2108, 2441.00
2109, 2439.00
2110, 2442.00
2111, 2443.00
2112, 2441.00
2113, 2441.00
2114, 2441.00
2115, 2444.00
2116, 2440.00
2117, 2444.00
2118, 2442.00
2119, 2444.00
2120, 2445.00
2121, 2443.00
2122, 2444.00
2123, 2445.00
2124, 2444.00
2125, 2445.00
2126, 2444.00
2127, 2443.00
2128, 2444.00
2129, 2446.00
2130, 2446.00
2131, 2447.00
2132, 2447.00
2133, 2446.00
2134, 2447.00
2135, 2448.00
2136, 2446.00
2137, 2449.00
2138, 2449.00
2139, 2447.00
2140, 2449.00
2141, 2451.00
2142, 2450.00
2143, 2451.00
2144, 2451.00
2145, 2452.00
2146, 2451.00
2147, 2452.00
2148, 2451.00
2149, 2452.00
2150, 2451.00
