FW version: 24
Log Version: 3.0.3

General Info:
       Command/Macro Performed,            Timestamp,             Device ID, COM Port, UART/I2C, Test Name, Host Major, Host Minor, Host Revision, Host Git Commit
            Single_measurement,  2023_06_27_12_32_12,       Insight2_F4_xxx,    USB-C,      USB,          ,          0,          1,             1,      4031237645

Show Spectrometer Status:
l0_version, f4_version, battery_perc, battery_mVolt, accelerometer_temp, accelerometer_x, accelerometer_y, accelerometer_z, compass_temp, compass_x, compass_y, compass_z, lamp_0, lamp_1, gain_0, gain_1
        17,         24,           95,          2078,               5488,             696,           65068,           18248,            0,     65532,     65517,     65403,   2866,   2866,    1,    1

Temperature Statistic Info:
NTC AVG [°C], NTC2 AVG [°C]
      37.033,        36.750

Statistic Info:
M1:  num,      min,      max,   median,      AVG,      STD,M2:  num,      min,      max,   median,      AVG,      STD
     301,  1254.00,  1406.00,  1289.00,  1303.93,  46.2745,     401,  1788.00,  1879.00,  1838.00,  1835.55,  31.5543,

Measurements:
Wavelength, Data Amplitude
1350, 1271.00
1351, 1270.00
1352, 1270.00
1353, 1270.00
1354, 1269.00
1355, 1269.00
1356, 1269.00
1357, 1270.00
1358, 1269.00
1359, 1268.00
1360, 1269.00
1361, 1268.00
1362, 1268.00
1363, 1267.00
1364, 1266.00
1365, 1267.00
1366, 1266.00
1367, 1266.00
1368, 1266.00
1369, 1264.00
1370, 1264.00
1371, 1264.00
1372, 1263.00
1373, 1263.00
1374, 1263.00
1375, 1262.00
1376, 1261.00
1377, 1261.00
1378, 1261.00
1379, 1261.00
1380, 1260.00
1381, 1259.00
1382, 1259.00
1383, 1259.00
1384, 1259.00
1385, 1258.00
1386, 1257.00
1387, 1258.00
1388, 1257.00
1389, 1257.00
1390, 1257.00
1391, 1258.00
1392, 1257.00
1393, 1257.00
1394, 1256.00
1395, 1256.00
1396, 1256.00
1397, 1256.00
1398, 1256.00
1399, 1255.00
1400, 1255.00
1401, 1255.00
1402, 1256.00
1403, 1256.00
1404, 1256.00
1405, 1256.00
1406, 1256.00
1407, 1256.00
1408, 1255.00
1409, 1255.00
1410, 1255.00
1411, 1255.00
1412, 1255.00
1413, 1255.00
1414, 1255.00
1415, 1255.00
1416, 1255.00
1417, 1255.00
1418, 1256.00
1419, 1255.00
1420, 1255.00
1421, 1254.00
1422, 1255.00
1423, 1256.00
1424, 1256.00
1425, 1255.00
1426, 1256.00
1427, 1256.00
1428, 1256.00
1429, 1256.00
1430, 1256.00
1431, 1257.00
1432, 1257.00
1433, 1258.00
1434, 1258.00
1435, 1258.00
1436, 1258.00
1437, 1257.00
1438, 1259.00
1439, 1259.00
1440, 1259.00
1441, 1260.00
1442, 1260.00
1443, 1259.00
1444, 1260.00
1445, 1261.00
1446, 1261.00
1447, 1261.00
1448, 1261.00
1449, 1262.00
1450, 1263.00
1451, 1263.00
1452, 1264.00
1453, 1263.00
1454, 1264.00
1455, 1264.00
1456, 1264.00
1457, 1265.00
1458, 1265.00
1459, 1267.00
1460, 1267.00
1461, 1267.00
1462, 1267.00
1463, 1267.00
1464, 1268.00
1465, 1269.00
1466, 1269.00
1467, 1269.00
1468, 1270.00
1469, 1271.00
1470, 1270.00
1471, 1272.00
1472, 1273.00
1473, 1273.00
1474, 1273.00
1475, 1273.00
1476, 1274.00
1477, 1275.00
1478, 1275.00
1479, 1275.00
1480, 1276.00
1481, 1277.00
1482, 1278.00
1483, 1279.00
1484, 1279.00
1485, 1281.00
1486, 1280.00
1487, 1281.00
1488, 1282.00
1489, 1283.00
1490, 1283.00
1491, 1283.00
1492, 1285.00
1493, 1285.00
1494, 1286.00
1495, 1286.00
1496, 1287.00
1497, 1287.00
1498, 1288.00
1499, 1289.00
1500, 1289.00
1501, 1290.00
1502, 1291.00
1503, 1291.00
1504, 1292.00
1505, 1293.00
1506, 1293.00
1507, 1294.00
1508, 1294.00
1509, 1295.00
1510, 1296.00
1511, 1297.00
1512, 1297.00
1513, 1297.00
1514, 1298.00
1515, 1299.00
1516, 1299.00
1517, 1301.00
1518, 1301.00
1519, 1301.00
1520, 1302.00
1521, 1302.00
1522, 1304.00
1523, 1304.00
1524, 1306.00
1525, 1306.00
1526, 1306.00
1527, 1308.00
1528, 1308.00
1529, 1309.00
1530, 1309.00
1531, 1310.00
1532, 1310.00
1533, 1312.00
1534, 1312.00
1535, 1313.00
1536, 1313.00
1537, 1314.00
1538, 1314.00
1539, 1315.00
1540, 1316.00
1541, 1316.00
1542, 1317.00
1543, 1318.00
1544, 1319.00
1545, 1319.00
1546, 1320.00
1547, 1321.00
1548, 1321.00
1549, 1321.00
1550, 1322.00
1551, 1324.00
1552, 1324.00
1553, 1325.00
1554, 1325.00
1555, 1326.00
1556, 1326.00
1557, 1328.00
1558, 1328.00
1559, 1329.00
1560, 1329.00
1561, 1331.00
1562, 1331.00
1563, 1333.00
1564, 1333.00
1565, 1334.00
1566, 1335.00
1567, 1336.00
1568, 1336.00
1569, 1337.00
1570, 1338.00
1571, 1339.00
1572, 1340.00
1573, 1340.00
1574, 1340.00
1575, 1341.00
1576, 1343.00
1577, 1344.00
1578, 1343.00
1579, 1344.00
1580, 1346.00
1581, 1346.00
1582, 1347.00
1583, 1348.00
1584, 1349.00
1585, 1349.00
1586, 1350.00
1587, 1350.00
1588, 1350.00
1589, 1351.00
1590, 1352.00
1591, 1354.00
1592, 1353.00
1593, 1354.00
1594, 1355.00
1595, 1357.00
1596, 1357.00
1597, 1358.00
1598, 1358.00
1599, 1359.00
1600, 1359.00
1601, 1360.00
1602, 1361.00
1603, 1363.00
1604, 1363.00
1605, 1364.00
1606, 1365.00
1607, 1365.00
1608, 1366.00
1609, 1366.00
1610, 1367.00
1611, 1369.00
1612, 1369.00
1613, 1370.00
1614, 1371.00
1615, 1373.00
1616, 1374.00
1617, 1375.00
1618, 1375.00
1619, 1377.00
1620, 1377.00
1621, 1378.00
1622, 1379.00
1623, 1380.00
1624, 1381.00
1625, 1382.00
1626, 1383.00
1627, 1385.00
1628, 1385.00
1629, 1386.00
1630, 1387.00
1631, 1387.00
1632, 1389.00
1633, 1389.00
1634, 1390.00
1635, 1391.00
1636, 1392.00
1637, 1393.00
1638, 1394.00
1639, 1394.00
1640, 1396.00
1641, 1396.00
1642, 1396.00
1643, 1398.00
1644, 1398.00
1645, 1399.00
1646, 1401.00
1647, 1402.00
1648, 1403.00
1649, 1404.00
1650, 1406.00

1750, 1879.00
1751, 1878.00
1752, 1877.00
1753, 1878.00
1754, 1879.00
1755, 1878.00
1756, 1877.00
1757, 1879.00
1758, 1878.00
1759, 1878.00
1760, 1879.00
1761, 1878.00
1762, 1878.00
1763, 1878.00
1764, 1876.00
1765, 1876.00
1766, 1876.00
1767, 1878.00
1768, 1876.00
1769, 1878.00
1770, 1877.00
1771, 1876.00
1772, 1877.00
1773, 1877.00
1774, 1875.00
1775, 1875.00
1776, 1874.00
1777, 1874.00
1778, 1875.00
1779, 1876.00
1780, 1874.00
1781, 1873.00
1782, 1873.00
1783, 1875.00
1784, 1874.00
1785, 1873.00
1786, 1873.00
1787, 1873.00
1788, 1872.00
1789, 1872.00
1790, 1872.00
1791, 1871.00
1792, 1871.00
1793, 1871.00
1794, 1871.00
1795, 1870.00
1796, 1871.00
1797, 1867.00
1798, 1870.00
1799, 1869.00
1800, 1867.00
1801, 1867.00
1802, 1869.00
1803, 1867.00
1804, 1867.00
1805, 1867.00
1806, 1869.00
1807, 1867.00
1808, 1866.00
1809, 1864.00
1810, 1866.00
1811, 1866.00
1812, 1866.00
1813, 1865.00
1814, 1865.00
1815, 1864.00
1816, 1865.00
1817, 1866.00
1818, 1863.00
1819, 1864.00
1820, 1864.00
1821, 1863.00
1822, 1863.00
1823, 1862.00
1824, 1862.00
1825, 1861.00
1826, 1861.00
1827, 1860.00
1828, 1859.00
1829, 1859.00
1830, 1859.00
1831, 1859.00
1832, 1858.00
1833, 1857.00
1834, 1855.00
1835, 1855.00
1836, 1853.00
1837, 1853.00
1838, 1853.00
1839, 1850.00
1840, 1850.00
1841, 1849.00
1842, 1845.00
1843, 1846.00
1844, 1844.00
1845, 1845.00
1846, 1842.00
1847, 1842.00
1848, 1840.00
1849, 1837.00
1850, 1836.00
1851, 1834.00
1852, 1834.00
1853, 1834.00
1854, 1831.00
1855, 1830.00
1856, 1828.00
1857, 1827.00
1858, 1825.00
1859, 1823.00
1860, 1824.00
1861, 1819.00
1862, 1820.00
1863, 1817.00
1864, 1816.00
1865, 1813.00
1866, 1815.00
1867, 1812.00
1868, 1811.00
1869, 1810.00
1870, 1809.00
1871, 1808.00
1872, 1805.00
1873, 1806.00
1874, 1806.00
1875, 1803.00
1876, 1804.00
1877, 1803.00
1878, 1801.00
1879, 1799.00
1880, 1801.00
1881, 1799.00
1882, 1800.00
1883, 1798.00
1884, 1799.00
1885, 1797.00
1886, 1797.00
1887, 1794.00
1888, 1796.00
1889, 1796.00
1890, 1797.00
1891, 1795.00
1892, 1794.00
1893, 1794.00
1894, 1794.00
1895, 1795.00
1896, 1793.00
1897, 1793.00
1898, 1791.00
1899, 1793.00
1900, 1791.00
1901, 1792.00
1902, 1791.00
1903, 1791.00
1904, 1791.00
1905, 1790.00
1906, 1790.00
1907, 1791.00
1908, 1789.00
1909, 1791.00
1910, 1789.00
1911, 1790.00
1912, 1790.00
1913, 1789.00
1914, 1790.00
1915, 1790.00
1916, 1790.00
1917, 1790.00
1918, 1789.00
1919, 1789.00
1920, 1788.00
1921, 1789.00
1922, 1789.00
1923, 1789.00
1924, 1788.00
1925, 1789.00
1926, 1791.00
1927, 1790.00
1928, 1789.00
1929, 1790.00
1930, 1790.00
1931, 1790.00
1932, 1791.00
1933, 1789.00
1934, 1790.00
1935, 1791.00
1936, 1793.00
1937, 1790.00
1938, 1791.00
1939, 1793.00
1940, 1791.00
1941, 1791.00
1942, 1790.00
1943, 1790.00
1944, 1791.00
1945, 1793.00
1946, 1793.00
1947, 1792.00
1948, 1793.00
1949, 1794.00
1950, 1793.00
1951, 1794.00
1952, 1791.00
1953, 1795.00
1954, 1794.00
1955, 1796.00
1956, 1795.00
1957, 1797.00
1958, 1794.00
1959, 1797.00
1960, 1797.00
1961, 1798.00
1962, 1799.00
1963, 1799.00
1964, 1797.00
1965, 1798.00
1966, 1799.00
1967, 1800.00
1968, 1801.00
1969, 1800.00
1970, 1801.00
1971, 1803.00
1972, 1801.00
1973, 1801.00
1974, 1803.00
1975, 1803.00
1976, 1802.00
1977, 1803.00
1978, 1806.00
1979, 1805.00
1980, 1805.00
1981, 1804.00
1982, 1806.00
1983, 1807.00
1984, 1807.00
1985, 1808.00
1986, 1808.00
1987, 1809.00
1988, 1809.00
1989, 1810.00
1990, 1810.00
1991, 1811.00
1992, 1810.00
1993, 1812.00
1994, 1811.00
1995, 1811.00
1996, 1813.00
1997, 1813.00
1998, 1814.00
1999, 1813.00
2000, 1815.00
2001, 1816.00
2002, 1815.00
2003, 1815.00
2004, 1816.00
2005, 1815.00
2006, 1817.00
2007, 1819.00
2008, 1818.00
2009, 1818.00
2010, 1818.00
2011, 1819.00
2012, 1819.00
2013, 1820.00
2014, 1820.00
2015, 1821.00
2016, 1821.00
2017, 1820.00
2018, 1823.00
2019, 1823.00
2020, 1821.00
2021, 1822.00
2022, 1822.00
2023, 1824.00
2024, 1825.00
2025, 1828.00
2026, 1827.00
2027, 1827.00
2028, 1826.00
2029, 1827.00
2030, 1827.00
2031, 1826.00
2032, 1829.00
2033, 1830.00
2034, 1830.00
2035, 1830.00
2036, 1831.00
2037, 1832.00
2038, 1832.00
2039, 1831.00
2040, 1831.00
2041, 1834.00
2042, 1833.00
2043, 1836.00
2044, 1835.00
2045, 1836.00
2046, 1835.00
2047, 1835.00
2048, 1838.00
2049, 1840.00
2050, 1839.00
2051, 1838.00
2052, 1841.00
2053, 1841.00
2054, 1841.00
2055, 1842.00
2056, 1842.00
2057, 1843.00
2058, 1843.00
2059, 1845.00
2060, 1847.00
2061, 1846.00
2062, 1845.00
2063, 1847.00
2064, 1846.00
2065, 1846.00
2066, 1851.00
2067, 1848.00
2068, 1850.00
2069, 1852.00
2070, 1852.00
2071, 1851.00
2072, 1853.00
2073, 1852.00
2074, 1853.00
2075, 1854.00
2076, 1855.00
2077, 1856.00
2078, 1853.00
2079, 1856.00
2080, 1857.00
2081, 1856.00
2082, 1856.00
2083, 1857.00
2084, 1858.00
2085, 1858.00
2086, 1861.00
2087, 1859.00
2088, 1861.00
2089, 1862.00
2090, 1860.00
2091, 1861.00
2092, 1864.00
2093, 1860.00
2094, 1862.00
2095, 1863.00
2096, 1864.00
2097, 1864.00
2098, 1863.00
2099, 1864.00
2100, 1864.00
2101, 1865.00
2102, 1865.00
2103, 1865.00
2104, 1865.00
2105, 1866.00
2106, 1868.00
2107, 1868.00
2108, 1866.00
2109, 1868.00
2110, 1869.00
2111, 1866.00
2112, 1868.00
2113, 1869.00
2114, 1866.00
2115, 1868.00
2116, 1869.00
2117, 1869.00
2118, 1869.00
2119, 1869.00
2120, 1871.00
2121, 1870.00
2122, 1870.00
2123, 1870.00
2124, 1871.00
2125, 1869.00
2126, 1871.00
2127, 1872.00
2128, 1870.00
2129, 1872.00
2130, 1872.00
2131, 1872.00
2132, 1872.00
2133, 1873.00
2134, 1871.00
2135, 1873.00
2136, 1874.00
2137, 1873.00
2138, 1874.00
2139, 1874.00
2140, 1873.00
2141, 1873.00
2142, 1872.00
2143, 1873.00
2144, 1875.00
2145, 1874.00
2146, 1873.00
2147, 1874.00
2148, 1873.00
2149, 1875.00
2150, 1875.00
