FW version: 24
Log Version: 3.0.3

General Info:
       Command/Macro Performed,            Timestamp,             Device ID, COM Port, UART/I2C, Test Name, Host Major, Host Minor, Host Revision, Host Git Commit
            Single_measurement,  2023_06_27_12_31_50,       Insight2_F4_xxx,    USB-C,      USB,          ,          0,          1,             1,      4031237645

Show Spectrometer Status:
l0_version, f4_version, battery_perc, battery_mVolt, accelerometer_temp, accelerometer_x, accelerometer_y, accelerometer_z, compass_temp, compass_x, compass_y, compass_z, lamp_0, lamp_1, gain_0, gain_1
        17,         24,           95,          2078,               5456,             736,           65012,           18504,            0,     65514,     65525,     65390,   2047,   2047,    1,    1

Temperature Statistic Info:
NTC AVG [°C], NTC2 AVG [°C]
      36.891,        36.580

Statistic Info:
M1:  num,      min,      max,   median,      AVG,      STD,M2:  num,      min,      max,   median,      AVG,      STD
     301,   645.00,   730.00,   667.00,   673.37,  26.3097,     401,  1007.00,  1062.00,  1038.00,  1036.23,  18.4741,

Measurements:
Wavelength, Data Amplitude
1350, 652.00
1351, 652.00
1352, 652.00
1353, 651.00
1354, 651.00
1355, 651.00
1356, 651.00
1357, 651.00
1358, 651.00
1359, 650.00
1360, 651.00
1361, 651.00
1362, 651.00
1363, 650.00
1364, 649.00
1365, 650.00
1366, 649.00
1367, 649.00
1368, 649.00
1369, 649.00
1370, 650.00
1371, 649.00
1372, 648.00
1373, 648.00
1374, 649.00
1375, 648.00
1376, 648.00
1377, 647.00
1378, 647.00
1379, 647.00
1380, 648.00
1381, 647.00
1382, 646.00
1383, 646.00
1384, 645.00
1385, 647.00
1386, 646.00
1387, 646.00
1388, 646.00
1389, 646.00
1390, 646.00
1391, 646.00
1392, 646.00
1393, 646.00
1394, 646.00
1395, 645.00
1396, 645.00
1397, 646.00
1398, 646.00
1399, 645.00
1400, 645.00
1401, 646.00
1402, 645.00
1403, 645.00
1404, 645.00
1405, 645.00
1406, 645.00
1407, 645.00
1408, 645.00
1409, 646.00
1410, 645.00
1411, 645.00
1412, 646.00
1413, 645.00
1414, 645.00
1415, 645.00
1416, 645.00
1417, 645.00
1418, 646.00
1419, 645.00
1420, 647.00
1421, 646.00
1422, 646.00
1423, 646.00
1424, 646.00
1425, 646.00
1426, 645.00
1427, 646.00
1428, 646.00
1429, 646.00
1430, 647.00
1431, 647.00
1432, 647.00
1433, 647.00
1434, 648.00
1435, 648.00
1436, 648.00
1437, 647.00
1438, 648.00
1439, 649.00
1440, 648.00
1441, 648.00
1442, 649.00
1443, 649.00
1444, 648.00
1445, 648.00
1446, 649.00
1447, 650.00
1448, 649.00
1449, 650.00
1450, 651.00
1451, 650.00
1452, 651.00
1453, 651.00
1454, 651.00
1455, 651.00
1456, 652.00
1457, 652.00
1458, 652.00
1459, 653.00
1460, 653.00
1461, 653.00
1462, 653.00
1463, 654.00
1464, 653.00
1465, 653.00
1466, 654.00
1467, 654.00
1468, 655.00
1469, 656.00
1470, 656.00
1471, 656.00
1472, 656.00
1473, 656.00
1474, 656.00
1475, 657.00
1476, 657.00
1477, 658.00
1478, 658.00
1479, 658.00
1480, 659.00
1481, 660.00
1482, 659.00
1483, 660.00
1484, 660.00
1485, 662.00
1486, 661.00
1487, 661.00
1488, 663.00
1489, 662.00
1490, 662.00
1491, 663.00
1492, 663.00
1493, 663.00
1494, 663.00
1495, 664.00
1496, 665.00
1497, 666.00
1498, 666.00
1499, 666.00
1500, 667.00
1501, 667.00
1502, 667.00
1503, 667.00
1504, 667.00
1505, 668.00
1506, 669.00
1507, 669.00
1508, 669.00
1509, 669.00
1510, 670.00
1511, 670.00
1512, 672.00
1513, 671.00
1514, 672.00
1515, 672.00
1516, 672.00
1517, 673.00
1518, 673.00
1519, 674.00
1520, 674.00
1521, 675.00
1522, 675.00
1523, 676.00
1524, 676.00
1525, 676.00
1526, 677.00
1527, 676.00
1528, 678.00
1529, 678.00
1530, 678.00
1531, 678.00
1532, 678.00
1533, 679.00
1534, 680.00
1535, 679.00
1536, 680.00
1537, 680.00
1538, 680.00
1539, 682.00
1540, 681.00
1541, 682.00
1542, 682.00
1543, 683.00
1544, 683.00
1545, 683.00
1546, 684.00
1547, 684.00
1548, 684.00
1549, 685.00
1550, 685.00
1551, 685.00
1552, 686.00
1553, 686.00
1554, 687.00
1555, 687.00
1556, 687.00
1557, 688.00
1558, 688.00
1559, 688.00
1560, 688.00
1561, 689.00
1562, 689.00
1563, 690.00
1564, 691.00
1565, 690.00
1566, 692.00
1567, 691.00
1568, 692.00
1569, 691.00
1570, 692.00
1571, 694.00
1572, 694.00
1573, 694.00
1574, 695.00
1575, 695.00
1576, 695.00
1577, 696.00
1578, 695.00
1579, 697.00
1580, 697.00
1581, 697.00
1582, 697.00
1583, 697.00
1584, 698.00
1585, 699.00
1586, 699.00
1587, 700.00
1588, 700.00
1589, 700.00
1590, 701.00
1591, 701.00
1592, 701.00
1593, 701.00
1594, 703.00
1595, 702.00
1596, 702.00
1597, 703.00
1598, 703.00
1599, 704.00
1600, 705.00
1601, 705.00
1602, 706.00
1603, 706.00
1604, 706.00
1605, 708.00
1606, 708.00
1607, 709.00
1608, 708.00
1609, 708.00
1610, 710.00
1611, 710.00
1612, 711.00
1613, 711.00
1614, 711.00
1615, 712.00
1616, 713.00
1617, 713.00
1618, 714.00
1619, 714.00
1620, 714.00
1621, 715.00
1622, 715.00
1623, 716.00
1624, 717.00
1625, 717.00
1626, 718.00
1627, 718.00
1628, 719.00
1629, 718.00
1630, 719.00
1631, 720.00
1632, 721.00
1633, 722.00
1634, 723.00
1635, 722.00
1636, 723.00
1637, 724.00
1638, 723.00
1639, 724.00
1640, 725.00
1641, 725.00
1642, 725.00
1643, 726.00
1644, 727.00
1645, 727.00
1646, 728.00
1647, 727.00
1648, 728.00
1649, 728.00
1650, 730.00

1750, 1059.00
1751, 1059.00
1752, 1057.00
1753, 1059.00
1754, 1057.00
1755, 1059.00
1756, 1059.00
1757, 1059.00
1758, 1059.00
1759, 1059.00
1760, 1058.00
1761, 1059.00
1762, 1058.00
1763, 1059.00
1764, 1059.00
1765, 1058.00
1766, 1059.00
1767, 1057.00
1768, 1060.00
1769, 1058.00
1770, 1057.00
1771, 1057.00
1772, 1058.00
1773, 1057.00
1774, 1058.00
1775, 1057.00
1776, 1057.00
1777, 1056.00
1778, 1057.00
1779, 1058.00
1780, 1057.00
1781, 1056.00
1782, 1056.00
1783, 1056.00
1784, 1056.00
1785, 1056.00
1786, 1056.00
1787, 1055.00
1788, 1056.00
1789, 1055.00
1790, 1057.00
1791, 1054.00
1792, 1054.00
1793, 1056.00
1794, 1056.00
1795, 1055.00
1796, 1054.00
1797, 1056.00
1798, 1054.00
1799, 1054.00
1800, 1054.00
1801, 1055.00
1802, 1055.00
1803, 1052.00
1804, 1053.00
1805, 1053.00
1806, 1053.00
1807, 1053.00
1808, 1053.00
1809, 1052.00
1810, 1053.00
1811, 1052.00
1812, 1054.00
1813, 1052.00
1814, 1053.00
1815, 1051.00
1816, 1051.00
1817, 1052.00
1818, 1051.00
1819, 1052.00
1820, 1050.00
1821, 1050.00
1822, 1051.00
1823, 1049.00
1824, 1050.00
1825, 1051.00
1826, 1048.00
1827, 1049.00
1828, 1050.00
1829, 1050.00
1830, 1048.00
1831, 1049.00
1832, 1048.00
1833, 1048.00
1834, 1047.00
1835, 1048.00
1836, 1046.00
1837, 1046.00
1838, 1043.00
1839, 1045.00
1840, 1044.00
1841, 1046.00
1842, 1042.00
1843, 1041.00
1844, 1043.00
1845, 1041.00
1846, 1040.00
1847, 1037.00
1848, 1037.00
1849, 1035.00
1850, 1035.00
1851, 1035.00
1852, 1034.00
1853, 1033.00
1854, 1034.00
1855, 1032.00
1856, 1031.00
1857, 1030.00
1858, 1029.00
1859, 1029.00
1860, 1028.00
1861, 1026.00
1862, 1026.00
1863, 1025.00
1864, 1024.00
1865, 1024.00
1866, 1021.00
1867, 1022.00
1868, 1022.00
1869, 1021.00
1870, 1020.00
1871, 1021.00
1872, 1019.00
1873, 1019.00
1874, 1017.00
1875, 1017.00
1876, 1016.00
1877, 1017.00
1878, 1016.00
1879, 1016.00
1880, 1015.00
1881, 1016.00
1882, 1015.00
1883, 1013.00
1884, 1013.00
1885, 1012.00
1886, 1014.00
1887, 1015.00
1888, 1012.00
1889, 1013.00
1890, 1013.00
1891, 1011.00
1892, 1012.00
1893, 1012.00
1894, 1011.00
1895, 1011.00
1896, 1011.00
1897, 1010.00
1898, 1012.00
1899, 1011.00
1900, 1011.00
1901, 1010.00
1902, 1011.00
1903, 1012.00
1904, 1010.00
1905, 1010.00
1906, 1010.00
1907, 1010.00
1908, 1009.00
1909, 1010.00
1910, 1007.00
1911, 1010.00
1912, 1009.00
1913, 1009.00
1914, 1009.00
1915, 1009.00
1916, 1009.00
1917, 1010.00
1918, 1010.00
1919, 1009.00
1920, 1009.00
1921, 1009.00
1922, 1009.00
1923, 1009.00
1924, 1009.00
1925, 1008.00
1926, 1008.00
1927, 1008.00
1928, 1008.00
1929, 1009.00
1930, 1010.00
1931, 1009.00
1932, 1009.00
1933, 1010.00
1934, 1009.00
1935, 1009.00
1936, 1009.00
1937, 1009.00
1938, 1011.00
1939, 1011.00
1940, 1011.00
1941, 1011.00
1942, 1010.00
1943, 1012.00
1944, 1011.00
1945, 1011.00
1946, 1012.00
1947, 1012.00
1948, 1011.00
1949, 1014.00
1950, 1012.00
1951, 1011.00
1952, 1012.00
1953, 1013.00
1954, 1013.00
1955, 1013.00
1956, 1013.00
1957, 1013.00
1958, 1014.00
1959, 1011.00
1960, 1014.00
1961, 1014.00
1962, 1014.00
1963, 1014.00
1964, 1014.00
1965, 1014.00
1966, 1015.00
1967, 1016.00
1968, 1015.00
1969, 1016.00
1970, 1016.00
1971, 1016.00
1972, 1015.00
1973, 1017.00
1974, 1016.00
1975, 1017.00
1976, 1018.00
1977, 1017.00
1978, 1015.00
1979, 1018.00
1980, 1019.00
1981, 1019.00
1982, 1019.00
1983, 1017.00
1984, 1019.00
1985, 1020.00
1986, 1021.00
1987, 1020.00
1988, 1021.00
1989, 1022.00
1990, 1022.00
1991, 1021.00
1992, 1021.00
1993, 1024.00
1994, 1024.00
1995, 1023.00
1996, 1024.00
1997, 1025.00
1998, 1022.00
1999, 1024.00
2000, 1024.00
2001, 1025.00
2002, 1025.00
2003, 1026.00
2004, 1026.00
2005, 1026.00
2006, 1024.00
2007, 1025.00
2008, 1026.00
2009, 1025.00
2010, 1027.00
2011, 1028.00
2012, 1027.00
2013, 1029.00
2014, 1028.00
2015, 1030.00
2016, 1029.00
2017, 1029.00
2018, 1028.00
2019, 1029.00
2020, 1028.00
2021, 1029.00
2022, 1031.00
2023, 1032.00
2024, 1030.00
2025, 1030.00
2026, 1029.00
2027, 1030.00
2028, 1030.00
2029, 1032.00
2030, 1031.00
2031, 1033.00
2032, 1032.00
2033, 1033.00
2034, 1032.00
2035, 1034.00
2036, 1034.00
2037, 1034.00
2038, 1033.00
2039, 1036.00
2040, 1034.00
2041, 1035.00
2042, 1035.00
2043, 1037.00
2044, 1037.00
2045, 1037.00
2046, 1038.00
2047, 1038.00
2048, 1037.00
2049, 1038.00
2050, 1039.00
2051, 1038.00
2052, 1040.00
2053, 1040.00
2054, 1040.00
2055, 1041.00
2056, 1042.00
2057, 1041.00
2058, 1042.00
2059, 1042.00
2060, 1042.00
2061, 1043.00
2062, 1043.00
2063, 1043.00
2064, 1044.00
2065, 1045.00
2066, 1046.00
2067, 1045.00
2068, 1046.00
2069, 1046.00
2070, 1047.00
2071, 1046.00
2072, 1048.00
2073, 1047.00
2074, 1048.00
2075, 1047.00
2076, 1049.00
2077, 1048.00
2078, 1048.00
2079, 1050.00
2080, 1049.00
2081, 1049.00
2082, 1051.00
2083, 1050.00
2084, 1051.00
2085, 1051.00
2086, 1052.00
2087, 1053.00
2088, 1053.00
2089, 1053.00
2090, 1055.00
2091, 1053.00
2092, 1053.00
2093, 1055.00
2094, 1054.00
2095, 1054.00
2096, 1055.00
2097, 1056.00
2098, 1056.00
2099, 1056.00
2100, 1054.00
2101, 1056.00
2102, 1056.00
2103, 1057.00
2104, 1056.00
2105, 1056.00
2106, 1056.00
2107, 1057.00
2108, 1058.00
2109, 1057.00
2110, 1058.00
2111, 1057.00
2112, 1056.00
2113, 1057.00
2114, 1058.00
2115, 1059.00
2116, 1056.00
2117, 1056.00
2118, 1058.00
2119, 1056.00
2120, 1057.00
2121, 1058.00
2122, 1060.00
2123, 1058.00
2124, 1059.00
2125, 1059.00
2126, 1060.00
2127, 1060.00
2128, 1058.00
2129, 1060.00
2130, 1061.00
2131, 1059.00
2132, 1060.00
2133, 1058.00
2134, 1060.00
2135, 1060.00
2136, 1060.00
2137, 1062.00
2138, 1060.00
2139, 1061.00
2140, 1060.00
2141, 1059.00
2142, 1061.00
2143, 1060.00
2144, 1060.00
2145, 1061.00
2146, 1059.00
2147, 1061.00
2148, 1060.00
2149, 1062.00
2150, 1059.00
