FW version: 24
Log Version: 3.0.3

General Info:
       Command/Macro Performed,            Timestamp,             Device ID, COM Port, UART/I2C, Test Name, Host Major, Host Minor, Host Revision, Host Git Commit
            Single_measurement,  2023_07_04_10_39_08,       Insight2_F4_xxx,    USB-C,      USB,          ,          0,          1,             1,      4031237645

Show Spectrometer Status:
l0_version, f4_version, battery_perc, battery_mVolt, accelerometer_temp, accelerometer_x, accelerometer_y, accelerometer_z, compass_temp, compass_x, compass_y, compass_z, lamp_0, lamp_1, gain_0, gain_1
        17,         24,            0,          1749,               4912,           64760,            1564,           18948,            0,     65530,     65404,     19100,   3276,   3276,      0,      0

Temperature Statistic Info:
NTC AVG [°C], NTC2 AVG [°C]
      32.769,        32.437

Statistic Info:
M1:  num,      min,      max,   median,      AVG,      STD,M2:  num,      min,      max,   median,      AVG,      STD
     301,   548.00,   621.00,   562.00,   571.93,  22.5285,     401,   740.00,   783.00,   757.00,   758.28,  14.1130,

Measurements:
Wavelength, Data Amplitude
1350, 562.00
1351, 562.00
1352, 561.00
1353, 561.00
1354, 561.00
1355, 561.00
1356, 561.00
1357, 560.00
1358, 560.00
1359, 560.00
1360, 559.00
1361, 559.00
1362, 559.00
1363, 559.00
1364, 557.00
1365, 558.00
1366, 557.00
1367, 557.00
1368, 557.00
1369, 556.00
1370, 556.00
1371, 556.00
1372, 556.00
1373, 555.00
1374, 555.00
1375, 554.00
1376, 553.00
1377, 554.00
1378, 553.00
1379, 553.00
1380, 553.00
1381, 553.00
1382, 552.00
1383, 552.00
1384, 552.00
1385, 551.00
1386, 552.00
1387, 551.00
1388, 551.00
1389, 551.00
1390, 551.00
1391, 550.00
1392, 551.00
1393, 550.00
1394, 550.00
1395, 550.00
1396, 550.00
1397, 549.00
1398, 550.00
1399, 549.00
1400, 549.00
1401, 550.00
1402, 549.00
1403, 549.00
1404, 549.00
1405, 548.00
1406, 549.00
1407, 549.00
1408, 549.00
1409, 548.00
1410, 549.00
1411, 548.00
1412, 548.00
1413, 548.00
1414, 548.00
1415, 548.00
1416, 548.00
1417, 548.00
1418, 548.00
1419, 548.00
1420, 548.00
1421, 548.00
1422, 548.00
1423, 548.00
1424, 548.00
1425, 548.00
1426, 548.00
1427, 548.00
1428, 549.00
1429, 548.00
1430, 548.00
1431, 549.00
1432, 549.00
1433, 549.00
1434, 548.00
1435, 549.00
1436, 549.00
1437, 549.00
1438, 549.00
1439, 549.00
1440, 549.00
1441, 550.00
1442, 549.00
1443, 550.00
1444, 549.00
1445, 550.00
1446, 549.00
1447, 550.00
1448, 550.00
1449, 550.00
1450, 550.00
1451, 550.00
1452, 551.00
1453, 551.00
1454, 551.00
1455, 552.00
1456, 552.00
1457, 552.00
1458, 552.00
1459, 552.00
1460, 552.00
1461, 552.00
1462, 553.00
1463, 553.00
1464, 553.00
1465, 553.00
1466, 553.00
1467, 553.00
1468, 554.00
1469, 554.00
1470, 554.00
1471, 554.00
1472, 555.00
1473, 555.00
1474, 555.00
1475, 555.00
1476, 556.00
1477, 556.00
1478, 556.00
1479, 556.00
1480, 557.00
1481, 557.00
1482, 558.00
1483, 558.00
1484, 558.00
1485, 558.00
1486, 558.00
1487, 559.00
1488, 559.00
1489, 559.00
1490, 560.00
1491, 560.00
1492, 560.00
1493, 561.00
1494, 561.00
1495, 561.00
1496, 562.00
1497, 561.00
1498, 562.00
1499, 562.00
1500, 562.00
1501, 563.00
1502, 563.00
1503, 563.00
1504, 564.00
1505, 564.00
1506, 565.00
1507, 565.00
1508, 565.00
1509, 566.00
1510, 566.00
1511, 567.00
1512, 567.00
1513, 567.00
1514, 567.00
1515, 568.00
1516, 568.00
1517, 568.00
1518, 569.00
1519, 569.00
1520, 570.00
1521, 570.00
1522, 570.00
1523, 571.00
1524, 571.00
1525, 571.00
1526, 572.00
1527, 572.00
1528, 572.00
1529, 572.00
1530, 573.00
1531, 574.00
1532, 574.00
1533, 574.00
1534, 575.00
1535, 575.00
1536, 576.00
1537, 576.00
1538, 576.00
1539, 577.00
1540, 576.00
1541, 577.00
1542, 578.00
1543, 578.00
1544, 578.00
1545, 578.00
1546, 579.00
1547, 579.00
1548, 580.00
1549, 580.00
1550, 580.00
1551, 581.00
1552, 581.00
1553, 581.00
1554, 582.00
1555, 582.00
1556, 582.00
1557, 583.00
1558, 584.00
1559, 584.00
1560, 584.00
1561, 585.00
1562, 585.00
1563, 585.00
1564, 586.00
1565, 586.00
1566, 587.00
1567, 587.00
1568, 587.00
1569, 588.00
1570, 588.00
1571, 589.00
1572, 589.00
1573, 589.00
1574, 590.00
1575, 590.00
1576, 591.00
1577, 591.00
1578, 592.00
1579, 592.00
1580, 592.00
1581, 592.00
1582, 593.00
1583, 594.00
1584, 593.00
1585, 594.00
1586, 594.00
1587, 594.00
1588, 595.00
1589, 595.00
1590, 596.00
1591, 596.00
1592, 596.00
1593, 597.00
1594, 597.00
1595, 598.00
1596, 598.00
1597, 599.00
1598, 598.00
1599, 599.00
1600, 599.00
1601, 599.00
1602, 600.00
1603, 601.00
1604, 601.00
1605, 601.00
1606, 602.00
1607, 602.00
1608, 603.00
1609, 603.00
1610, 604.00
1611, 604.00
1612, 604.00
1613, 606.00
1614, 606.00
1615, 606.00
1616, 606.00
1617, 607.00
1618, 607.00
1619, 608.00
1620, 608.00
1621, 609.00
1622, 610.00
1623, 610.00
1624, 610.00
1625, 611.00
1626, 612.00
1627, 612.00
1628, 612.00
1629, 612.00
1630, 613.00
1631, 613.00
1632, 614.00
1633, 614.00
1634, 615.00
1635, 615.00
1636, 615.00
1637, 616.00
1638, 616.00
1639, 617.00
1640, 617.00
1641, 617.00
1642, 617.00
1643, 618.00
1644, 618.00
1645, 618.00
1646, 619.00
1647, 620.00
1648, 620.00
1649, 620.00
1650, 621.00

1750, 782.00
1751, 782.00
1752, 782.00
1753, 782.00
1754, 783.00
1755, 783.00
1756, 782.00
1757, 782.00
1758, 782.00
1759, 782.00
1760, 782.00
1761, 783.00
1762, 782.00
1763, 781.00
1764, 782.00
1765, 782.00
1766, 782.00
1767, 783.00
1768, 782.00
1769, 782.00
1770, 782.00
1771, 781.00
1772, 781.00
1773, 781.00
1774, 781.00
1775, 781.00
1776, 781.00
1777, 780.00
1778, 781.00
1779, 781.00
1780, 780.00
1781, 781.00
1782, 780.00
1783, 780.00
1784, 781.00
1785, 780.00
1786, 780.00
1787, 779.00
1788, 780.00
1789, 780.00
1790, 779.00
1791, 779.00
1792, 779.00
1793, 778.00
1794, 779.00
1795, 778.00
1796, 778.00
1797, 778.00
1798, 778.00
1799, 778.00
1800, 778.00
1801, 778.00
1802, 778.00
1803, 777.00
1804, 777.00
1805, 777.00
1806, 776.00
1807, 777.00
1808, 778.00
1809, 776.00
1810, 776.00
1811, 776.00
1812, 776.00
1813, 776.00
1814, 776.00
1815, 776.00
1816, 775.00
1817, 776.00
1818, 775.00
1819, 775.00
1820, 775.00
1821, 775.00
1822, 774.00
1823, 774.00
1824, 773.00
1825, 773.00
1826, 773.00
1827, 773.00
1828, 772.00
1829, 772.00
1830, 772.00
1831, 772.00
1832, 771.00
1833, 770.00
1834, 770.00
1835, 769.00
1836, 769.00
1837, 768.00
1838, 768.00
1839, 767.00
1840, 767.00
1841, 767.00
1842, 766.00
1843, 765.00
1844, 764.00
1845, 764.00
1846, 763.00
1847, 763.00
1848, 761.00
1849, 761.00
1850, 760.00
1851, 760.00
1852, 759.00
1853, 759.00
1854, 758.00
1855, 757.00
1856, 757.00
1857, 755.00
1858, 756.00
1859, 754.00
1860, 754.00
1861, 753.00
1862, 753.00
1863, 753.00
1864, 751.00
1865, 751.00
1866, 751.00
1867, 749.00
1868, 749.00
1869, 749.00
1870, 748.00
1871, 748.00
1872, 748.00
1873, 747.00
1874, 747.00
1875, 747.00
1876, 746.00
1877, 746.00
1878, 746.00
1879, 745.00
1880, 745.00
1881, 745.00
1882, 744.00
1883, 744.00
1884, 744.00
1885, 744.00
1886, 744.00
1887, 743.00
1888, 743.00
1889, 743.00
1890, 743.00
1891, 742.00
1892, 742.00
1893, 742.00
1894, 742.00
1895, 742.00
1896, 742.00
1897, 742.00
1898, 741.00
1899, 741.00
1900, 742.00
1901, 741.00
1902, 741.00
1903, 741.00
1904, 741.00
1905, 741.00
1906, 741.00
1907, 741.00
1908, 740.00
1909, 741.00
1910, 740.00
1911, 741.00
1912, 740.00
1913, 741.00
1914, 740.00
1915, 740.00
1916, 740.00
1917, 740.00
1918, 740.00
1919, 740.00
1920, 740.00
1921, 740.00
1922, 740.00
1923, 740.00
1924, 740.00
1925, 740.00
1926, 741.00
1927, 740.00
1928, 740.00
1929, 740.00
1930, 740.00
1931, 740.00
1932, 740.00
1933, 740.00
1934, 740.00
1935, 740.00
1936, 740.00
1937, 740.00
1938, 740.00
1939, 740.00
1940, 740.00
1941, 740.00
1942, 741.00
1943, 741.00
1944, 740.00
1945, 740.00
1946, 740.00
1947, 741.00
1948, 741.00
1949, 741.00
1950, 740.00
1951, 741.00
1952, 740.00
1953, 741.00
1954, 741.00
1955, 742.00
1956, 741.00
1957, 741.00
1958, 741.00
1959, 741.00
1960, 742.00
1961, 741.00
1962, 742.00
1963, 742.00
1964, 742.00
1965, 742.00
1966, 743.00
1967, 742.00
1968, 743.00
1969, 742.00
1970, 742.00
1971, 743.00
1972, 743.00
1973, 743.00
1974, 743.00
1975, 744.00
1976, 744.00
1977, 744.00
1978, 743.00
1979, 744.00
1980, 744.00
1981, 745.00
1982, 745.00
1983, 745.00
1984, 744.00
1985, 745.00
1986, 745.00
1987, 746.00
1988, 745.00
1989, 746.00
1990, 745.00
1991, 745.00
1992, 746.00
1993, 747.00
1994, 747.00
1995, 746.00
1996, 747.00
1997, 747.00
1998, 747.00
1999, 747.00
2000, 746.00
2001, 747.00
2002, 747.00
2003, 748.00
2004, 748.00
2005, 748.00
2006, 748.00
2007, 748.00
2008, 748.00
2009, 749.00
2010, 748.00
2011, 748.00
2012, 748.00
2013, 749.00
2014, 750.00
2015, 749.00
2016, 749.00
2017, 750.00
2018, 750.00
2019, 750.00
2020, 750.00
2021, 750.00
2022, 750.00
2023, 750.00
2024, 751.00
2025, 751.00
2026, 751.00
2027, 751.00
2028, 751.00
2029, 752.00
2030, 752.00
2031, 752.00
2032, 751.00
2033, 752.00
2034, 753.00
2035, 753.00
2036, 753.00
2037, 753.00
2038, 752.00
2039, 753.00
2040, 754.00
2041, 754.00
2042, 754.00
2043, 754.00
2044, 755.00
2045, 755.00
2046, 755.00
2047, 755.00
2048, 755.00
2049, 756.00
2050, 756.00
2051, 755.00
2052, 756.00
2053, 756.00
2054, 756.00
2055, 757.00
2056, 757.00
2057, 758.00
2058, 758.00
2059, 758.00
2060, 758.00
2061, 758.00
2062, 759.00
2063, 759.00
2064, 759.00
2065, 759.00
2066, 759.00
2067, 760.00
2068, 760.00
2069, 760.00
2070, 760.00
2071, 760.00
2072, 761.00
2073, 761.00
2074, 761.00
2075, 762.00
2076, 762.00
2077, 762.00
2078, 762.00
2079, 763.00
2080, 762.00
2081, 763.00
2082, 763.00
2083, 763.00
2084, 764.00
2085, 764.00
2086, 764.00
2087, 764.00
2088, 764.00
2089, 765.00
2090, 765.00
2091, 765.00
2092, 765.00
2093, 765.00
2094, 766.00
2095, 766.00
2096, 765.00
2097, 766.00
2098, 766.00
2099, 766.00
2100, 766.00
2101, 767.00
2102, 766.00
2103, 766.00
2104, 767.00
2105, 767.00
2106, 767.00
2107, 767.00
2108, 767.00
2109, 767.00
2110, 768.00
2111, 768.00
2112, 767.00
2113, 768.00
2114, 768.00
2115, 768.00
2116, 768.00
2117, 769.00
2118, 768.00
2119, 769.00
2120, 769.00
2121, 769.00
2122, 769.00
2123, 770.00
2124, 769.00
2125, 769.00
2126, 769.00
2127, 769.00
2128, 770.00
2129, 770.00
2130, 769.00
2131, 769.00
2132, 770.00
2133, 770.00
2134, 770.00
2135, 770.00
2136, 770.00
2137, 769.00
2138, 770.00
2139, 770.00
2140, 770.00
2141, 770.00
2142, 770.00
2143, 771.00
2144, 770.00
2145, 770.00
2146, 771.00
2147, 772.00
2148, 771.00
2149, 771.00
2150, 771.00
