FW version: 24
Log Version: 3.0.3

General Info:
       Command/Macro Performed,            Timestamp,             Device ID, COM Port, UART/I2C, Test Name, Host Major, Host Minor, Host Revision, Host Git Commit
            Single_measurement,  2023_07_04_10_40_26,       Insight2_F4_xxx,    USB-C,      USB,          ,          0,          1,             1,      4031237645

Show Spectrometer Status:
l0_version, f4_version, battery_perc, battery_mVolt, accelerometer_temp, accelerometer_x, accelerometer_y, accelerometer_z, compass_temp, compass_x, compass_y, compass_z, lamp_0, lamp_1, gain_0, gain_1
        17,         24,            1,          1754,               4944,           64768,            1548,           18980,            0,     65390,     65405,     19133,   3276,   3276,      1,      1

Temperature Statistic Info:
NTC AVG [°C], NTC2 AVG [°C]
      33.638,        33.301

Statistic Info:
M1:  num,      min,      max,   median,      AVG,      STD,M2:  num,      min,      max,   median,      AVG,      STD
     301,  1583.00,  1795.00,  1627.00,  1652.60,  65.1940,     401,  2134.00,  2260.00,  2186.00,  2189.60,  40.6744,

Measurements:
Wavelength, Data Amplitude
1350, 1624.00
1351, 1624.00
1352, 1622.00
1353, 1622.00
1354, 1620.00
1355, 1620.00
1356, 1619.00
1357, 1618.00
1358, 1618.00
1359, 1616.00
1360, 1617.00
1361, 1615.00
1362, 1613.00
1363, 1613.00
1364, 1613.00
1365, 1610.00
1366, 1609.00
1367, 1608.00
1368, 1608.00
1369, 1607.00
1370, 1608.00
1371, 1605.00
1372, 1604.00
1373, 1602.00
1374, 1602.00
1375, 1601.00
1376, 1601.00
1377, 1599.00
1378, 1597.00
1379, 1597.00
1380, 1596.00
1381, 1596.00
1382, 1595.00
1383, 1594.00
1384, 1594.00
1385, 1593.00
1386, 1592.00
1387, 1592.00
1388, 1591.00
1389, 1590.00
1390, 1590.00
1391, 1590.00
1392, 1589.00
1393, 1589.00
1394, 1589.00
1395, 1588.00
1396, 1587.00
1397, 1587.00
1398, 1587.00
1399, 1587.00
1400, 1587.00
1401, 1586.00
1402, 1586.00
1403, 1587.00
1404, 1585.00
1405, 1586.00
1406, 1585.00
1407, 1586.00
1408, 1585.00
1409, 1585.00
1410, 1585.00
1411, 1585.00
1412, 1584.00
1413, 1583.00
1414, 1584.00
1415, 1585.00
1416, 1585.00
1417, 1584.00
1418, 1585.00
1419, 1585.00
1420, 1584.00
1421, 1584.00
1422, 1583.00
1423, 1584.00
1424, 1585.00
1425, 1585.00
1426, 1584.00
1427, 1584.00
1428, 1584.00
1429, 1584.00
1430, 1585.00
1431, 1585.00
1432, 1586.00
1433, 1586.00
1434, 1586.00
1435, 1585.00
1436, 1586.00
1437, 1586.00
1438, 1587.00
1439, 1586.00
1440, 1587.00
1441, 1588.00
1442, 1588.00
1443, 1589.00
1444, 1589.00
1445, 1589.00
1446, 1589.00
1447, 1590.00
1448, 1590.00
1449, 1590.00
1450, 1590.00
1451, 1591.00
1452, 1592.00
1453, 1593.00
1454, 1593.00
1455, 1592.00
1456, 1594.00
1457, 1594.00
1458, 1594.00
1459, 1595.00
1460, 1596.00
1461, 1596.00
1462, 1597.00
1463, 1597.00
1464, 1599.00
1465, 1598.00
1466, 1600.00
1467, 1598.00
1468, 1601.00
1469, 1601.00
1470, 1602.00
1471, 1601.00
1472, 1603.00
1473, 1603.00
1474, 1604.00
1475, 1604.00
1476, 1606.00
1477, 1605.00
1478, 1607.00
1479, 1608.00
1480, 1609.00
1481, 1610.00
1482, 1611.00
1483, 1611.00
1484, 1612.00
1485, 1613.00
1486, 1615.00
1487, 1614.00
1488, 1615.00
1489, 1617.00
1490, 1617.00
1491, 1618.00
1492, 1618.00
1493, 1621.00
1494, 1621.00
1495, 1621.00
1496, 1622.00
1497, 1624.00
1498, 1625.00
1499, 1626.00
1500, 1627.00
1501, 1627.00
1502, 1628.00
1503, 1630.00
1504, 1630.00
1505, 1631.00
1506, 1631.00
1507, 1631.00
1508, 1634.00
1509, 1636.00
1510, 1636.00
1511, 1636.00
1512, 1638.00
1513, 1637.00
1514, 1639.00
1515, 1640.00
1516, 1642.00
1517, 1641.00
1518, 1644.00
1519, 1644.00
1520, 1646.00
1521, 1647.00
1522, 1649.00
1523, 1649.00
1524, 1651.00
1525, 1651.00
1526, 1652.00
1527, 1653.00
1528, 1654.00
1529, 1655.00
1530, 1656.00
1531, 1657.00
1532, 1658.00
1533, 1659.00
1534, 1661.00
1535, 1661.00
1536, 1663.00
1537, 1664.00
1538, 1665.00
1539, 1665.00
1540, 1667.00
1541, 1667.00
1542, 1668.00
1543, 1669.00
1544, 1670.00
1545, 1671.00
1546, 1673.00
1547, 1674.00
1548, 1675.00
1549, 1676.00
1550, 1677.00
1551, 1677.00
1552, 1679.00
1553, 1680.00
1554, 1681.00
1555, 1681.00
1556, 1683.00
1557, 1684.00
1558, 1685.00
1559, 1687.00
1560, 1687.00
1561, 1688.00
1562, 1690.00
1563, 1691.00
1564, 1693.00
1565, 1695.00
1566, 1696.00
1567, 1696.00
1568, 1696.00
1569, 1699.00
1570, 1700.00
1571, 1700.00
1572, 1703.00
1573, 1702.00
1574, 1704.00
1575, 1705.00
1576, 1706.00
1577, 1708.00
1578, 1710.00
1579, 1709.00
1580, 1711.00
1581, 1711.00
1582, 1713.00
1583, 1715.00
1584, 1715.00
1585, 1717.00
1586, 1717.00
1587, 1719.00
1588, 1719.00
1589, 1720.00
1590, 1721.00
1591, 1722.00
1592, 1723.00
1593, 1724.00
1594, 1726.00
1595, 1726.00
1596, 1727.00
1597, 1730.00
1598, 1731.00
1599, 1731.00
1600, 1732.00
1601, 1733.00
1602, 1734.00
1603, 1735.00
1604, 1737.00
1605, 1739.00
1606, 1739.00
1607, 1740.00
1608, 1741.00
1609, 1743.00
1610, 1744.00
1611, 1747.00
1612, 1747.00
1613, 1749.00
1614, 1750.00
1615, 1751.00
1616, 1752.00
1617, 1755.00
1618, 1755.00
1619, 1756.00
1620, 1758.00
1621, 1760.00
1622, 1761.00
1623, 1763.00
1624, 1763.00
1625, 1765.00
1626, 1767.00
1627, 1768.00
1628, 1769.00
1629, 1770.00
1630, 1772.00
1631, 1772.00
1632, 1773.00
1633, 1774.00
1634, 1777.00
1635, 1777.00
1636, 1779.00
1637, 1779.00
1638, 1780.00
1639, 1782.00
1640, 1783.00
1641, 1783.00
1642, 1785.00
1643, 1786.00
1644, 1787.00
1645, 1789.00
1646, 1789.00
1647, 1790.00
1648, 1792.00
1649, 1793.00
1650, 1795.00

1750, 2258.00
1751, 2259.00
1752, 2257.00
1753, 2259.00
1754, 2258.00
1755, 2258.00
1756, 2259.00
1757, 2257.00
1758, 2259.00
1759, 2259.00
1760, 2259.00
1761, 2259.00
1762, 2260.00
1763, 2258.00
1764, 2257.00
1765, 2257.00
1766, 2258.00
1767, 2258.00
1768, 2259.00
1769, 2259.00
1770, 2256.00
1771, 2257.00
1772, 2257.00
1773, 2256.00
1774, 2255.00
1775, 2257.00
1776, 2254.00
1777, 2255.00
1778, 2256.00
1779, 2255.00
1780, 2254.00
1781, 2252.00
1782, 2253.00
1783, 2253.00
1784, 2253.00
1785, 2252.00
1786, 2251.00
1787, 2251.00
1788, 2250.00
1789, 2250.00
1790, 2250.00
1791, 2249.00
1792, 2249.00
1793, 2247.00
1794, 2248.00
1795, 2248.00
1796, 2247.00
1797, 2247.00
1798, 2244.00
1799, 2246.00
1800, 2244.00
1801, 2243.00
1802, 2244.00
1803, 2244.00
1804, 2244.00
1805, 2244.00
1806, 2243.00
1807, 2242.00
1808, 2242.00
1809, 2241.00
1810, 2241.00
1811, 2241.00
1812, 2240.00
1813, 2239.00
1814, 2239.00
1815, 2238.00
1816, 2237.00
1817, 2239.00
1818, 2238.00
1819, 2237.00
1820, 2237.00
1821, 2236.00
1822, 2235.00
1823, 2235.00
1824, 2233.00
1825, 2232.00
1826, 2231.00
1827, 2231.00
1828, 2229.00
1829, 2229.00
1830, 2226.00
1831, 2226.00
1832, 2225.00
1833, 2224.00
1834, 2222.00
1835, 2221.00
1836, 2219.00
1837, 2219.00
1838, 2217.00
1839, 2215.00
1840, 2214.00
1841, 2211.00
1842, 2211.00
1843, 2208.00
1844, 2206.00
1845, 2205.00
1846, 2203.00
1847, 2201.00
1848, 2199.00
1849, 2196.00
1850, 2195.00
1851, 2193.00
1852, 2191.00
1853, 2190.00
1854, 2188.00
1855, 2184.00
1856, 2183.00
1857, 2181.00
1858, 2179.00
1859, 2177.00
1860, 2178.00
1861, 2176.00
1862, 2173.00
1863, 2172.00
1864, 2170.00
1865, 2169.00
1866, 2166.00
1867, 2165.00
1868, 2163.00
1869, 2162.00
1870, 2160.00
1871, 2160.00
1872, 2156.00
1873, 2159.00
1874, 2157.00
1875, 2156.00
1876, 2153.00
1877, 2153.00
1878, 2152.00
1879, 2152.00
1880, 2152.00
1881, 2150.00
1882, 2149.00
1883, 2149.00
1884, 2147.00
1885, 2148.00
1886, 2147.00
1887, 2147.00
1888, 2146.00
1889, 2146.00
1890, 2144.00
1891, 2145.00
1892, 2146.00
1893, 2144.00
1894, 2144.00
1895, 2142.00
1896, 2142.00
1897, 2143.00
1898, 2144.00
1899, 2141.00
1900, 2140.00
1901, 2140.00
1902, 2140.00
1903, 2140.00
1904, 2139.00
1905, 2139.00
1906, 2141.00
1907, 2139.00
1908, 2139.00
1909, 2139.00
1910, 2138.00
1911, 2139.00
1912, 2137.00
1913, 2137.00
1914, 2138.00
1915, 2138.00
1916, 2136.00
1917, 2136.00
1918, 2137.00
1919, 2136.00
1920, 2136.00
1921, 2137.00
1922, 2136.00
1923, 2136.00
1924, 2138.00
1925, 2137.00
1926, 2136.00
1927, 2136.00
1928, 2138.00
1929, 2137.00
1930, 2134.00
1931, 2137.00
1932, 2136.00
1933, 2138.00
1934, 2136.00
1935, 2137.00
1936, 2138.00
1937, 2137.00
1938, 2135.00
1939, 2137.00
1940, 2137.00
1941, 2136.00
1942, 2137.00
1943, 2139.00
1944, 2136.00
1945, 2138.00
1946, 2139.00
1947, 2138.00
1948, 2138.00
1949, 2140.00
1950, 2139.00
1951, 2139.00
1952, 2139.00
1953, 2139.00
1954, 2139.00
1955, 2140.00
1956, 2140.00
1957, 2140.00
1958, 2140.00
1959, 2142.00
1960, 2141.00
1961, 2141.00
1962, 2141.00
1963, 2144.00
1964, 2142.00
1965, 2143.00
1966, 2144.00
1967, 2145.00
1968, 2144.00
1969, 2144.00
1970, 2145.00
1971, 2147.00
1972, 2145.00
1973, 2147.00
1974, 2147.00
1975, 2146.00
1976, 2147.00
1977, 2147.00
1978, 2148.00
1979, 2149.00
1980, 2149.00
1981, 2149.00
1982, 2150.00
1983, 2149.00
1984, 2150.00
1985, 2152.00
1986, 2150.00
1987, 2151.00
1988, 2154.00
1989, 2152.00
1990, 2153.00
1991, 2154.00
1992, 2155.00
1993, 2154.00
1994, 2154.00
1995, 2156.00
1996, 2155.00
1997, 2156.00
1998, 2156.00
1999, 2158.00
2000, 2158.00
2001, 2158.00
2002, 2160.00
2003, 2160.00
2004, 2159.00
2005, 2159.00
2006, 2161.00
2007, 2160.00
2008, 2161.00
2009, 2161.00
2010, 2163.00
2011, 2162.00
2012, 2161.00
2013, 2163.00
2014, 2163.00
2015, 2162.00
2016, 2164.00
2017, 2165.00
2018, 2164.00
2019, 2165.00
2020, 2165.00
2021, 2167.00
2022, 2168.00
2023, 2169.00
2024, 2168.00
2025, 2168.00
2026, 2169.00
2027, 2169.00
2028, 2171.00
2029, 2171.00
2030, 2171.00
2031, 2170.00
2032, 2172.00
2033, 2173.00
2034, 2171.00
2035, 2173.00
2036, 2173.00
2037, 2172.00
2038, 2176.00
2039, 2175.00
2040, 2176.00
2041, 2177.00
2042, 2178.00
2043, 2178.00
2044, 2178.00
2045, 2180.00
2046, 2180.00
2047, 2179.00
2048, 2181.00
2049, 2182.00
2050, 2182.00
2051, 2184.00
2052, 2183.00
2053, 2184.00
2054, 2186.00
2055, 2186.00
2056, 2186.00
2057, 2187.00
2058, 2188.00
2059, 2191.00
2060, 2188.00
2061, 2192.00
2062, 2191.00
2063, 2191.00
2064, 2191.00
2065, 2191.00
2066, 2194.00
2067, 2194.00
2068, 2196.00
2069, 2198.00
2070, 2197.00
2071, 2197.00
2072, 2200.00
2073, 2198.00
2074, 2199.00
2075, 2199.00
2076, 2200.00
2077, 2200.00
2078, 2203.00
2079, 2203.00
2080, 2204.00
2081, 2204.00
2082, 2203.00
2083, 2205.00
2084, 2206.00
2085, 2205.00
2086, 2208.00
2087, 2208.00
2088, 2208.00
2089, 2207.00
2090, 2208.00
2091, 2208.00
2092, 2210.00
2093, 2209.00
2094, 2212.00
2095, 2211.00
2096, 2213.00
2097, 2213.00
2098, 2212.00
2099, 2213.00
2100, 2214.00
2101, 2214.00
2102, 2213.00
2103, 2215.00
2104, 2216.00
2105, 2215.00
2106, 2215.00
2107, 2217.00
2108, 2215.00
2109, 2218.00
2110, 2216.00
2111, 2217.00
2112, 2220.00
2113, 2217.00
2114, 2218.00
2115, 2219.00
2116, 2216.00
2117, 2219.00
2118, 2219.00
2119, 2219.00
2120, 2220.00
2121, 2220.00
2122, 2221.00
2123, 2222.00
2124, 2222.00
2125, 2222.00
2126, 2221.00
2127, 2222.00
2128, 2221.00
2129, 2223.00
2130, 2222.00
2131, 2223.00
2132, 2223.00
2133, 2222.00
2134, 2224.00
2135, 2224.00
2136, 2225.00
2137, 2224.00
2138, 2224.00
2139, 2225.00
2140, 2225.00
2141, 2225.00
2142, 2225.00
2143, 2224.00
2144, 2226.00
2145, 2226.00
2146, 2225.00
2147, 2224.00
2148, 2225.00
2149, 2227.00
2150, 2228.00
