FW version: 24
Log Version: 3.0.3

General Info:
       Command/Macro Performed,            Timestamp,             Device ID, COM Port, UART/I2C, Test Name, Host Major, Host Minor, Host Revision, Host Git Commit
            Single_measurement,  2023_07_04_10_40_02,       Insight2_F4_xxx,    USB-C,      USB,          ,          0,          1,             1,      4031237645

Show Spectrometer Status:
l0_version, f4_version, battery_perc, battery_mVolt, accelerometer_temp, accelerometer_x, accelerometer_y, accelerometer_z, compass_temp, compass_x, compass_y, compass_z, lamp_0, lamp_1, gain_0, gain_1
        17,         24,            0,          1741,               4928,           64772,            1540,           18956,            0,     65383,     65397,     19100,   2866,   2866,      1,      1

Temperature Statistic Info:
NTC AVG [°C], NTC2 AVG [°C]
      33.386,        32.989

Statistic Info:
M1:  num,      min,      max,   median,      AVG,      STD,M2:  num,      min,      max,   median,      AVG,      STD
     301,  1233.00,  1405.00,  1269.00,  1289.37,  52.6305,     401,  1722.00,  1823.00,  1763.00,  1766.22,  32.9235,

Measurements:
Wavelength, Data Amplitude
1350, 1264.00
1351, 1264.00
1352, 1262.00
1353, 1262.00
1354, 1261.00
1355, 1261.00
1356, 1260.00
1357, 1260.00
1358, 1259.00
1359, 1258.00
1360, 1258.00
1361, 1257.00
1362, 1257.00
1363, 1257.00
1364, 1255.00
1365, 1254.00
1366, 1254.00
1367, 1255.00
1368, 1252.00
1369, 1251.00
1370, 1251.00
1371, 1251.00
1372, 1249.00
1373, 1248.00
1374, 1247.00
1375, 1247.00
1376, 1245.00
1377, 1244.00
1378, 1245.00
1379, 1244.00
1380, 1243.00
1381, 1243.00
1382, 1242.00
1383, 1241.00
1384, 1241.00
1385, 1241.00
1386, 1240.00
1387, 1239.00
1388, 1239.00
1389, 1238.00
1390, 1239.00
1391, 1239.00
1392, 1237.00
1393, 1238.00
1394, 1237.00
1395, 1237.00
1396, 1237.00
1397, 1237.00
1398, 1236.00
1399, 1235.00
1400, 1236.00
1401, 1236.00
1402, 1235.00
1403, 1236.00
1404, 1236.00
1405, 1235.00
1406, 1235.00
1407, 1234.00
1408, 1235.00
1409, 1234.00
1410, 1235.00
1411, 1234.00
1412, 1235.00
1413, 1235.00
1414, 1235.00
1415, 1235.00
1416, 1234.00
1417, 1234.00
1418, 1233.00
1419, 1234.00
1420, 1235.00
1421, 1234.00
1422, 1233.00
1423, 1234.00
1424, 1235.00
1425, 1234.00
1426, 1234.00
1427, 1234.00
1428, 1235.00
1429, 1235.00
1430, 1235.00
1431, 1235.00
1432, 1235.00
1433, 1236.00
1434, 1235.00
1435, 1237.00
1436, 1236.00
1437, 1237.00
1438, 1237.00
1439, 1237.00
1440, 1236.00
1441, 1237.00
1442, 1237.00
1443, 1238.00
1444, 1238.00
1445, 1238.00
1446, 1239.00
1447, 1239.00
1448, 1240.00
1449, 1239.00
1450, 1240.00
1451, 1240.00
1452, 1240.00
1453, 1241.00
1454, 1241.00
1455, 1242.00
1456, 1243.00
1457, 1243.00
1458, 1243.00
1459, 1242.00
1460, 1243.00
1461, 1244.00
1462, 1245.00
1463, 1245.00
1464, 1245.00
1465, 1246.00
1466, 1247.00
1467, 1247.00
1468, 1247.00
1469, 1248.00
1470, 1248.00
1471, 1249.00
1472, 1250.00
1473, 1251.00
1474, 1252.00
1475, 1251.00
1476, 1252.00
1477, 1253.00
1478, 1253.00
1479, 1255.00
1480, 1255.00
1481, 1256.00
1482, 1257.00
1483, 1257.00
1484, 1257.00
1485, 1258.00
1486, 1259.00
1487, 1259.00
1488, 1260.00
1489, 1261.00
1490, 1262.00
1491, 1262.00
1492, 1263.00
1493, 1262.00
1494, 1264.00
1495, 1265.00
1496, 1266.00
1497, 1266.00
1498, 1266.00
1499, 1267.00
1500, 1269.00
1501, 1270.00
1502, 1270.00
1503, 1270.00
1504, 1271.00
1505, 1272.00
1506, 1273.00
1507, 1274.00
1508, 1275.00
1509, 1275.00
1510, 1275.00
1511, 1277.00
1512, 1278.00
1513, 1278.00
1514, 1280.00
1515, 1280.00
1516, 1280.00
1517, 1282.00
1518, 1282.00
1519, 1284.00
1520, 1285.00
1521, 1284.00
1522, 1286.00
1523, 1286.00
1524, 1288.00
1525, 1288.00
1526, 1290.00
1527, 1290.00
1528, 1292.00
1529, 1292.00
1530, 1292.00
1531, 1293.00
1532, 1294.00
1533, 1297.00
1534, 1296.00
1535, 1297.00
1536, 1298.00
1537, 1299.00
1538, 1300.00
1539, 1299.00
1540, 1302.00
1541, 1303.00
1542, 1303.00
1543, 1303.00
1544, 1305.00
1545, 1306.00
1546, 1307.00
1547, 1307.00
1548, 1308.00
1549, 1308.00
1550, 1309.00
1551, 1311.00
1552, 1310.00
1553, 1312.00
1554, 1313.00
1555, 1313.00
1556, 1315.00
1557, 1315.00
1558, 1316.00
1559, 1317.00
1560, 1318.00
1561, 1320.00
1562, 1320.00
1563, 1321.00
1564, 1322.00
1565, 1323.00
1566, 1324.00
1567, 1325.00
1568, 1327.00
1569, 1327.00
1570, 1327.00
1571, 1328.00
1572, 1329.00
1573, 1330.00
1574, 1331.00
1575, 1332.00
1576, 1332.00
1577, 1334.00
1578, 1335.00
1579, 1336.00
1580, 1336.00
1581, 1337.00
1582, 1338.00
1583, 1338.00
1584, 1339.00
1585, 1340.00
1586, 1341.00
1587, 1342.00
1588, 1343.00
1589, 1344.00
1590, 1345.00
1591, 1346.00
1592, 1347.00
1593, 1347.00
1594, 1347.00
1595, 1349.00
1596, 1349.00
1597, 1351.00
1598, 1351.00
1599, 1352.00
1600, 1354.00
1601, 1354.00
1602, 1355.00
1603, 1356.00
1604, 1357.00
1605, 1358.00
1606, 1360.00
1607, 1360.00
1608, 1361.00
1609, 1363.00
1610, 1363.00
1611, 1364.00
1612, 1366.00
1613, 1366.00
1614, 1367.00
1615, 1369.00
1616, 1369.00
1617, 1370.00
1618, 1372.00
1619, 1372.00
1620, 1375.00
1621, 1376.00
1622, 1377.00
1623, 1377.00
1624, 1379.00
1625, 1379.00
1626, 1381.00
1627, 1382.00
1628, 1381.00
1629, 1384.00
1630, 1385.00
1631, 1386.00
1632, 1387.00
1633, 1387.00
1634, 1389.00
1635, 1390.00
1636, 1390.00
1637, 1392.00
1638, 1393.00
1639, 1394.00
1640, 1395.00
1641, 1396.00
1642, 1397.00
1643, 1398.00
1644, 1399.00
1645, 1399.00
1646, 1399.00
1647, 1401.00
1648, 1402.00
1649, 1403.00
1650, 1405.00

1750, 1821.00
1751, 1821.00
1752, 1821.00
1753, 1821.00
1754, 1820.00
1755, 1823.00
1756, 1820.00
1757, 1821.00
1758, 1821.00
1759, 1821.00
1760, 1820.00
1761, 1821.00
1762, 1821.00
1763, 1821.00
1764, 1821.00
1765, 1820.00
1766, 1821.00
1767, 1820.00
1768, 1820.00
1769, 1821.00
1770, 1819.00
1771, 1820.00
1772, 1821.00
1773, 1821.00
1774, 1818.00
1775, 1819.00
1776, 1819.00
1777, 1819.00
1778, 1818.00
1779, 1817.00
1780, 1817.00
1781, 1817.00
1782, 1817.00
1783, 1815.00
1784, 1816.00
1785, 1817.00
1786, 1816.00
1787, 1814.00
1788, 1816.00
1789, 1815.00
1790, 1815.00
1791, 1813.00
1792, 1813.00
1793, 1813.00
1794, 1812.00
1795, 1812.00
1796, 1812.00
1797, 1812.00
1798, 1810.00
1799, 1811.00
1800, 1810.00
1801, 1810.00
1802, 1810.00
1803, 1809.00
1804, 1809.00
1805, 1809.00
1806, 1809.00
1807, 1810.00
1808, 1808.00
1809, 1807.00
1810, 1808.00
1811, 1808.00
1812, 1807.00
1813, 1808.00
1814, 1806.00
1815, 1807.00
1816, 1804.00
1817, 1804.00
1818, 1805.00
1819, 1805.00
1820, 1803.00
1821, 1804.00
1822, 1804.00
1823, 1800.00
1824, 1800.00
1825, 1801.00
1826, 1801.00
1827, 1797.00
1828, 1798.00
1829, 1797.00
1830, 1796.00
1831, 1795.00
1832, 1794.00
1833, 1794.00
1834, 1793.00
1835, 1792.00
1836, 1790.00
1837, 1790.00
1838, 1789.00
1839, 1787.00
1840, 1786.00
1841, 1784.00
1842, 1783.00
1843, 1781.00
1844, 1780.00
1845, 1778.00
1846, 1777.00
1847, 1775.00
1848, 1773.00
1849, 1772.00
1850, 1770.00
1851, 1768.00
1852, 1766.00
1853, 1768.00
1854, 1763.00
1855, 1763.00
1856, 1760.00
1857, 1760.00
1858, 1757.00
1859, 1756.00
1860, 1755.00
1861, 1755.00
1862, 1752.00
1863, 1749.00
1864, 1750.00
1865, 1750.00
1866, 1747.00
1867, 1745.00
1868, 1745.00
1869, 1743.00
1870, 1744.00
1871, 1740.00
1872, 1741.00
1873, 1738.00
1874, 1739.00
1875, 1737.00
1876, 1738.00
1877, 1736.00
1878, 1735.00
1879, 1734.00
1880, 1735.00
1881, 1734.00
1882, 1734.00
1883, 1732.00
1884, 1733.00
1885, 1732.00
1886, 1732.00
1887, 1731.00
1888, 1731.00
1889, 1729.00
1890, 1729.00
1891, 1730.00
1892, 1730.00
1893, 1728.00
1894, 1730.00
1895, 1727.00
1896, 1726.00
1897, 1726.00
1898, 1727.00
1899, 1727.00
1900, 1725.00
1901, 1726.00
1902, 1725.00
1903, 1726.00
1904, 1726.00
1905, 1726.00
1906, 1724.00
1907, 1726.00
1908, 1725.00
1909, 1727.00
1910, 1724.00
1911, 1725.00
1912, 1724.00
1913, 1724.00
1914, 1724.00
1915, 1724.00
1916, 1724.00
1917, 1723.00
1918, 1723.00
1919, 1723.00
1920, 1725.00
1921, 1723.00
1922, 1724.00
1923, 1723.00
1924, 1722.00
1925, 1723.00
1926, 1723.00
1927, 1722.00
1928, 1723.00
1929, 1724.00
1930, 1723.00
1931, 1724.00
1932, 1723.00
1933, 1724.00
1934, 1725.00
1935, 1724.00
1936, 1722.00
1937, 1724.00
1938, 1723.00
1939, 1723.00
1940, 1723.00
1941, 1725.00
1942, 1724.00
1943, 1723.00
1944, 1723.00
1945, 1725.00
1946, 1724.00
1947, 1724.00
1948, 1723.00
1949, 1724.00
1950, 1723.00
1951, 1725.00
1952, 1726.00
1953, 1726.00
1954, 1726.00
1955, 1726.00
1956, 1726.00
1957, 1725.00
1958, 1727.00
1959, 1727.00
1960, 1727.00
1961, 1728.00
1962, 1729.00
1963, 1727.00
1964, 1727.00
1965, 1729.00
1966, 1728.00
1967, 1729.00
1968, 1729.00
1969, 1729.00
1970, 1730.00
1971, 1730.00
1972, 1731.00
1973, 1731.00
1974, 1731.00
1975, 1731.00
1976, 1731.00
1977, 1733.00
1978, 1734.00
1979, 1732.00
1980, 1734.00
1981, 1734.00
1982, 1735.00
1983, 1734.00
1984, 1732.00
1985, 1734.00
1986, 1737.00
1987, 1736.00
1988, 1738.00
1989, 1736.00
1990, 1738.00
1991, 1736.00
1992, 1737.00
1993, 1737.00
1994, 1737.00
1995, 1738.00
1996, 1739.00
1997, 1740.00
1998, 1740.00
1999, 1741.00
2000, 1741.00
2001, 1742.00
2002, 1740.00
2003, 1740.00
2004, 1741.00
2005, 1741.00
2006, 1743.00
2007, 1743.00
2008, 1744.00
2009, 1744.00
2010, 1742.00
2011, 1745.00
2012, 1746.00
2013, 1746.00
2014, 1746.00
2015, 1744.00
2016, 1745.00
2017, 1747.00
2018, 1747.00
2019, 1748.00
2020, 1748.00
2021, 1751.00
2022, 1748.00
2023, 1748.00
2024, 1749.00
2025, 1749.00
2026, 1750.00
2027, 1752.00
2028, 1750.00
2029, 1750.00
2030, 1752.00
2031, 1752.00
2032, 1751.00
2033, 1752.00
2034, 1753.00
2035, 1753.00
2036, 1754.00
2037, 1754.00
2038, 1755.00
2039, 1754.00
2040, 1755.00
2041, 1755.00
2042, 1755.00
2043, 1756.00
2044, 1757.00
2045, 1758.00
2046, 1759.00
2047, 1759.00
2048, 1761.00
2049, 1760.00
2050, 1761.00
2051, 1761.00
2052, 1762.00
2053, 1761.00
2054, 1763.00
2055, 1764.00
2056, 1765.00
2057, 1765.00
2058, 1765.00
2059, 1765.00
2060, 1766.00
2061, 1766.00
2062, 1766.00
2063, 1768.00
2064, 1769.00
2065, 1768.00
2066, 1770.00
2067, 1770.00
2068, 1773.00
2069, 1772.00
2070, 1772.00
2071, 1773.00
2072, 1773.00
2073, 1774.00
2074, 1773.00
2075, 1774.00
2076, 1776.00
2077, 1775.00
2078, 1776.00
2079, 1779.00
2080, 1778.00
2081, 1779.00
2082, 1779.00
2083, 1779.00
2084, 1781.00
2085, 1779.00
2086, 1781.00
2087, 1779.00
2088, 1781.00
2089, 1781.00
2090, 1782.00
2091, 1783.00
2092, 1783.00
2093, 1782.00
2094, 1784.00
2095, 1785.00
2096, 1785.00
2097, 1786.00
2098, 1786.00
2099, 1787.00
2100, 1787.00
2101, 1787.00
2102, 1787.00
2103, 1788.00
2104, 1787.00
2105, 1789.00
2106, 1787.00
2107, 1787.00
2108, 1788.00
2109, 1791.00
2110, 1789.00
2111, 1789.00
2112, 1790.00
2113, 1790.00
2114, 1790.00
2115, 1791.00
2116, 1790.00
2117, 1792.00
2118, 1790.00
2119, 1791.00
2120, 1794.00
2121, 1792.00
2122, 1793.00
2123, 1791.00
2124, 1792.00
2125, 1793.00
2126, 1795.00
2127, 1793.00
2128, 1793.00
2129, 1795.00
2130, 1794.00
2131, 1795.00
2132, 1794.00
2133, 1794.00
2134, 1795.00
2135, 1795.00
2136, 1795.00
2137, 1796.00
2138, 1797.00
2139, 1796.00
2140, 1797.00
2141, 1796.00
2142, 1795.00
2143, 1797.00
2144, 1795.00
2145, 1798.00
2146, 1797.00
2147, 1798.00
2148, 1798.00
2149, 1795.00
2150, 1796.00
