FW version: 24
Log Version: 3.0.3

General Info:
       Command/Macro Performed,            Timestamp,             Device ID, COM Port, UART/I2C, Test Name, Host Major, Host Minor, Host Revision, Host Git Commit
            Single_measurement,  2023_06_29_12_05_22,       Insight2_F4_xxx,    USB-C,      USB,          ,          0,          1,             1,      4031237645

Show Spectrometer Status:
l0_version, f4_version, battery_perc, battery_mVolt, accelerometer_temp, accelerometer_x, accelerometer_y, accelerometer_z, compass_temp, compass_x, compass_y, compass_z, lamp_0, lamp_1, gain_0, gain_1
        17,         24,           95,          2079,               5920,           65428,             164,           18544,            0,     65437,     65535,     65529,   2457,   2457,      1,      1

Temperature Statistic Info:
NTC AVG [°C], NTC2 AVG [°C]
      38.128,        37.783

Statistic Info:
M1:  num,      min,      max,   median,      AVG,      STD,M2:  num,      min,      max,   median,      AVG,      STD
     301,  1096.00,  1254.00,  1132.00,  1148.69,  48.9899,     401,  1604.00,  1698.00,  1655.00,  1652.90,  31.9933,

Measurements:
Wavelength, Data Amplitude
1350, 1114.00
1351, 1114.00
1352, 1112.00
1353, 1112.00
1354, 1112.00
1355, 1112.00
1356, 1113.00
1357, 1112.00
1358, 1112.00
1359, 1111.00
1360, 1111.00
1361, 1112.00
1362, 1110.00
1363, 1110.00
1364, 1109.00
1365, 1109.00
1366, 1107.00
1367, 1109.00
1368, 1107.00
1369, 1107.00
1370, 1107.00
1371, 1106.00
1372, 1105.00
1373, 1104.00
1374, 1105.00
1375, 1104.00
1376, 1104.00
1377, 1103.00
1378, 1102.00
1379, 1102.00
1380, 1103.00
1381, 1102.00
1382, 1101.00
1383, 1101.00
1384, 1101.00
1385, 1100.00
1386, 1101.00
1387, 1100.00
1388, 1100.00
1389, 1099.00
1390, 1099.00
1391, 1098.00
1392, 1099.00
1393, 1099.00
1394, 1098.00
1395, 1100.00
1396, 1098.00
1397, 1098.00
1398, 1098.00
1399, 1098.00
1400, 1097.00
1401, 1098.00
1402, 1098.00
1403, 1098.00
1404, 1098.00
1405, 1097.00
1406, 1097.00
1407, 1097.00
1408, 1097.00
1409, 1097.00
1410, 1098.00
1411, 1097.00
1412, 1097.00
1413, 1096.00
1414, 1097.00
1415, 1098.00
1416, 1097.00
1417, 1096.00
1418, 1097.00
1419, 1098.00
1420, 1097.00
1421, 1098.00
1422, 1098.00
1423, 1098.00
1424, 1097.00
1425, 1097.00
1426, 1098.00
1427, 1098.00
1428, 1098.00
1429, 1098.00
1430, 1099.00
1431, 1099.00
1432, 1098.00
1433, 1099.00
1434, 1100.00
1435, 1100.00
1436, 1100.00
1437, 1100.00
1438, 1101.00
1439, 1101.00
1440, 1101.00
1441, 1102.00
1442, 1101.00
1443, 1103.00
1444, 1102.00
1445, 1103.00
1446, 1103.00
1447, 1104.00
1448, 1103.00
1449, 1104.00
1450, 1105.00
1451, 1105.00
1452, 1105.00
1453, 1106.00
1454, 1107.00
1455, 1106.00
1456, 1107.00
1457, 1107.00
1458, 1107.00
1459, 1109.00
1460, 1109.00
1461, 1109.00
1462, 1110.00
1463, 1111.00
1464, 1110.00
1465, 1112.00
1466, 1112.00
1467, 1112.00
1468, 1113.00
1469, 1114.00
1470, 1114.00
1471, 1115.00
1472, 1116.00
1473, 1115.00
1474, 1117.00
1475, 1117.00
1476, 1117.00
1477, 1117.00
1478, 1118.00
1479, 1119.00
1480, 1120.00
1481, 1121.00
1482, 1121.00
1483, 1121.00
1484, 1123.00
1485, 1123.00
1486, 1125.00
1487, 1125.00
1488, 1125.00
1489, 1125.00
1490, 1126.00
1491, 1127.00
1492, 1128.00
1493, 1129.00
1494, 1129.00
1495, 1130.00
1496, 1130.00
1497, 1132.00
1498, 1132.00
1499, 1132.00
1500, 1132.00
1501, 1134.00
1502, 1134.00
1503, 1136.00
1504, 1135.00
1505, 1136.00
1506, 1137.00
1507, 1138.00
1508, 1138.00
1509, 1139.00
1510, 1139.00
1511, 1140.00
1512, 1141.00
1513, 1141.00
1514, 1143.00
1515, 1143.00
1516, 1144.00
1517, 1143.00
1518, 1144.00
1519, 1146.00
1520, 1146.00
1521, 1148.00
1522, 1148.00
1523, 1148.00
1524, 1150.00
1525, 1150.00
1526, 1150.00
1527, 1152.00
1528, 1152.00
1529, 1154.00
1530, 1154.00
1531, 1155.00
1532, 1155.00
1533, 1156.00
1534, 1158.00
1535, 1157.00
1536, 1158.00
1537, 1159.00
1538, 1160.00
1539, 1161.00
1540, 1162.00
1541, 1162.00
1542, 1163.00
1543, 1163.00
1544, 1164.00
1545, 1165.00
1546, 1166.00
1547, 1166.00
1548, 1168.00
1549, 1168.00
1550, 1168.00
1551, 1170.00
1552, 1171.00
1553, 1171.00
1554, 1171.00
1555, 1173.00
1556, 1174.00
1557, 1175.00
1558, 1175.00
1559, 1175.00
1560, 1177.00
1561, 1178.00
1562, 1179.00
1563, 1179.00
1564, 1179.00
1565, 1181.00
1566, 1182.00
1567, 1181.00
1568, 1183.00
1569, 1185.00
1570, 1184.00
1571, 1185.00
1572, 1186.00
1573, 1188.00
1574, 1188.00
1575, 1189.00
1576, 1190.00
1577, 1191.00
1578, 1190.00
1579, 1192.00
1580, 1192.00
1581, 1194.00
1582, 1195.00
1583, 1195.00
1584, 1195.00
1585, 1196.00
1586, 1197.00
1587, 1198.00
1588, 1199.00
1589, 1199.00
1590, 1200.00
1591, 1201.00
1592, 1201.00
1593, 1203.00
1594, 1203.00
1595, 1204.00
1596, 1204.00
1597, 1206.00
1598, 1206.00
1599, 1207.00
1600, 1207.00
1601, 1208.00
1602, 1210.00
1603, 1211.00
1604, 1211.00
1605, 1212.00
1606, 1213.00
1607, 1215.00
1608, 1216.00
1609, 1216.00
1610, 1216.00
1611, 1218.00
1612, 1219.00
1613, 1220.00
1614, 1221.00
1615, 1221.00
1616, 1223.00
1617, 1223.00
1618, 1225.00
1619, 1226.00
1620, 1227.00
1621, 1228.00
1622, 1229.00
1623, 1229.00
1624, 1230.00
1625, 1233.00
1626, 1231.00
1627, 1234.00
1628, 1235.00
1629, 1236.00
1630, 1236.00
1631, 1238.00
1632, 1238.00
1633, 1239.00
1634, 1240.00
1635, 1241.00
1636, 1242.00
1637, 1244.00
1638, 1243.00
1639, 1244.00
1640, 1245.00
1641, 1246.00
1642, 1247.00
1643, 1246.00
1644, 1249.00
1645, 1249.00
1646, 1250.00
1647, 1251.00
1648, 1252.00
1649, 1253.00
1650, 1254.00

1750, 1696.00
1751, 1696.00
1752, 1696.00
1753, 1697.00
1754, 1697.00
1755, 1696.00
1756, 1697.00
1757, 1698.00
1758, 1697.00
1759, 1697.00
1760, 1697.00
1761, 1698.00
1762, 1698.00
1763, 1698.00
1764, 1697.00
1765, 1697.00
1766, 1696.00
1767, 1697.00
1768, 1697.00
1769, 1695.00
1770, 1695.00
1771, 1695.00
1772, 1694.00
1773, 1695.00
1774, 1693.00
1775, 1694.00
1776, 1695.00
1777, 1693.00
1778, 1693.00
1779, 1694.00
1780, 1694.00
1781, 1694.00
1782, 1692.00
1783, 1693.00
1784, 1691.00
1785, 1692.00
1786, 1692.00
1787, 1690.00
1788, 1691.00
1789, 1690.00
1790, 1691.00
1791, 1689.00
1792, 1688.00
1793, 1688.00
1794, 1690.00
1795, 1688.00
1796, 1686.00
1797, 1687.00
1798, 1687.00
1799, 1688.00
1800, 1687.00
1801, 1685.00
1802, 1685.00
1803, 1687.00
1804, 1686.00
1805, 1688.00
1806, 1686.00
1807, 1687.00
1808, 1686.00
1809, 1685.00
1810, 1686.00
1811, 1685.00
1812, 1683.00
1813, 1684.00
1814, 1684.00
1815, 1683.00
1816, 1683.00
1817, 1686.00
1818, 1684.00
1819, 1682.00
1820, 1681.00
1821, 1683.00
1822, 1681.00
1823, 1682.00
1824, 1680.00
1825, 1680.00
1826, 1680.00
1827, 1679.00
1828, 1678.00
1829, 1678.00
1830, 1675.00
1831, 1677.00
1832, 1675.00
1833, 1674.00
1834, 1673.00
1835, 1673.00
1836, 1673.00
1837, 1670.00
1838, 1669.00
1839, 1668.00
1840, 1668.00
1841, 1666.00
1842, 1665.00
1843, 1663.00
1844, 1663.00
1845, 1662.00
1846, 1660.00
1847, 1658.00
1848, 1657.00
1849, 1654.00
1850, 1653.00
1851, 1652.00
1852, 1651.00
1853, 1650.00
1854, 1649.00
1855, 1646.00
1856, 1645.00
1857, 1642.00
1858, 1642.00
1859, 1639.00
1860, 1641.00
1861, 1638.00
1862, 1636.00
1863, 1633.00
1864, 1633.00
1865, 1631.00
1866, 1632.00
1867, 1631.00
1868, 1628.00
1869, 1628.00
1870, 1626.00
1871, 1625.00
1872, 1625.00
1873, 1622.00
1874, 1623.00
1875, 1620.00
1876, 1619.00
1877, 1620.00
1878, 1620.00
1879, 1619.00
1880, 1617.00
1881, 1619.00
1882, 1617.00
1883, 1616.00
1884, 1615.00
1885, 1614.00
1886, 1615.00
1887, 1614.00
1888, 1613.00
1889, 1614.00
1890, 1611.00
1891, 1612.00
1892, 1611.00
1893, 1612.00
1894, 1611.00
1895, 1612.00
1896, 1610.00
1897, 1610.00
1898, 1611.00
1899, 1611.00
1900, 1607.00
1901, 1610.00
1902, 1609.00
1903, 1609.00
1904, 1608.00
1905, 1609.00
1906, 1608.00
1907, 1608.00
1908, 1606.00
1909, 1607.00
1910, 1607.00
1911, 1607.00
1912, 1608.00
1913, 1608.00
1914, 1607.00
1915, 1608.00
1916, 1607.00
1917, 1607.00
1918, 1606.00
1919, 1607.00
1920, 1604.00
1921, 1606.00
1922, 1607.00
1923, 1607.00
1924, 1610.00
1925, 1609.00
1926, 1608.00
1927, 1609.00
1928, 1605.00
1929, 1605.00
1930, 1607.00
1931, 1606.00
1932, 1607.00
1933, 1606.00
1934, 1608.00
1935, 1607.00
1936, 1607.00
1937, 1607.00
1938, 1608.00
1939, 1607.00
1940, 1607.00
1941, 1609.00
1942, 1607.00
1943, 1609.00
1944, 1608.00
1945, 1609.00
1946, 1608.00
1947, 1611.00
1948, 1610.00
1949, 1611.00
1950, 1610.00
1951, 1611.00
1952, 1609.00
1953, 1611.00
1954, 1612.00
1955, 1611.00
1956, 1612.00
1957, 1614.00
1958, 1612.00
1959, 1613.00
1960, 1613.00
1961, 1614.00
1962, 1615.00
1963, 1616.00
1964, 1614.00
1965, 1615.00
1966, 1614.00
1967, 1615.00
1968, 1619.00
1969, 1617.00
1970, 1617.00
1971, 1619.00
1972, 1617.00
1973, 1619.00
1974, 1620.00
1975, 1619.00
1976, 1621.00
1977, 1620.00
1978, 1623.00
1979, 1623.00
1980, 1624.00
1981, 1621.00
1982, 1623.00
1983, 1622.00
1984, 1625.00
1985, 1623.00
1986, 1625.00
1987, 1624.00
1988, 1626.00
1989, 1626.00
1990, 1628.00
1991, 1627.00
1992, 1627.00
1993, 1627.00
1994, 1629.00
1995, 1626.00
1996, 1629.00
1997, 1629.00
1998, 1631.00
1999, 1631.00
2000, 1631.00
2001, 1631.00
2002, 1632.00
2003, 1633.00
2004, 1634.00
2005, 1633.00
2006, 1633.00
2007, 1634.00
2008, 1633.00
2009, 1633.00
2010, 1634.00
2011, 1636.00
2012, 1635.00
2013, 1637.00
2014, 1637.00
2015, 1638.00
2016, 1639.00
2017, 1637.00
2018, 1640.00
2019, 1640.00
2020, 1640.00
2021, 1640.00
2022, 1639.00
2023, 1642.00
2024, 1641.00
2025, 1641.00
2026, 1641.00
2027, 1641.00
2028, 1643.00
2029, 1644.00
2030, 1645.00
2031, 1644.00
2032, 1646.00
2033, 1647.00
2034, 1646.00
2035, 1646.00
2036, 1648.00
2037, 1646.00
2038, 1648.00
2039, 1650.00
2040, 1647.00
2041, 1649.00
2042, 1650.00
2043, 1651.00
2044, 1652.00
2045, 1652.00
2046, 1650.00
2047, 1653.00
2048, 1654.00
2049, 1655.00
2050, 1656.00
2051, 1657.00
2052, 1657.00
2053, 1656.00
2054, 1657.00
2055, 1658.00
2056, 1658.00
2057, 1660.00
2058, 1659.00
2059, 1661.00
2060, 1661.00
2061, 1662.00
2062, 1661.00
2063, 1663.00
2064, 1664.00
2065, 1665.00
2066, 1663.00
2067, 1667.00
2068, 1668.00
2069, 1668.00
2070, 1667.00
2071, 1668.00
2072, 1668.00
2073, 1669.00
2074, 1669.00
2075, 1672.00
2076, 1669.00
2077, 1671.00
2078, 1671.00
2079, 1671.00
2080, 1673.00
2081, 1675.00
2082, 1673.00
2083, 1674.00
2084, 1674.00
2085, 1675.00
2086, 1675.00
2087, 1677.00
2088, 1676.00
2089, 1677.00
2090, 1679.00
2091, 1678.00
2092, 1678.00
2093, 1679.00
2094, 1681.00
2095, 1680.00
2096, 1681.00
2097, 1681.00
2098, 1681.00
2099, 1682.00
2100, 1683.00
2101, 1681.00
2102, 1683.00
2103, 1683.00
2104, 1683.00
2105, 1681.00
2106, 1684.00
2107, 1684.00
2108, 1682.00
2109, 1685.00
2110, 1684.00
2111, 1686.00
2112, 1684.00
2113, 1686.00
2114, 1685.00
2115, 1685.00
2116, 1687.00
2117, 1687.00
2118, 1687.00
2119, 1687.00
2120, 1687.00
2121, 1687.00
2122, 1687.00
2123, 1689.00
2124, 1687.00
2125, 1688.00
2126, 1688.00
2127, 1689.00
2128, 1687.00
2129, 1689.00
2130, 1690.00
2131, 1689.00
2132, 1688.00
2133, 1689.00
2134, 1690.00
2135, 1689.00
2136, 1691.00
2137, 1691.00
2138, 1693.00
2139, 1691.00
2140, 1691.00
2141, 1692.00
2142, 1691.00
2143, 1693.00
2144, 1691.00
2145, 1691.00
2146, 1693.00
2147, 1692.00
2148, 1692.00
2149, 1692.00
2150, 1692.00
