FW version: 24
Log Version: 3.0.3

General Info:
       Command/Macro Performed,            Timestamp,             Device ID, COM Port, UART/I2C, Test Name, Host Major, Host Minor, Host Revision, Host Git Commit
            Single_measurement,  2023_06_29_12_04_52,       Insight2_F4_xxx,    USB-C,      USB,          ,          0,          1,             1,      4031237645

Show Spectrometer Status:
l0_version, f4_version, battery_perc, battery_mVolt, accelerometer_temp, accelerometer_x, accelerometer_y, accelerometer_z, compass_temp, compass_x, compass_y, compass_z, lamp_0, lamp_1, gain_0, gain_1
        17,         24,           95,          2079,               5920,           65424,             176,           18564,            0,     65461,     65520,     65518,   3276,   3276,      0,      0

Temperature Statistic Info:
NTC AVG [°C], NTC2 AVG [°C]
      37.982,        37.698

Statistic Info:
M1:  num,      min,      max,   median,      AVG,      STD,M2:  num,      min,      max,   median,      AVG,      STD
     301,   656.00,   742.00,   675.00,   684.42,  27.0883,     401,   890.00,   942.00,   916.00,   915.65,  17.4554,

Measurements:
Wavelength, Data Amplitude
1350, 667.00
1351, 667.00
1352, 667.00
1353, 667.00
1354, 666.00
1355, 666.00
1356, 666.00
1357, 665.00
1358, 666.00
1359, 665.00
1360, 665.00
1361, 665.00
1362, 665.00
1363, 665.00
1364, 664.00
1365, 664.00
1366, 664.00
1367, 663.00
1368, 663.00
1369, 663.00
1370, 663.00
1371, 662.00
1372, 662.00
1373, 661.00
1374, 661.00
1375, 661.00
1376, 661.00
1377, 660.00
1378, 660.00
1379, 660.00
1380, 659.00
1381, 660.00
1382, 659.00
1383, 659.00
1384, 659.00
1385, 658.00
1386, 658.00
1387, 658.00
1388, 658.00
1389, 658.00
1390, 657.00
1391, 657.00
1392, 657.00
1393, 657.00
1394, 657.00
1395, 657.00
1396, 656.00
1397, 657.00
1398, 657.00
1399, 657.00
1400, 656.00
1401, 656.00
1402, 656.00
1403, 656.00
1404, 656.00
1405, 656.00
1406, 656.00
1407, 656.00
1408, 656.00
1409, 656.00
1410, 656.00
1411, 656.00
1412, 656.00
1413, 656.00
1414, 656.00
1415, 656.00
1416, 656.00
1417, 656.00
1418, 656.00
1419, 656.00
1420, 656.00
1421, 656.00
1422, 656.00
1423, 656.00
1424, 656.00
1425, 656.00
1426, 656.00
1427, 656.00
1428, 656.00
1429, 657.00
1430, 657.00
1431, 657.00
1432, 656.00
1433, 657.00
1434, 657.00
1435, 657.00
1436, 657.00
1437, 658.00
1438, 657.00
1439, 658.00
1440, 658.00
1441, 658.00
1442, 658.00
1443, 658.00
1444, 659.00
1445, 659.00
1446, 659.00
1447, 659.00
1448, 660.00
1449, 659.00
1450, 659.00
1451, 659.00
1452, 660.00
1453, 660.00
1454, 661.00
1455, 661.00
1456, 661.00
1457, 661.00
1458, 661.00
1459, 661.00
1460, 662.00
1461, 662.00
1462, 662.00
1463, 663.00
1464, 663.00
1465, 663.00
1466, 664.00
1467, 664.00
1468, 664.00
1469, 664.00
1470, 665.00
1471, 665.00
1472, 666.00
1473, 665.00
1474, 665.00
1475, 666.00
1476, 666.00
1477, 667.00
1478, 667.00
1479, 668.00
1480, 668.00
1481, 669.00
1482, 669.00
1483, 669.00
1484, 669.00
1485, 670.00
1486, 670.00
1487, 670.00
1488, 670.00
1489, 671.00
1490, 671.00
1491, 672.00
1492, 672.00
1493, 673.00
1494, 673.00
1495, 674.00
1496, 674.00
1497, 674.00
1498, 674.00
1499, 675.00
1500, 675.00
1501, 675.00
1502, 676.00
1503, 676.00
1504, 676.00
1505, 677.00
1506, 677.00
1507, 678.00
1508, 678.00
1509, 679.00
1510, 679.00
1511, 679.00
1512, 680.00
1513, 680.00
1514, 680.00
1515, 680.00
1516, 681.00
1517, 681.00
1518, 682.00
1519, 682.00
1520, 682.00
1521, 684.00
1522, 683.00
1523, 683.00
1524, 684.00
1525, 684.00
1526, 685.00
1527, 685.00
1528, 685.00
1529, 686.00
1530, 686.00
1531, 687.00
1532, 687.00
1533, 688.00
1534, 688.00
1535, 688.00
1536, 689.00
1537, 689.00
1538, 690.00
1539, 690.00
1540, 691.00
1541, 692.00
1542, 692.00
1543, 693.00
1544, 692.00
1545, 693.00
1546, 693.00
1547, 694.00
1548, 695.00
1549, 695.00
1550, 695.00
1551, 696.00
1552, 696.00
1553, 696.00
1554, 697.00
1555, 697.00
1556, 698.00
1557, 698.00
1558, 699.00
1559, 699.00
1560, 700.00
1561, 700.00
1562, 701.00
1563, 701.00
1564, 702.00
1565, 702.00
1566, 703.00
1567, 703.00
1568, 704.00
1569, 704.00
1570, 705.00
1571, 705.00
1572, 706.00
1573, 706.00
1574, 706.00
1575, 707.00
1576, 707.00
1577, 708.00
1578, 708.00
1579, 708.00
1580, 709.00
1581, 710.00
1582, 710.00
1583, 710.00
1584, 711.00
1585, 711.00
1586, 711.00
1587, 712.00
1588, 712.00
1589, 712.00
1590, 713.00
1591, 714.00
1592, 714.00
1593, 714.00
1594, 715.00
1595, 716.00
1596, 716.00
1597, 716.00
1598, 717.00
1599, 717.00
1600, 717.00
1601, 718.00
1602, 718.00
1603, 719.00
1604, 719.00
1605, 720.00
1606, 720.00
1607, 721.00
1608, 721.00
1609, 722.00
1610, 723.00
1611, 723.00
1612, 723.00
1613, 724.00
1614, 724.00
1615, 725.00
1616, 726.00
1617, 726.00
1618, 727.00
1619, 728.00
1620, 728.00
1621, 728.00
1622, 729.00
1623, 729.00
1624, 730.00
1625, 730.00
1626, 731.00
1627, 732.00
1628, 732.00
1629, 733.00
1630, 733.00
1631, 734.00
1632, 734.00
1633, 735.00
1634, 735.00
1635, 735.00
1636, 736.00
1637, 736.00
1638, 737.00
1639, 737.00
1640, 738.00
1641, 739.00
1642, 738.00
1643, 740.00
1644, 739.00
1645, 740.00
1646, 740.00
1647, 741.00
1648, 742.00
1649, 742.00
1650, 742.00

1750, 942.00
1751, 941.00
1752, 941.00
1753, 941.00
1754, 941.00
1755, 942.00
1756, 941.00
1757, 941.00
1758, 941.00
1759, 941.00
1760, 942.00
1761, 942.00
1762, 941.00
1763, 941.00
1764, 941.00
1765, 941.00
1766, 940.00
1767, 941.00
1768, 941.00
1769, 940.00
1770, 941.00
1771, 940.00
1772, 940.00
1773, 940.00
1774, 940.00
1775, 940.00
1776, 941.00
1777, 940.00
1778, 939.00
1779, 939.00
1780, 939.00
1781, 938.00
1782, 939.00
1783, 938.00
1784, 938.00
1785, 937.00
1786, 938.00
1787, 939.00
1788, 938.00
1789, 937.00
1790, 937.00
1791, 937.00
1792, 937.00
1793, 937.00
1794, 936.00
1795, 937.00
1796, 937.00
1797, 936.00
1798, 937.00
1799, 936.00
1800, 936.00
1801, 935.00
1802, 936.00
1803, 935.00
1804, 935.00
1805, 935.00
1806, 935.00
1807, 935.00
1808, 935.00
1809, 934.00
1810, 935.00
1811, 935.00
1812, 934.00
1813, 934.00
1814, 934.00
1815, 934.00
1816, 933.00
1817, 933.00
1818, 933.00
1819, 932.00
1820, 933.00
1821, 932.00
1822, 932.00
1823, 931.00
1824, 932.00
1825, 932.00
1826, 932.00
1827, 930.00
1828, 930.00
1829, 929.00
1830, 929.00
1831, 929.00
1832, 929.00
1833, 928.00
1834, 928.00
1835, 928.00
1836, 927.00
1837, 926.00
1838, 925.00
1839, 925.00
1840, 924.00
1841, 924.00
1842, 922.00
1843, 922.00
1844, 922.00
1845, 921.00
1846, 920.00
1847, 919.00
1848, 919.00
1849, 917.00
1850, 916.00
1851, 916.00
1852, 915.00
1853, 915.00
1854, 913.00
1855, 913.00
1856, 912.00
1857, 911.00
1858, 909.00
1859, 909.00
1860, 909.00
1861, 908.00
1862, 906.00
1863, 906.00
1864, 905.00
1865, 905.00
1866, 905.00
1867, 903.00
1868, 903.00
1869, 902.00
1870, 901.00
1871, 901.00
1872, 901.00
1873, 900.00
1874, 900.00
1875, 899.00
1876, 898.00
1877, 898.00
1878, 898.00
1879, 897.00
1880, 896.00
1881, 896.00
1882, 895.00
1883, 895.00
1884, 895.00
1885, 895.00
1886, 895.00
1887, 895.00
1888, 894.00
1889, 894.00
1890, 894.00
1891, 893.00
1892, 894.00
1893, 893.00
1894, 893.00
1895, 893.00
1896, 893.00
1897, 893.00
1898, 893.00
1899, 893.00
1900, 892.00
1901, 892.00
1902, 892.00
1903, 892.00
1904, 892.00
1905, 892.00
1906, 892.00
1907, 892.00
1908, 891.00
1909, 891.00
1910, 891.00
1911, 891.00
1912, 891.00
1913, 891.00
1914, 891.00
1915, 891.00
1916, 891.00
1917, 891.00
1918, 891.00
1919, 891.00
1920, 890.00
1921, 891.00
1922, 890.00
1923, 890.00
1924, 890.00
1925, 891.00
1926, 891.00
1927, 891.00
1928, 891.00
1929, 891.00
1930, 891.00
1931, 891.00
1932, 891.00
1933, 891.00
1934, 890.00
1935, 891.00
1936, 891.00
1937, 891.00
1938, 892.00
1939, 891.00
1940, 892.00
1941, 892.00
1942, 891.00
1943, 892.00
1944, 892.00
1945, 893.00
1946, 892.00
1947, 893.00
1948, 892.00
1949, 893.00
1950, 893.00
1951, 893.00
1952, 893.00
1953, 894.00
1954, 894.00
1955, 893.00
1956, 894.00
1957, 893.00
1958, 893.00
1959, 894.00
1960, 895.00
1961, 894.00
1962, 895.00
1963, 895.00
1964, 895.00
1965, 895.00
1966, 895.00
1967, 895.00
1968, 896.00
1969, 896.00
1970, 896.00
1971, 897.00
1972, 897.00
1973, 897.00
1974, 897.00
1975, 898.00
1976, 898.00
1977, 898.00
1978, 899.00
1979, 899.00
1980, 899.00
1981, 899.00
1982, 900.00
1983, 899.00
1984, 900.00
1985, 900.00
1986, 900.00
1987, 900.00
1988, 900.00
1989, 901.00
1990, 901.00
1991, 901.00
1992, 902.00
1993, 902.00
1994, 902.00
1995, 902.00
1996, 902.00
1997, 903.00
1998, 903.00
1999, 903.00
2000, 904.00
2001, 904.00
2002, 904.00
2003, 904.00
2004, 905.00
2005, 905.00
2006, 905.00
2007, 905.00
2008, 905.00
2009, 905.00
2010, 906.00
2011, 906.00
2012, 906.00
2013, 906.00
2014, 907.00
2015, 906.00
2016, 907.00
2017, 907.00
2018, 907.00
2019, 907.00
2020, 908.00
2021, 908.00
2022, 908.00
2023, 908.00
2024, 909.00
2025, 909.00
2026, 909.00
2027, 909.00
2028, 910.00
2029, 910.00
2030, 910.00
2031, 910.00
2032, 911.00
2033, 911.00
2034, 911.00
2035, 912.00
2036, 912.00
2037, 912.00
2038, 912.00
2039, 912.00
2040, 913.00
2041, 913.00
2042, 913.00
2043, 914.00
2044, 914.00
2045, 914.00
2046, 915.00
2047, 914.00
2048, 915.00
2049, 916.00
2050, 916.00
2051, 916.00
2052, 917.00
2053, 917.00
2054, 917.00
2055, 917.00
2056, 918.00
2057, 918.00
2058, 918.00
2059, 918.00
2060, 919.00
2061, 919.00
2062, 920.00
2063, 920.00
2064, 921.00
2065, 921.00
2066, 921.00
2067, 921.00
2068, 922.00
2069, 922.00
2070, 922.00
2071, 923.00
2072, 923.00
2073, 923.00
2074, 924.00
2075, 924.00
2076, 924.00
2077, 925.00
2078, 926.00
2079, 925.00
2080, 926.00
2081, 925.00
2082, 926.00
2083, 927.00
2084, 927.00
2085, 927.00
2086, 928.00
2087, 927.00
2088, 928.00
2089, 928.00
2090, 929.00
2091, 928.00
2092, 928.00
2093, 928.00
2094, 928.00
2095, 929.00
2096, 929.00
2097, 930.00
2098, 930.00
2099, 930.00
2100, 930.00
2101, 930.00
2102, 931.00
2103, 930.00
2104, 931.00
2105, 931.00
2106, 931.00
2107, 932.00
2108, 931.00
2109, 932.00
2110, 931.00
2111, 932.00
2112, 931.00
2113, 932.00
2114, 932.00
2115, 932.00
2116, 932.00
2117, 933.00
2118, 932.00
2119, 933.00
2120, 932.00
2121, 933.00
2122, 933.00
2123, 933.00
2124, 934.00
2125, 933.00
2126, 933.00
2127, 934.00
2128, 933.00
2129, 934.00
2130, 934.00
2131, 934.00
2132, 934.00
2133, 934.00
2134, 935.00
2135, 934.00
2136, 934.00
2137, 935.00
2138, 935.00
2139, 935.00
2140, 934.00
2141, 935.00
2142, 935.00
2143, 935.00
2144, 936.00
2145, 935.00
2146, 935.00
2147, 936.00
2148, 935.00
2149, 935.00
2150, 935.00
