FW version: 24
Log Version: 3.0.3

General Info:
       Command/Macro Performed,            Timestamp,             Device ID, COM Port, UART/I2C, Test Name, Host Major, Host Minor, Host Revision, Host Git Commit
            Single_measurement,  2023_06_27_10_56_08,       Insight2_F4_xxx,    USB-C,      USB,          ,          0,          1,             1,      4031237645

Show Spectrometer Status:
l0_version, f4_version, battery_perc, battery_mVolt, accelerometer_temp, accelerometer_x, accelerometer_y, accelerometer_z, compass_temp, compass_x, compass_y, compass_z, lamp_0, lamp_1, gain_0, gain_1
        17,         24,           95,          2074,               5648,           65428,             104,           18436,            0,     65495,     65401,     65383,   3276,   3276,    0,    0

Temperature Statistic Info:
NTC AVG [°C], NTC2 AVG [°C]
      37.726,        37.411

Statistic Info:
M1:  num,      min,      max,   median,      AVG,      STD,M2:  num,      min,      max,   median,      AVG,      STD
     301,   706.00,   808.00,   726.00,   739.07,  31.5449,     401,   919.00,   979.00,   941.00,   943.98,  19.3278,

Measurements:
Wavelength, Data Amplitude
1350, 726.00
1351, 725.00
1352, 726.00
1353, 725.00
1354, 724.00
1355, 725.00
1356, 724.00
1357, 724.00
1358, 723.00
1359, 723.00
1360, 722.00
1361, 722.00
1362, 721.00
1363, 721.00
1364, 720.00
1365, 719.00
1366, 719.00
1367, 719.00
1368, 718.00
1369, 718.00
1370, 717.00
1371, 717.00
1372, 716.00
1373, 715.00
1374, 716.00
1375, 715.00
1376, 714.00
1377, 713.00
1378, 713.00
1379, 713.00
1380, 713.00
1381, 712.00
1382, 711.00
1383, 711.00
1384, 711.00
1385, 710.00
1386, 710.00
1387, 710.00
1388, 710.00
1389, 709.00
1390, 709.00
1391, 709.00
1392, 709.00
1393, 709.00
1394, 708.00
1395, 708.00
1396, 708.00
1397, 708.00
1398, 708.00
1399, 708.00
1400, 708.00
1401, 708.00
1402, 707.00
1403, 707.00
1404, 707.00
1405, 707.00
1406, 707.00
1407, 707.00
1408, 707.00
1409, 707.00
1410, 706.00
1411, 706.00
1412, 706.00
1413, 707.00
1414, 706.00
1415, 706.00
1416, 706.00
1417, 706.00
1418, 706.00
1419, 706.00
1420, 706.00
1421, 706.00
1422, 706.00
1423, 706.00
1424, 706.00
1425, 706.00
1426, 706.00
1427, 706.00
1428, 706.00
1429, 706.00
1430, 706.00
1431, 706.00
1432, 706.00
1433, 707.00
1434, 707.00
1435, 707.00
1436, 707.00
1437, 707.00
1438, 707.00
1439, 707.00
1440, 707.00
1441, 707.00
1442, 708.00
1443, 707.00
1444, 708.00
1445, 708.00
1446, 708.00
1447, 709.00
1448, 709.00
1449, 709.00
1450, 709.00
1451, 710.00
1452, 709.00
1453, 710.00
1454, 710.00
1455, 711.00
1456, 711.00
1457, 711.00
1458, 711.00
1459, 711.00
1460, 711.00
1461, 712.00
1462, 712.00
1463, 712.00
1464, 712.00
1465, 712.00
1466, 713.00
1467, 713.00
1468, 714.00
1469, 714.00
1470, 714.00
1471, 715.00
1472, 715.00
1473, 715.00
1474, 716.00
1475, 716.00
1476, 716.00
1477, 717.00
1478, 717.00
1479, 717.00
1480, 718.00
1481, 718.00
1482, 719.00
1483, 718.00
1484, 719.00
1485, 720.00
1486, 720.00
1487, 721.00
1488, 721.00
1489, 721.00
1490, 722.00
1491, 722.00
1492, 723.00
1493, 723.00
1494, 723.00
1495, 724.00
1496, 724.00
1497, 724.00
1498, 725.00
1499, 725.00
1500, 726.00
1501, 726.00
1502, 726.00
1503, 727.00
1504, 728.00
1505, 728.00
1506, 729.00
1507, 729.00
1508, 729.00
1509, 730.00
1510, 730.00
1511, 731.00
1512, 731.00
1513, 731.00
1514, 732.00
1515, 732.00
1516, 733.00
1517, 733.00
1518, 734.00
1519, 735.00
1520, 735.00
1521, 735.00
1522, 736.00
1523, 736.00
1524, 738.00
1525, 737.00
1526, 738.00
1527, 738.00
1528, 739.00
1529, 739.00
1530, 740.00
1531, 741.00
1532, 741.00
1533, 742.00
1534, 741.00
1535, 743.00
1536, 743.00
1537, 743.00
1538, 744.00
1539, 744.00
1540, 745.00
1541, 746.00
1542, 746.00
1543, 747.00
1544, 747.00
1545, 747.00
1546, 748.00
1547, 749.00
1548, 749.00
1549, 749.00
1550, 751.00
1551, 751.00
1552, 751.00
1553, 752.00
1554, 753.00
1555, 753.00
1556, 753.00
1557, 754.00
1558, 755.00
1559, 756.00
1560, 756.00
1561, 757.00
1562, 757.00
1563, 757.00
1564, 758.00
1565, 759.00
1566, 760.00
1567, 760.00
1568, 761.00
1569, 761.00
1570, 762.00
1571, 762.00
1572, 763.00
1573, 764.00
1574, 764.00
1575, 764.00
1576, 765.00
1577, 766.00
1578, 766.00
1579, 767.00
1580, 768.00
1581, 769.00
1582, 768.00
1583, 769.00
1584, 770.00
1585, 770.00
1586, 770.00
1587, 772.00
1588, 771.00
1589, 772.00
1590, 773.00
1591, 773.00
1592, 773.00
1593, 774.00
1594, 774.00
1595, 775.00
1596, 776.00
1597, 776.00
1598, 777.00
1599, 777.00
1600, 778.00
1601, 778.00
1602, 779.00
1603, 779.00
1604, 780.00
1605, 781.00
1606, 781.00
1607, 782.00
1608, 782.00
1609, 783.00
1610, 784.00
1611, 784.00
1612, 785.00
1613, 786.00
1614, 786.00
1615, 787.00
1616, 788.00
1617, 788.00
1618, 788.00
1619, 789.00
1620, 790.00
1621, 791.00
1622, 792.00
1623, 792.00
1624, 793.00
1625, 793.00
1626, 794.00
1627, 795.00
1628, 795.00
1629, 796.00
1630, 797.00
1631, 797.00
1632, 798.00
1633, 799.00
1634, 799.00
1635, 799.00
1636, 800.00
1637, 801.00
1638, 801.00
1639, 802.00
1640, 802.00
1641, 803.00
1642, 804.00
1643, 804.00
1644, 805.00
1645, 805.00
1646, 806.00
1647, 806.00
1648, 806.00
1649, 807.00
1650, 808.00

1750, 979.00
1751, 979.00
1752, 978.00
1753, 978.00
1754, 978.00
1755, 978.00
1756, 979.00
1757, 978.00
1758, 978.00
1759, 977.00
1760, 978.00
1761, 978.00
1762, 979.00
1763, 978.00
1764, 978.00
1765, 978.00
1766, 978.00
1767, 978.00
1768, 977.00
1769, 978.00
1770, 978.00
1771, 977.00
1772, 977.00
1773, 977.00
1774, 976.00
1775, 977.00
1776, 976.00
1777, 976.00
1778, 976.00
1779, 976.00
1780, 975.00
1781, 976.00
1782, 975.00
1783, 975.00
1784, 975.00
1785, 975.00
1786, 974.00
1787, 974.00
1788, 974.00
1789, 974.00
1790, 974.00
1791, 973.00
1792, 973.00
1793, 973.00
1794, 973.00
1795, 972.00
1796, 972.00
1797, 973.00
1798, 973.00
1799, 971.00
1800, 972.00
1801, 971.00
1802, 971.00
1803, 971.00
1804, 971.00
1805, 970.00
1806, 970.00
1807, 970.00
1808, 970.00
1809, 970.00
1810, 970.00
1811, 970.00
1812, 969.00
1813, 969.00
1814, 969.00
1815, 969.00
1816, 968.00
1817, 968.00
1818, 967.00
1819, 967.00
1820, 967.00
1821, 967.00
1822, 966.00
1823, 965.00
1824, 965.00
1825, 964.00
1826, 964.00
1827, 964.00
1828, 963.00
1829, 963.00
1830, 961.00
1831, 962.00
1832, 961.00
1833, 961.00
1834, 959.00
1835, 958.00
1836, 957.00
1837, 957.00
1838, 956.00
1839, 956.00
1840, 955.00
1841, 954.00
1842, 953.00
1843, 951.00
1844, 952.00
1845, 950.00
1846, 950.00
1847, 948.00
1848, 948.00
1849, 946.00
1850, 946.00
1851, 945.00
1852, 944.00
1853, 943.00
1854, 942.00
1855, 941.00
1856, 941.00
1857, 939.00
1858, 939.00
1859, 938.00
1860, 937.00
1861, 937.00
1862, 937.00
1863, 936.00
1864, 935.00
1865, 934.00
1866, 933.00
1867, 933.00
1868, 932.00
1869, 931.00
1870, 931.00
1871, 930.00
1872, 929.00
1873, 929.00
1874, 929.00
1875, 928.00
1876, 928.00
1877, 927.00
1878, 928.00
1879, 927.00
1880, 927.00
1881, 926.00
1882, 926.00
1883, 926.00
1884, 925.00
1885, 925.00
1886, 925.00
1887, 924.00
1888, 923.00
1889, 924.00
1890, 924.00
1891, 923.00
1892, 923.00
1893, 923.00
1894, 922.00
1895, 922.00
1896, 922.00
1897, 922.00
1898, 922.00
1899, 922.00
1900, 922.00
1901, 921.00
1902, 921.00
1903, 922.00
1904, 921.00
1905, 922.00
1906, 921.00
1907, 921.00
1908, 921.00
1909, 921.00
1910, 921.00
1911, 921.00
1912, 920.00
1913, 920.00
1914, 920.00
1915, 921.00
1916, 920.00
1917, 919.00
1918, 920.00
1919, 920.00
1920, 920.00
1921, 920.00
1922, 919.00
1923, 919.00
1924, 920.00
1925, 920.00
1926, 919.00
1927, 921.00
1928, 919.00
1929, 920.00
1930, 919.00
1931, 919.00
1932, 919.00
1933, 919.00
1934, 919.00
1935, 919.00
1936, 920.00
1937, 919.00
1938, 920.00
1939, 920.00
1940, 920.00
1941, 920.00
1942, 919.00
1943, 920.00
1944, 919.00
1945, 920.00
1946, 920.00
1947, 920.00
1948, 921.00
1949, 920.00
1950, 920.00
1951, 920.00
1952, 920.00
1953, 921.00
1954, 921.00
1955, 921.00
1956, 921.00
1957, 921.00
1958, 922.00
1959, 921.00
1960, 922.00
1961, 921.00
1962, 922.00
1963, 922.00
1964, 922.00
1965, 922.00
1966, 922.00
1967, 922.00
1968, 923.00
1969, 923.00
1970, 923.00
1971, 923.00
1972, 923.00
1973, 923.00
1974, 923.00
1975, 924.00
1976, 925.00
1977, 925.00
1978, 925.00
1979, 924.00
1980, 925.00
1981, 925.00
1982, 925.00
1983, 925.00
1984, 926.00
1985, 926.00
1986, 926.00
1987, 926.00
1988, 927.00
1989, 926.00
1990, 927.00
1991, 927.00
1992, 927.00
1993, 927.00
1994, 927.00
1995, 927.00
1996, 928.00
1997, 928.00
1998, 928.00
1999, 928.00
2000, 929.00
2001, 930.00
2002, 929.00
2003, 929.00
2004, 929.00
2005, 930.00
2006, 930.00
2007, 930.00
2008, 930.00
2009, 930.00
2010, 930.00
2011, 931.00
2012, 931.00
2013, 931.00
2014, 932.00
2015, 931.00
2016, 931.00
2017, 932.00
2018, 932.00
2019, 932.00
2020, 933.00
2021, 933.00
2022, 934.00
2023, 933.00
2024, 933.00
2025, 933.00
2026, 933.00
2027, 934.00
2028, 934.00
2029, 935.00
2030, 934.00
2031, 935.00
2032, 935.00
2033, 935.00
2034, 935.00
2035, 936.00
2036, 936.00
2037, 937.00
2038, 937.00
2039, 937.00
2040, 937.00
2041, 937.00
2042, 937.00
2043, 938.00
2044, 937.00
2045, 939.00
2046, 938.00
2047, 939.00
2048, 939.00
2049, 939.00
2050, 939.00
2051, 941.00
2052, 940.00
2053, 941.00
2054, 940.00
2055, 941.00
2056, 942.00
2057, 941.00
2058, 943.00
2059, 942.00
2060, 943.00
2061, 943.00
2062, 943.00
2063, 944.00
2064, 944.00
2065, 945.00
2066, 945.00
2067, 945.00
2068, 945.00
2069, 946.00
2070, 946.00
2071, 946.00
2072, 947.00
2073, 947.00
2074, 947.00
2075, 947.00
2076, 947.00
2077, 949.00
2078, 949.00
2079, 948.00
2080, 949.00
2081, 949.00
2082, 950.00
2083, 950.00
2084, 950.00
2085, 951.00
2086, 951.00
2087, 951.00
2088, 951.00
2089, 951.00
2090, 951.00
2091, 952.00
2092, 952.00
2093, 952.00
2094, 953.00
2095, 953.00
2096, 953.00
2097, 953.00
2098, 953.00
2099, 954.00
2100, 954.00
2101, 954.00
2102, 954.00
2103, 954.00
2104, 953.00
2105, 954.00
2106, 955.00
2107, 955.00
2108, 956.00
2109, 955.00
2110, 956.00
2111, 956.00
2112, 956.00
2113, 956.00
2114, 957.00
2115, 956.00
2116, 957.00
2117, 957.00
2118, 957.00
2119, 957.00
2120, 957.00
2121, 957.00
2122, 957.00
2123, 957.00
2124, 957.00
2125, 958.00
2126, 958.00
2127, 958.00
2128, 958.00
2129, 959.00
2130, 958.00
2131, 959.00
2132, 959.00
2133, 959.00
2134, 959.00
2135, 959.00
2136, 959.00
2137, 959.00
2138, 960.00
2139, 960.00
2140, 960.00
2141, 959.00
2142, 960.00
2143, 960.00
2144, 960.00
2145, 960.00
2146, 960.00
2147, 961.00
2148, 961.00
2149, 960.00
2150, 961.00
