FW version: 24
Log Version: 3.0.3

General Info:
       Command/Macro Performed,            Timestamp,             Device ID, COM Port, UART/I2C, Test Name, Host Major, Host Minor, Host Revision, Host Git Commit
            Single_measurement,  2023_06_28_11_48_55,       Insight2_F4_xxx,    USB-C,      USB,          ,          0,          1,             1,      4031237645

Show Spectrometer Status:
l0_version, f4_version, battery_perc, battery_mVolt, accelerometer_temp, accelerometer_x, accelerometer_y, accelerometer_z, compass_temp, compass_x, compass_y, compass_z, lamp_0, lamp_1, gain_0, gain_1
        17,         24,           46,          1901,               6592,           65116,             876,           18732,            0,     65502,     65532,     18749,   3276,   3276,      1,      1

Temperature Statistic Info:
NTC AVG [°C], NTC2 AVG [°C]
      40.558,        40.233

Statistic Info:
M1:  num,      min,      max,   median,      AVG,      STD,M2:  num,      min,      max,   median,      AVG,      STD
     301,  1772.00,  2031.00,  1827.00,  1857.70,  80.3166,     401,  2307.00,  2463.00,  2371.00,  2375.29,  50.8138,

Measurements:
Wavelength, Data Amplitude
1350, 1818.00
1351, 1818.00
1352, 1815.00
1353, 1817.00
1354, 1815.00
1355, 1813.00
1356, 1812.00
1357, 1812.00
1358, 1810.00
1359, 1809.00
1360, 1809.00
1361, 1808.00
1362, 1808.00
1363, 1806.00
1364, 1804.00
1365, 1804.00
1366, 1801.00
1367, 1802.00
1368, 1799.00
1369, 1798.00
1370, 1798.00
1371, 1796.00
1372, 1795.00
1373, 1793.00
1374, 1792.00
1375, 1791.00
1376, 1790.00
1377, 1789.00
1378, 1789.00
1379, 1787.00
1380, 1786.00
1381, 1785.00
1382, 1784.00
1383, 1783.00
1384, 1783.00
1385, 1782.00
1386, 1781.00
1387, 1781.00
1388, 1781.00
1389, 1781.00
1390, 1779.00
1391, 1779.00
1392, 1778.00
1393, 1780.00
1394, 1777.00
1395, 1778.00
1396, 1777.00
1397, 1777.00
1398, 1776.00
1399, 1775.00
1400, 1776.00
1401, 1777.00
1402, 1775.00
1403, 1774.00
1404, 1775.00
1405, 1775.00
1406, 1775.00
1407, 1774.00
1408, 1774.00
1409, 1773.00
1410, 1774.00
1411, 1773.00
1412, 1773.00
1413, 1773.00
1414, 1773.00
1415, 1772.00
1416, 1773.00
1417, 1773.00
1418, 1774.00
1419, 1773.00
1420, 1774.00
1421, 1773.00
1422, 1773.00
1423, 1774.00
1424, 1773.00
1425, 1773.00
1426, 1774.00
1427, 1774.00
1428, 1773.00
1429, 1774.00
1430, 1775.00
1431, 1775.00
1432, 1775.00
1433, 1776.00
1434, 1776.00
1435, 1775.00
1436, 1776.00
1437, 1777.00
1438, 1777.00
1439, 1778.00
1440, 1778.00
1441, 1779.00
1442, 1779.00
1443, 1779.00
1444, 1779.00
1445, 1780.00
1446, 1781.00
1447, 1782.00
1448, 1782.00
1449, 1782.00
1450, 1782.00
1451, 1783.00
1452, 1783.00
1453, 1784.00
1454, 1785.00
1455, 1787.00
1456, 1786.00
1457, 1787.00
1458, 1787.00
1459, 1788.00
1460, 1788.00
1461, 1789.00
1462, 1790.00
1463, 1791.00
1464, 1791.00
1465, 1793.00
1466, 1794.00
1467, 1793.00
1468, 1794.00
1469, 1795.00
1470, 1796.00
1471, 1797.00
1472, 1797.00
1473, 1800.00
1474, 1800.00
1475, 1801.00
1476, 1802.00
1477, 1803.00
1478, 1805.00
1479, 1806.00
1480, 1806.00
1481, 1807.00
1482, 1807.00
1483, 1809.00
1484, 1809.00
1485, 1811.00
1486, 1812.00
1487, 1813.00
1488, 1814.00
1489, 1815.00
1490, 1817.00
1491, 1818.00
1492, 1819.00
1493, 1820.00
1494, 1819.00
1495, 1821.00
1496, 1822.00
1497, 1823.00
1498, 1825.00
1499, 1827.00
1500, 1827.00
1501, 1827.00
1502, 1829.00
1503, 1830.00
1504, 1831.00
1505, 1831.00
1506, 1833.00
1507, 1833.00
1508, 1835.00
1509, 1836.00
1510, 1837.00
1511, 1839.00
1512, 1839.00
1513, 1841.00
1514, 1843.00
1515, 1844.00
1516, 1844.00
1517, 1846.00
1518, 1847.00
1519, 1847.00
1520, 1848.00
1521, 1850.00
1522, 1851.00
1523, 1853.00
1524, 1854.00
1525, 1857.00
1526, 1857.00
1527, 1858.00
1528, 1860.00
1529, 1861.00
1530, 1863.00
1531, 1864.00
1532, 1865.00
1533, 1866.00
1534, 1868.00
1535, 1868.00
1536, 1871.00
1537, 1871.00
1538, 1873.00
1539, 1873.00
1540, 1875.00
1541, 1877.00
1542, 1877.00
1543, 1879.00
1544, 1879.00
1545, 1881.00
1546, 1883.00
1547, 1884.00
1548, 1885.00
1549, 1887.00
1550, 1888.00
1551, 1890.00
1552, 1891.00
1553, 1893.00
1554, 1893.00
1555, 1895.00
1556, 1895.00
1557, 1898.00
1558, 1899.00
1559, 1901.00
1560, 1901.00
1561, 1903.00
1562, 1905.00
1563, 1907.00
1564, 1908.00
1565, 1910.00
1566, 1911.00
1567, 1913.00
1568, 1914.00
1569, 1915.00
1570, 1918.00
1571, 1919.00
1572, 1920.00
1573, 1922.00
1574, 1923.00
1575, 1924.00
1576, 1925.00
1577, 1927.00
1578, 1928.00
1579, 1929.00
1580, 1931.00
1581, 1932.00
1582, 1933.00
1583, 1934.00
1584, 1936.00
1585, 1937.00
1586, 1939.00
1587, 1939.00
1588, 1941.00
1589, 1942.00
1590, 1944.00
1591, 1945.00
1592, 1947.00
1593, 1949.00
1594, 1949.00
1595, 1949.00
1596, 1951.00
1597, 1953.00
1598, 1953.00
1599, 1955.00
1600, 1956.00
1601, 1958.00
1602, 1959.00
1603, 1960.00
1604, 1962.00
1605, 1964.00
1606, 1964.00
1607, 1966.00
1608, 1967.00
1609, 1968.00
1610, 1970.00
1611, 1973.00
1612, 1973.00
1613, 1976.00
1614, 1977.00
1615, 1979.00
1616, 1982.00
1617, 1983.00
1618, 1983.00
1619, 1985.00
1620, 1988.00
1621, 1989.00
1622, 1990.00
1623, 1992.00
1624, 1994.00
1625, 1995.00
1626, 1996.00
1627, 1998.00
1628, 2000.00
1629, 2001.00
1630, 2003.00
1631, 2004.00
1632, 2006.00
1633, 2007.00
1634, 2009.00
1635, 2011.00
1636, 2011.00
1637, 2013.00
1638, 2013.00
1639, 2015.00
1640, 2017.00
1641, 2018.00
1642, 2020.00
1643, 2020.00
1644, 2022.00
1645, 2023.00
1646, 2025.00
1647, 2026.00
1648, 2027.00
1649, 2030.00
1650, 2031.00

1750, 2460.00
1751, 2460.00
1752, 2461.00
1753, 2459.00
1754, 2463.00
1755, 2459.00
1756, 2461.00
1757, 2461.00
1758, 2460.00
1759, 2460.00
1760, 2461.00
1761, 2460.00
1762, 2460.00
1763, 2459.00
1764, 2459.00
1765, 2459.00
1766, 2458.00
1767, 2458.00
1768, 2460.00
1769, 2459.00
1770, 2458.00
1771, 2458.00
1772, 2459.00
1773, 2457.00
1774, 2459.00
1775, 2457.00
1776, 2456.00
1777, 2455.00
1778, 2456.00
1779, 2453.00
1780, 2455.00
1781, 2453.00
1782, 2454.00
1783, 2452.00
1784, 2453.00
1785, 2450.00
1786, 2451.00
1787, 2451.00
1788, 2450.00
1789, 2449.00
1790, 2447.00
1791, 2448.00
1792, 2446.00
1793, 2447.00
1794, 2445.00
1795, 2447.00
1796, 2443.00
1797, 2442.00
1798, 2444.00
1799, 2441.00
1800, 2443.00
1801, 2441.00
1802, 2442.00
1803, 2442.00
1804, 2441.00
1805, 2443.00
1806, 2439.00
1807, 2439.00
1808, 2439.00
1809, 2439.00
1810, 2438.00
1811, 2436.00
1812, 2437.00
1813, 2435.00
1814, 2436.00
1815, 2435.00
1816, 2435.00
1817, 2434.00
1818, 2434.00
1819, 2431.00
1820, 2429.00
1821, 2431.00
1822, 2427.00
1823, 2427.00
1824, 2427.00
1825, 2427.00
1826, 2427.00
1827, 2423.00
1828, 2421.00
1829, 2421.00
1830, 2417.00
1831, 2416.00
1832, 2415.00
1833, 2412.00
1834, 2413.00
1835, 2410.00
1836, 2407.00
1837, 2407.00
1838, 2403.00
1839, 2401.00
1840, 2401.00
1841, 2399.00
1842, 2397.00
1843, 2393.00
1844, 2391.00
1845, 2387.00
1846, 2385.00
1847, 2387.00
1848, 2382.00
1849, 2379.00
1850, 2377.00
1851, 2373.00
1852, 2374.00
1853, 2370.00
1854, 2367.00
1855, 2366.00
1856, 2361.00
1857, 2360.00
1858, 2358.00
1859, 2355.00
1860, 2353.00
1861, 2349.00
1862, 2351.00
1863, 2348.00
1864, 2347.00
1865, 2344.00
1866, 2343.00
1867, 2341.00
1868, 2340.00
1869, 2338.00
1870, 2334.00
1871, 2333.00
1872, 2331.00
1873, 2332.00
1874, 2329.00
1875, 2327.00
1876, 2327.00
1877, 2327.00
1878, 2327.00
1879, 2325.00
1880, 2324.00
1881, 2323.00
1882, 2321.00
1883, 2322.00
1884, 2319.00
1885, 2320.00
1886, 2320.00
1887, 2318.00
1888, 2320.00
1889, 2317.00
1890, 2318.00
1891, 2318.00
1892, 2316.00
1893, 2316.00
1894, 2315.00
1895, 2313.00
1896, 2314.00
1897, 2314.00
1898, 2313.00
1899, 2312.00
1900, 2312.00
1901, 2313.00
1902, 2313.00
1903, 2312.00
1904, 2313.00
1905, 2310.00
1906, 2312.00
1907, 2310.00
1908, 2308.00
1909, 2310.00
1910, 2308.00
1911, 2311.00
1912, 2308.00
1913, 2309.00
1914, 2309.00
1915, 2310.00
1916, 2310.00
1917, 2309.00
1918, 2308.00
1919, 2308.00
1920, 2308.00
1921, 2308.00
1922, 2308.00
1923, 2309.00
1924, 2309.00
1925, 2308.00
1926, 2309.00
1927, 2307.00
1928, 2308.00
1929, 2309.00
1930, 2308.00
1931, 2309.00
1932, 2310.00
1933, 2309.00
1934, 2309.00
1935, 2308.00
1936, 2309.00
1937, 2308.00
1938, 2311.00
1939, 2311.00
1940, 2310.00
1941, 2310.00
1942, 2311.00
1943, 2309.00
1944, 2310.00
1945, 2309.00
1946, 2307.00
1947, 2310.00
1948, 2312.00
1949, 2311.00
1950, 2313.00
1951, 2312.00
1952, 2312.00
1953, 2313.00
1954, 2313.00
1955, 2313.00
1956, 2313.00
1957, 2312.00
1958, 2314.00
1959, 2314.00
1960, 2318.00
1961, 2316.00
1962, 2316.00
1963, 2317.00
1964, 2316.00
1965, 2318.00
1966, 2319.00
1967, 2317.00
1968, 2318.00
1969, 2320.00
1970, 2319.00
1971, 2321.00
1972, 2321.00
1973, 2322.00
1974, 2323.00
1975, 2323.00
1976, 2326.00
1977, 2324.00
1978, 2327.00
1979, 2326.00
1980, 2325.00
1981, 2325.00
1982, 2328.00
1983, 2326.00
1984, 2328.00
1985, 2328.00
1986, 2329.00
1987, 2330.00
1988, 2331.00
1989, 2331.00
1990, 2330.00
1991, 2333.00
1992, 2332.00
1993, 2332.00
1994, 2333.00
1995, 2333.00
1996, 2336.00
1997, 2336.00
1998, 2337.00
1999, 2335.00
2000, 2338.00
2001, 2337.00
2002, 2339.00
2003, 2338.00
2004, 2339.00
2005, 2340.00
2006, 2341.00
2007, 2342.00
2008, 2340.00
2009, 2342.00
2010, 2342.00
2011, 2343.00
2012, 2343.00
2013, 2342.00
2014, 2345.00
2015, 2345.00
2016, 2347.00
2017, 2346.00
2018, 2349.00
2019, 2348.00
2020, 2349.00
2021, 2349.00
2022, 2350.00
2023, 2348.00
2024, 2349.00
2025, 2351.00
2026, 2351.00
2027, 2352.00
2028, 2354.00
2029, 2353.00
2030, 2356.00
2031, 2354.00
2032, 2354.00
2033, 2354.00
2034, 2358.00
2035, 2359.00
2036, 2360.00
2037, 2359.00
2038, 2359.00
2039, 2359.00
2040, 2360.00
2041, 2361.00
2042, 2362.00
2043, 2363.00
2044, 2363.00
2045, 2364.00
2046, 2365.00
2047, 2366.00
2048, 2367.00
2049, 2368.00
2050, 2369.00
2051, 2370.00
2052, 2371.00
2053, 2370.00
2054, 2372.00
2055, 2374.00
2056, 2375.00
2057, 2375.00
2058, 2378.00
2059, 2376.00
2060, 2379.00
2061, 2379.00
2062, 2380.00
2063, 2379.00
2064, 2382.00
2065, 2383.00
2066, 2386.00
2067, 2385.00
2068, 2386.00
2069, 2386.00
2070, 2386.00
2071, 2389.00
2072, 2389.00
2073, 2388.00
2074, 2389.00
2075, 2390.00
2076, 2392.00
2077, 2391.00
2078, 2393.00
2079, 2396.00
2080, 2396.00
2081, 2394.00
2082, 2399.00
2083, 2396.00
2084, 2398.00
2085, 2399.00
2086, 2401.00
2087, 2400.00
2088, 2400.00
2089, 2401.00
2090, 2402.00
2091, 2404.00
2092, 2404.00
2093, 2404.00
2094, 2403.00
2095, 2405.00
2096, 2406.00
2097, 2407.00
2098, 2407.00
2099, 2408.00
2100, 2408.00
2101, 2408.00
2102, 2408.00
2103, 2409.00
2104, 2409.00
2105, 2409.00
2106, 2410.00
2107, 2411.00
2108, 2410.00
2109, 2413.00
2110, 2410.00
2111, 2411.00
2112, 2413.00
2113, 2414.00
2114, 2412.00
2115, 2414.00
2116, 2415.00
2117, 2416.00
2118, 2415.00
2119, 2417.00
2120, 2415.00
2121, 2418.00
2122, 2415.00
2123, 2415.00
2124, 2419.00
2125, 2419.00
2126, 2419.00
2127, 2419.00
2128, 2420.00
2129, 2419.00
2130, 2419.00
2131, 2420.00
2132, 2419.00
2133, 2420.00
2134, 2421.00
2135, 2421.00
2136, 2422.00
2137, 2422.00
2138, 2421.00
2139, 2423.00
2140, 2422.00
2141, 2423.00
2142, 2423.00
2143, 2425.00
2144, 2425.00
2145, 2427.00
2146, 2425.00
2147, 2425.00
2148, 2426.00
2149, 2427.00
2150, 2425.00
