FW version: 24
Log Version: 3.0.3

General Info:
       Command/Macro Performed,            Timestamp,             Device ID, COM Port, UART/I2C, Test Name, Host Major, Host Minor, Host Revision, Host Git Commit
            Single_measurement,  2023_06_28_11_48_01,       Insight2_F4_xxx,    USB-C,      USB,          ,          0,          1,             1,      4031237645

Show Spectrometer Status:
l0_version, f4_version, battery_perc, battery_mVolt, accelerometer_temp, accelerometer_x, accelerometer_y, accelerometer_z, compass_temp, compass_x, compass_y, compass_z, lamp_0, lamp_1, gain_0, gain_1
        17,         24,           46,          1901,               6560,           65496,            1156,           18772,            0,     65500,     65438,     18815,   2047,   2047,      1,      1

Temperature Statistic Info:
NTC AVG [°C], NTC2 AVG [°C]
      40.173,        39.850

Statistic Info:
M1:  num,      min,      max,   median,      AVG,      STD,M2:  num,      min,      max,   median,      AVG,      STD
     301,   710.00,   824.00,   736.00,   748.28,  36.1867,     401,  1048.00,  1121.00,  1082.00,  1082.47,  23.8175,

Measurements:
Wavelength, Data Amplitude
1350, 725.00
1351, 725.00
1352, 726.00
1353, 725.00
1354, 723.00
1355, 722.00
1356, 723.00
1357, 724.00
1358, 723.00
1359, 723.00
1360, 722.00
1361, 722.00
1362, 721.00
1363, 721.00
1364, 721.00
1365, 720.00
1366, 719.00
1367, 720.00
1368, 719.00
1369, 719.00
1370, 718.00
1371, 718.00
1372, 717.00
1373, 716.00
1374, 716.00
1375, 717.00
1376, 717.00
1377, 714.00
1378, 715.00
1379, 715.00
1380, 714.00
1381, 714.00
1382, 714.00
1383, 714.00
1384, 714.00
1385, 712.00
1386, 712.00
1387, 714.00
1388, 713.00
1389, 712.00
1390, 712.00
1391, 712.00
1392, 712.00
1393, 712.00
1394, 710.00
1395, 712.00
1396, 712.00
1397, 711.00
1398, 711.00
1399, 710.00
1400, 711.00
1401, 711.00
1402, 710.00
1403, 710.00
1404, 710.00
1405, 710.00
1406, 710.00
1407, 710.00
1408, 710.00
1409, 710.00
1410, 710.00
1411, 711.00
1412, 711.00
1413, 711.00
1414, 711.00
1415, 711.00
1416, 710.00
1417, 710.00
1418, 710.00
1419, 710.00
1420, 710.00
1421, 710.00
1422, 710.00
1423, 711.00
1424, 712.00
1425, 710.00
1426, 711.00
1427, 711.00
1428, 710.00
1429, 711.00
1430, 712.00
1431, 711.00
1432, 711.00
1433, 712.00
1434, 711.00
1435, 712.00
1436, 712.00
1437, 713.00
1438, 713.00
1439, 712.00
1440, 712.00
1441, 712.00
1442, 714.00
1443, 713.00
1444, 713.00
1445, 714.00
1446, 714.00
1447, 714.00
1448, 714.00
1449, 715.00
1450, 715.00
1451, 715.00
1452, 716.00
1453, 717.00
1454, 717.00
1455, 717.00
1456, 718.00
1457, 717.00
1458, 717.00
1459, 716.00
1460, 719.00
1461, 717.00
1462, 719.00
1463, 719.00
1464, 719.00
1465, 720.00
1466, 720.00
1467, 721.00
1468, 721.00
1469, 721.00
1470, 721.00
1471, 721.00
1472, 722.00
1473, 723.00
1474, 723.00
1475, 723.00
1476, 725.00
1477, 724.00
1478, 725.00
1479, 725.00
1480, 726.00
1481, 726.00
1482, 727.00
1483, 727.00
1484, 727.00
1485, 728.00
1486, 729.00
1487, 729.00
1488, 729.00
1489, 730.00
1490, 731.00
1491, 731.00
1492, 732.00
1493, 732.00
1494, 732.00
1495, 733.00
1496, 733.00
1497, 735.00
1498, 735.00
1499, 735.00
1500, 736.00
1501, 736.00
1502, 737.00
1503, 737.00
1504, 738.00
1505, 739.00
1506, 738.00
1507, 739.00
1508, 740.00
1509, 741.00
1510, 741.00
1511, 742.00
1512, 742.00
1513, 742.00
1514, 743.00
1515, 744.00
1516, 744.00
1517, 745.00
1518, 745.00
1519, 745.00
1520, 746.00
1521, 747.00
1522, 749.00
1523, 749.00
1524, 748.00
1525, 750.00
1526, 750.00
1527, 750.00
1528, 751.00
1529, 752.00
1530, 752.00
1531, 753.00
1532, 753.00
1533, 754.00
1534, 754.00
1535, 755.00
1536, 756.00
1537, 757.00
1538, 757.00
1539, 758.00
1540, 757.00
1541, 758.00
1542, 759.00
1543, 760.00
1544, 760.00
1545, 761.00
1546, 760.00
1547, 762.00
1548, 762.00
1549, 764.00
1550, 763.00
1551, 764.00
1552, 764.00
1553, 765.00
1554, 764.00
1555, 766.00
1556, 766.00
1557, 768.00
1558, 769.00
1559, 768.00
1560, 770.00
1561, 770.00
1562, 771.00
1563, 771.00
1564, 773.00
1565, 772.00
1566, 773.00
1567, 774.00
1568, 774.00
1569, 774.00
1570, 776.00
1571, 777.00
1572, 777.00
1573, 778.00
1574, 777.00
1575, 778.00
1576, 779.00
1577, 780.00
1578, 781.00
1579, 781.00
1580, 782.00
1581, 782.00
1582, 782.00
1583, 783.00
1584, 784.00
1585, 784.00
1586, 785.00
1587, 786.00
1588, 786.00
1589, 786.00
1590, 787.00
1591, 787.00
1592, 788.00
1593, 789.00
1594, 789.00
1595, 789.00
1596, 790.00
1597, 791.00
1598, 791.00
1599, 793.00
1600, 793.00
1601, 793.00
1602, 794.00
1603, 794.00
1604, 795.00
1605, 796.00
1606, 796.00
1607, 796.00
1608, 797.00
1609, 800.00
1610, 800.00
1611, 800.00
1612, 800.00
1613, 802.00
1614, 801.00
1615, 802.00
1616, 803.00
1617, 803.00
1618, 805.00
1619, 805.00
1620, 807.00
1621, 807.00
1622, 808.00
1623, 808.00
1624, 809.00
1625, 810.00
1626, 810.00
1627, 812.00
1628, 812.00
1629, 813.00
1630, 813.00
1631, 813.00
1632, 815.00
1633, 815.00
1634, 815.00
1635, 815.00
1636, 816.00
1637, 818.00
1638, 817.00
1639, 819.00
1640, 818.00
1641, 818.00
1642, 820.00
1643, 820.00
1644, 821.00
1645, 821.00
1646, 821.00
1647, 822.00
1648, 823.00
1649, 823.00
1650, 824.00

1750, 1117.00
1751, 1119.00
1752, 1120.00
1753, 1119.00
1754, 1119.00
1755, 1120.00
1756, 1120.00
1757, 1118.00
1758, 1121.00
1759, 1118.00
1760, 1120.00
1761, 1119.00
1762, 1120.00
1763, 1120.00
1764, 1120.00
1765, 1119.00
1766, 1120.00
1767, 1120.00
1768, 1118.00
1769, 1119.00
1770, 1118.00
1771, 1116.00
1772, 1117.00
1773, 1118.00
1774, 1118.00
1775, 1118.00
1776, 1116.00
1777, 1116.00
1778, 1117.00
1779, 1117.00
1780, 1115.00
1781, 1116.00
1782, 1116.00
1783, 1117.00
1784, 1116.00
1785, 1115.00
1786, 1116.00
1787, 1116.00
1788, 1115.00
1789, 1114.00
1790, 1114.00
1791, 1111.00
1792, 1114.00
1793, 1113.00
1794, 1113.00
1795, 1113.00
1796, 1113.00
1797, 1112.00
1798, 1114.00
1799, 1112.00
1800, 1112.00
1801, 1114.00
1802, 1113.00
1803, 1113.00
1804, 1110.00
1805, 1113.00
1806, 1112.00
1807, 1111.00
1808, 1109.00
1809, 1110.00
1810, 1111.00
1811, 1108.00
1812, 1109.00
1813, 1109.00
1814, 1109.00
1815, 1109.00
1816, 1108.00
1817, 1107.00
1818, 1107.00
1819, 1108.00
1820, 1106.00
1821, 1107.00
1822, 1107.00
1823, 1106.00
1824, 1104.00
1825, 1105.00
1826, 1103.00
1827, 1104.00
1828, 1104.00
1829, 1104.00
1830, 1102.00
1831, 1099.00
1832, 1099.00
1833, 1100.00
1834, 1098.00
1835, 1098.00
1836, 1097.00
1837, 1096.00
1838, 1095.00
1839, 1094.00
1840, 1093.00
1841, 1093.00
1842, 1092.00
1843, 1090.00
1844, 1089.00
1845, 1088.00
1846, 1088.00
1847, 1084.00
1848, 1085.00
1849, 1084.00
1850, 1082.00
1851, 1082.00
1852, 1080.00
1853, 1079.00
1854, 1078.00
1855, 1078.00
1856, 1075.00
1857, 1073.00
1858, 1073.00
1859, 1073.00
1860, 1071.00
1861, 1072.00
1862, 1069.00
1863, 1070.00
1864, 1066.00
1865, 1065.00
1866, 1064.00
1867, 1066.00
1868, 1065.00
1869, 1064.00
1870, 1063.00
1871, 1060.00
1872, 1061.00
1873, 1062.00
1874, 1063.00
1875, 1061.00
1876, 1060.00
1877, 1059.00
1878, 1059.00
1879, 1058.00
1880, 1058.00
1881, 1057.00
1882, 1057.00
1883, 1053.00
1884, 1058.00
1885, 1056.00
1886, 1056.00
1887, 1055.00
1888, 1055.00
1889, 1056.00
1890, 1055.00
1891, 1055.00
1892, 1055.00
1893, 1053.00
1894, 1052.00
1895, 1053.00
1896, 1053.00
1897, 1053.00
1898, 1053.00
1899, 1051.00
1900, 1051.00
1901, 1053.00
1902, 1053.00
1903, 1053.00
1904, 1052.00
1905, 1052.00
1906, 1052.00
1907, 1050.00
1908, 1051.00
1909, 1052.00
1910, 1051.00
1911, 1050.00
1912, 1051.00
1913, 1051.00
1914, 1049.00
1915, 1052.00
1916, 1051.00
1917, 1049.00
1918, 1050.00
1919, 1051.00
1920, 1050.00
1921, 1051.00
1922, 1049.00
1923, 1050.00
1924, 1050.00
1925, 1049.00
1926, 1049.00
1927, 1050.00
1928, 1050.00
1929, 1050.00
1930, 1051.00
1931, 1048.00
1932, 1050.00
1933, 1050.00
1934, 1051.00
1935, 1050.00
1936, 1051.00
1937, 1050.00
1938, 1051.00
1939, 1050.00
1940, 1052.00
1941, 1052.00
1942, 1052.00
1943, 1051.00
1944, 1051.00
1945, 1052.00
1946, 1053.00
1947, 1052.00
1948, 1053.00
1949, 1052.00
1950, 1052.00
1951, 1052.00
1952, 1051.00
1953, 1053.00
1954, 1054.00
1955, 1054.00
1956, 1053.00
1957, 1054.00
1958, 1053.00
1959, 1056.00
1960, 1053.00
1961, 1054.00
1962, 1054.00
1963, 1055.00
1964, 1054.00
1965, 1056.00
1966, 1055.00
1967, 1055.00
1968, 1055.00
1969, 1057.00
1970, 1056.00
1971, 1056.00
1972, 1058.00
1973, 1057.00
1974, 1057.00
1975, 1058.00
1976, 1056.00
1977, 1060.00
1978, 1059.00
1979, 1059.00
1980, 1060.00
1981, 1061.00
1982, 1060.00
1983, 1060.00
1984, 1060.00
1985, 1060.00
1986, 1060.00
1987, 1061.00
1988, 1061.00
1989, 1061.00
1990, 1062.00
1991, 1063.00
1992, 1060.00
1993, 1065.00
1994, 1063.00
1995, 1063.00
1996, 1064.00
1997, 1063.00
1998, 1063.00
1999, 1066.00
2000, 1064.00
2001, 1064.00
2002, 1063.00
2003, 1067.00
2004, 1066.00
2005, 1064.00
2006, 1066.00
2007, 1066.00
2008, 1067.00
2009, 1066.00
2010, 1067.00
2011, 1068.00
2012, 1070.00
2013, 1068.00
2014, 1067.00
2015, 1069.00
2016, 1069.00
2017, 1069.00
2018, 1070.00
2019, 1069.00
2020, 1071.00
2021, 1070.00
2022, 1072.00
2023, 1071.00
2024, 1072.00
2025, 1071.00
2026, 1073.00
2027, 1074.00
2028, 1073.00
2029, 1073.00
2030, 1073.00
2031, 1074.00
2032, 1073.00
2033, 1075.00
2034, 1074.00
2035, 1075.00
2036, 1075.00
2037, 1074.00
2038, 1077.00
2039, 1077.00
2040, 1077.00
2041, 1077.00
2042, 1077.00
2043, 1078.00
2044, 1078.00
2045, 1078.00
2046, 1079.00
2047, 1081.00
2048, 1082.00
2049, 1080.00
2050, 1079.00
2051, 1082.00
2052, 1081.00
2053, 1081.00
2054, 1083.00
2055, 1083.00
2056, 1083.00
2057, 1084.00
2058, 1084.00
2059, 1084.00
2060, 1087.00
2061, 1085.00
2062, 1086.00
2063, 1086.00
2064, 1085.00
2065, 1086.00
2066, 1088.00
2067, 1088.00
2068, 1089.00
2069, 1091.00
2070, 1088.00
2071, 1089.00
2072, 1090.00
2073, 1089.00
2074, 1092.00
2075, 1092.00
2076, 1092.00
2077, 1093.00
2078, 1094.00
2079, 1093.00
2080, 1094.00
2081, 1093.00
2082, 1094.00
2083, 1094.00
2084, 1095.00
2085, 1096.00
2086, 1097.00
2087, 1098.00
2088, 1097.00
2089, 1097.00
2090, 1098.00
2091, 1098.00
2092, 1100.00
2093, 1098.00
2094, 1098.00
2095, 1100.00
2096, 1099.00
2097, 1101.00
2098, 1100.00
2099, 1101.00
2100, 1100.00
2101, 1100.00
2102, 1102.00
2103, 1101.00
2104, 1101.00
2105, 1103.00
2106, 1104.00
2107, 1102.00
2108, 1102.00
2109, 1104.00
2110, 1103.00
2111, 1104.00
2112, 1102.00
2113, 1102.00
2114, 1103.00
2115, 1104.00
2116, 1106.00
2117, 1105.00
2118, 1105.00
2119, 1106.00
2120, 1106.00
2121, 1104.00
2122, 1104.00
2123, 1105.00
2124, 1106.00
2125, 1105.00
2126, 1105.00
2127, 1105.00
2128, 1109.00
2129, 1107.00
2130, 1106.00
2131, 1106.00
2132, 1107.00
2133, 1107.00
2134, 1107.00
2135, 1108.00
2136, 1109.00
2137, 1107.00
2138, 1107.00
2139, 1109.00
2140, 1107.00
2141, 1109.00
2142, 1109.00
2143, 1111.00
2144, 1108.00
2145, 1108.00
2146, 1108.00
2147, 1109.00
2148, 1109.00
2149, 1109.00
2150, 1109.00
