FW version: 24
Log Version: 3.0.3

General Info:
       Command/Macro Performed,            Timestamp,             Device ID, COM Port, UART/I2C, Test Name, Host Major, Host Minor, Host Revision, Host Git Commit
            Single_measurement,  2023_06_28_11_47_46,       Insight2_F4_xxx,    USB-C,      USB,          ,          0,          1,             1,      4031237645

Show Spectrometer Status:
l0_version, f4_version, battery_perc, battery_mVolt, accelerometer_temp, accelerometer_x, accelerometer_y, accelerometer_z, compass_temp, compass_x, compass_y, compass_z, lamp_0, lamp_1, gain_0, gain_1
        17,         24,           46,          1903,               6576,           65200,             868,           18636,            0,     65471,     65525,     18684,   3276,   3276,      0,      0

Temperature Statistic Info:
NTC AVG [°C], NTC2 AVG [°C]
      40.054,        39.792

Statistic Info:
M1:  num,      min,      max,   median,      AVG,      STD,M2:  num,      min,      max,   median,      AVG,      STD
     301,   616.00,   706.00,   635.00,   645.68,  27.8151,     401,   802.00,   857.00,   825.00,   825.97,  17.8784,

Measurements:
Wavelength, Data Amplitude
1350, 632.00
1351, 632.00
1352, 632.00
1353, 631.00
1354, 631.00
1355, 631.00
1356, 630.00
1357, 630.00
1358, 630.00
1359, 629.00
1360, 629.00
1361, 629.00
1362, 629.00
1363, 629.00
1364, 627.00
1365, 627.00
1366, 626.00
1367, 626.00
1368, 626.00
1369, 625.00
1370, 625.00
1371, 625.00
1372, 624.00
1373, 623.00
1374, 623.00
1375, 623.00
1376, 623.00
1377, 622.00
1378, 622.00
1379, 621.00
1380, 621.00
1381, 621.00
1382, 620.00
1383, 620.00
1384, 619.00
1385, 620.00
1386, 620.00
1387, 620.00
1388, 619.00
1389, 619.00
1390, 619.00
1391, 619.00
1392, 618.00
1393, 618.00
1394, 618.00
1395, 617.00
1396, 618.00
1397, 618.00
1398, 617.00
1399, 618.00
1400, 617.00
1401, 617.00
1402, 617.00
1403, 617.00
1404, 617.00
1405, 617.00
1406, 617.00
1407, 617.00
1408, 617.00
1409, 617.00
1410, 616.00
1411, 616.00
1412, 616.00
1413, 617.00
1414, 616.00
1415, 617.00
1416, 616.00
1417, 617.00
1418, 616.00
1419, 616.00
1420, 617.00
1421, 616.00
1422, 616.00
1423, 616.00
1424, 617.00
1425, 616.00
1426, 616.00
1427, 617.00
1428, 617.00
1429, 617.00
1430, 617.00
1431, 617.00
1432, 617.00
1433, 617.00
1434, 617.00
1435, 617.00
1436, 618.00
1437, 617.00
1438, 618.00
1439, 618.00
1440, 618.00
1441, 618.00
1442, 618.00
1443, 619.00
1444, 619.00
1445, 619.00
1446, 619.00
1447, 619.00
1448, 619.00
1449, 620.00
1450, 619.00
1451, 620.00
1452, 620.00
1453, 621.00
1454, 620.00
1455, 620.00
1456, 621.00
1457, 621.00
1458, 621.00
1459, 622.00
1460, 622.00
1461, 622.00
1462, 622.00
1463, 622.00
1464, 623.00
1465, 623.00
1466, 623.00
1467, 624.00
1468, 624.00
1469, 624.00
1470, 624.00
1471, 625.00
1472, 624.00
1473, 625.00
1474, 626.00
1475, 626.00
1476, 626.00
1477, 627.00
1478, 627.00
1479, 627.00
1480, 628.00
1481, 628.00
1482, 629.00
1483, 629.00
1484, 629.00
1485, 629.00
1486, 630.00
1487, 630.00
1488, 631.00
1489, 631.00
1490, 632.00
1491, 631.00
1492, 632.00
1493, 632.00
1494, 633.00
1495, 633.00
1496, 633.00
1497, 634.00
1498, 634.00
1499, 634.00
1500, 635.00
1501, 635.00
1502, 636.00
1503, 636.00
1504, 637.00
1505, 637.00
1506, 637.00
1507, 638.00
1508, 637.00
1509, 638.00
1510, 639.00
1511, 639.00
1512, 640.00
1513, 640.00
1514, 640.00
1515, 641.00
1516, 640.00
1517, 641.00
1518, 642.00
1519, 642.00
1520, 643.00
1521, 643.00
1522, 644.00
1523, 644.00
1524, 644.00
1525, 645.00
1526, 646.00
1527, 646.00
1528, 647.00
1529, 646.00
1530, 647.00
1531, 648.00
1532, 648.00
1533, 648.00
1534, 648.00
1535, 649.00
1536, 650.00
1537, 650.00
1538, 651.00
1539, 651.00
1540, 652.00
1541, 652.00
1542, 653.00
1543, 653.00
1544, 653.00
1545, 654.00
1546, 654.00
1547, 655.00
1548, 655.00
1549, 656.00
1550, 656.00
1551, 656.00
1552, 657.00
1553, 658.00
1554, 658.00
1555, 658.00
1556, 658.00
1557, 659.00
1558, 661.00
1559, 660.00
1560, 661.00
1561, 661.00
1562, 662.00
1563, 662.00
1564, 663.00
1565, 663.00
1566, 664.00
1567, 665.00
1568, 665.00
1569, 666.00
1570, 666.00
1571, 666.00
1572, 667.00
1573, 667.00
1574, 668.00
1575, 669.00
1576, 669.00
1577, 669.00
1578, 670.00
1579, 671.00
1580, 671.00
1581, 672.00
1582, 672.00
1583, 672.00
1584, 673.00
1585, 673.00
1586, 674.00
1587, 673.00
1588, 674.00
1589, 675.00
1590, 675.00
1591, 676.00
1592, 677.00
1593, 676.00
1594, 677.00
1595, 677.00
1596, 677.00
1597, 679.00
1598, 679.00
1599, 679.00
1600, 680.00
1601, 681.00
1602, 681.00
1603, 681.00
1604, 682.00
1605, 682.00
1606, 683.00
1607, 683.00
1608, 684.00
1609, 684.00
1610, 685.00
1611, 686.00
1612, 686.00
1613, 686.00
1614, 687.00
1615, 688.00
1616, 689.00
1617, 689.00
1618, 689.00
1619, 690.00
1620, 691.00
1621, 691.00
1622, 692.00
1623, 692.00
1624, 693.00
1625, 693.00
1626, 693.00
1627, 694.00
1628, 695.00
1629, 696.00
1630, 696.00
1631, 697.00
1632, 698.00
1633, 697.00
1634, 698.00
1635, 698.00
1636, 699.00
1637, 699.00
1638, 700.00
1639, 701.00
1640, 701.00
1641, 701.00
1642, 702.00
1643, 702.00
1644, 703.00
1645, 703.00
1646, 703.00
1647, 704.00
1648, 705.00
1649, 706.00
1650, 706.00

1750, 856.00
1751, 856.00
1752, 857.00
1753, 856.00
1754, 857.00
1755, 856.00
1756, 856.00
1757, 856.00
1758, 855.00
1759, 856.00
1760, 856.00
1761, 856.00
1762, 856.00
1763, 857.00
1764, 855.00
1765, 856.00
1766, 856.00
1767, 856.00
1768, 855.00
1769, 855.00
1770, 855.00
1771, 855.00
1772, 855.00
1773, 855.00
1774, 854.00
1775, 854.00
1776, 854.00
1777, 855.00
1778, 854.00
1779, 854.00
1780, 854.00
1781, 854.00
1782, 853.00
1783, 853.00
1784, 853.00
1785, 853.00
1786, 852.00
1787, 852.00
1788, 851.00
1789, 852.00
1790, 851.00
1791, 852.00
1792, 851.00
1793, 851.00
1794, 851.00
1795, 850.00
1796, 850.00
1797, 850.00
1798, 850.00
1799, 850.00
1800, 850.00
1801, 850.00
1802, 849.00
1803, 850.00
1804, 849.00
1805, 849.00
1806, 849.00
1807, 849.00
1808, 849.00
1809, 848.00
1810, 848.00
1811, 848.00
1812, 847.00
1813, 847.00
1814, 847.00
1815, 847.00
1816, 847.00
1817, 846.00
1818, 847.00
1819, 847.00
1820, 846.00
1821, 845.00
1822, 845.00
1823, 845.00
1824, 844.00
1825, 844.00
1826, 842.00
1827, 842.00
1828, 843.00
1829, 842.00
1830, 841.00
1831, 841.00
1832, 841.00
1833, 840.00
1834, 838.00
1835, 839.00
1836, 837.00
1837, 837.00
1838, 836.00
1839, 836.00
1840, 835.00
1841, 834.00
1842, 834.00
1843, 832.00
1844, 832.00
1845, 831.00
1846, 830.00
1847, 829.00
1848, 828.00
1849, 827.00
1850, 827.00
1851, 825.00
1852, 825.00
1853, 824.00
1854, 823.00
1855, 822.00
1856, 821.00
1857, 821.00
1858, 820.00
1859, 819.00
1860, 818.00
1861, 817.00
1862, 818.00
1863, 817.00
1864, 816.00
1865, 814.00
1866, 814.00
1867, 813.00
1868, 813.00
1869, 813.00
1870, 812.00
1871, 811.00
1872, 811.00
1873, 811.00
1874, 810.00
1875, 810.00
1876, 809.00
1877, 809.00
1878, 808.00
1879, 808.00
1880, 808.00
1881, 808.00
1882, 808.00
1883, 807.00
1884, 807.00
1885, 807.00
1886, 806.00
1887, 806.00
1888, 806.00
1889, 806.00
1890, 806.00
1891, 806.00
1892, 805.00
1893, 805.00
1894, 805.00
1895, 804.00
1896, 804.00
1897, 804.00
1898, 805.00
1899, 804.00
1900, 804.00
1901, 804.00
1902, 803.00
1903, 804.00
1904, 804.00
1905, 804.00
1906, 804.00
1907, 804.00
1908, 803.00
1909, 804.00
1910, 803.00
1911, 803.00
1912, 803.00
1913, 803.00
1914, 802.00
1915, 803.00
1916, 803.00
1917, 803.00
1918, 803.00
1919, 803.00
1920, 802.00
1921, 803.00
1922, 802.00
1923, 802.00
1924, 802.00
1925, 802.00
1926, 802.00
1927, 802.00
1928, 803.00
1929, 802.00
1930, 802.00
1931, 802.00
1932, 802.00
1933, 802.00
1934, 802.00
1935, 803.00
1936, 803.00
1937, 803.00
1938, 803.00
1939, 803.00
1940, 803.00
1941, 803.00
1942, 803.00
1943, 803.00
1944, 804.00
1945, 804.00
1946, 803.00
1947, 803.00
1948, 804.00
1949, 803.00
1950, 804.00
1951, 803.00
1952, 803.00
1953, 804.00
1954, 804.00
1955, 804.00
1956, 804.00
1957, 804.00
1958, 805.00
1959, 805.00
1960, 804.00
1961, 805.00
1962, 805.00
1963, 805.00
1964, 806.00
1965, 806.00
1966, 805.00
1967, 806.00
1968, 806.00
1969, 807.00
1970, 806.00
1971, 807.00
1972, 807.00
1973, 807.00
1974, 808.00
1975, 807.00
1976, 807.00
1977, 808.00
1978, 809.00
1979, 809.00
1980, 808.00
1981, 809.00
1982, 809.00
1983, 809.00
1984, 809.00
1985, 809.00
1986, 810.00
1987, 810.00
1988, 810.00
1989, 811.00
1990, 810.00
1991, 810.00
1992, 811.00
1993, 811.00
1994, 811.00
1995, 811.00
1996, 812.00
1997, 812.00
1998, 811.00
1999, 812.00
2000, 813.00
2001, 813.00
2002, 812.00
2003, 813.00
2004, 813.00
2005, 814.00
2006, 813.00
2007, 814.00
2008, 814.00
2009, 815.00
2010, 814.00
2011, 814.00
2012, 815.00
2013, 815.00
2014, 815.00
2015, 815.00
2016, 816.00
2017, 816.00
2018, 816.00
2019, 816.00
2020, 816.00
2021, 817.00
2022, 817.00
2023, 817.00
2024, 818.00
2025, 817.00
2026, 818.00
2027, 818.00
2028, 818.00
2029, 818.00
2030, 819.00
2031, 819.00
2032, 819.00
2033, 819.00
2034, 819.00
2035, 820.00
2036, 820.00
2037, 820.00
2038, 820.00
2039, 821.00
2040, 821.00
2041, 822.00
2042, 821.00
2043, 822.00
2044, 822.00
2045, 823.00
2046, 822.00
2047, 823.00
2048, 823.00
2049, 824.00
2050, 824.00
2051, 823.00
2052, 824.00
2053, 825.00
2054, 825.00
2055, 825.00
2056, 826.00
2057, 826.00
2058, 826.00
2059, 826.00
2060, 827.00
2061, 827.00
2062, 827.00
2063, 827.00
2064, 828.00
2065, 828.00
2066, 829.00
2067, 829.00
2068, 829.00
2069, 830.00
2070, 830.00
2071, 830.00
2072, 830.00
2073, 831.00
2074, 831.00
2075, 831.00
2076, 831.00
2077, 832.00
2078, 832.00
2079, 833.00
2080, 833.00
2081, 833.00
2082, 834.00
2083, 834.00
2084, 834.00
2085, 834.00
2086, 834.00
2087, 834.00
2088, 834.00
2089, 835.00
2090, 835.00
2091, 836.00
2092, 835.00
2093, 835.00
2094, 837.00
2095, 836.00
2096, 837.00
2097, 837.00
2098, 837.00
2099, 836.00
2100, 837.00
2101, 837.00
2102, 838.00
2103, 837.00
2104, 839.00
2105, 838.00
2106, 839.00
2107, 839.00
2108, 839.00
2109, 839.00
2110, 839.00
2111, 839.00
2112, 839.00
2113, 839.00
2114, 839.00
2115, 840.00
2116, 840.00
2117, 840.00
2118, 840.00
2119, 840.00
2120, 840.00
2121, 840.00
2122, 840.00
2123, 841.00
2124, 840.00
2125, 841.00
2126, 841.00
2127, 841.00
2128, 841.00
2129, 842.00
2130, 841.00
2131, 842.00
2132, 842.00
2133, 842.00
2134, 842.00
2135, 841.00
2136, 842.00
2137, 843.00
2138, 843.00
2139, 843.00
2140, 843.00
2141, 843.00
2142, 843.00
2143, 843.00
2144, 843.00
2145, 843.00
2146, 843.00
2147, 844.00
2148, 844.00
2149, 843.00
2150, 843.00
