FW version: 24
Log Version: 3.0.3

General Info:
       Command/Macro Performed,            Timestamp,             Device ID, COM Port, UART/I2C, Test Name, Host Major, Host Minor, Host Revision, Host Git Commit
            Single_measurement,  2023_06_28_11_48_59,       Insight2_F4_xxx,    USB-C,      USB,          ,          0,          1,             1,      4031237645

Show Spectrometer Status:
l0_version, f4_version, battery_perc, battery_mVolt, accelerometer_temp, accelerometer_x, accelerometer_y, accelerometer_z, compass_temp, compass_x, compass_y, compass_z, lamp_0, lamp_1, gain_0, gain_1
        17,         24,           46,          1899,               6576,           65156,            1148,           18736,            0,     65421,     65532,     18750,   3276,   3276,      1,      1

Temperature Statistic Info:
NTC AVG [°C], NTC2 AVG [°C]
      40.587,        40.233

Statistic Info:
M1:  num,      min,      max,   median,      AVG,      STD,M2:  num,      min,      max,   median,      AVG,      STD
     301,  1770.00,  2029.00,  1826.00,  1856.47,  80.3040,     401,  2305.00,  2462.00,  2370.00,  2374.15,  50.7720,

Measurements:
Wavelength, Data Amplitude
1350, 1817.00
1351, 1816.00
1352, 1814.00
1353, 1814.00
1354, 1813.00
1355, 1813.00
1356, 1813.00
1357, 1811.00
1358, 1811.00
1359, 1808.00
1360, 1809.00
1361, 1808.00
1362, 1806.00
1363, 1805.00
1364, 1803.00
1365, 1802.00
1366, 1801.00
1367, 1800.00
1368, 1797.00
1369, 1797.00
1370, 1796.00
1371, 1795.00
1372, 1794.00
1373, 1793.00
1374, 1791.00
1375, 1790.00
1376, 1788.00
1377, 1787.00
1378, 1786.00
1379, 1787.00
1380, 1784.00
1381, 1784.00
1382, 1784.00
1383, 1782.00
1384, 1782.00
1385, 1781.00
1386, 1781.00
1387, 1779.00
1388, 1778.00
1389, 1779.00
1390, 1778.00
1391, 1778.00
1392, 1777.00
1393, 1777.00
1394, 1776.00
1395, 1775.00
1396, 1776.00
1397, 1776.00
1398, 1775.00
1399, 1775.00
1400, 1775.00
1401, 1775.00
1402, 1774.00
1403, 1773.00
1404, 1773.00
1405, 1774.00
1406, 1773.00
1407, 1773.00
1408, 1773.00
1409, 1772.00
1410, 1773.00
1411, 1773.00
1412, 1773.00
1413, 1772.00
1414, 1771.00
1415, 1772.00
1416, 1770.00
1417, 1772.00
1418, 1771.00
1419, 1771.00
1420, 1771.00
1421, 1772.00
1422, 1771.00
1423, 1772.00
1424, 1773.00
1425, 1772.00
1426, 1773.00
1427, 1773.00
1428, 1772.00
1429, 1773.00
1430, 1773.00
1431, 1773.00
1432, 1774.00
1433, 1773.00
1434, 1775.00
1435, 1776.00
1436, 1775.00
1437, 1776.00
1438, 1777.00
1439, 1776.00
1440, 1777.00
1441, 1779.00
1442, 1778.00
1443, 1778.00
1444, 1778.00
1445, 1778.00
1446, 1779.00
1447, 1779.00
1448, 1781.00
1449, 1781.00
1450, 1782.00
1451, 1782.00
1452, 1782.00
1453, 1783.00
1454, 1782.00
1455, 1783.00
1456, 1784.00
1457, 1786.00
1458, 1786.00
1459, 1787.00
1460, 1788.00
1461, 1788.00
1462, 1788.00
1463, 1789.00
1464, 1791.00
1465, 1790.00
1466, 1791.00
1467, 1792.00
1468, 1794.00
1469, 1794.00
1470, 1796.00
1471, 1796.00
1472, 1797.00
1473, 1798.00
1474, 1800.00
1475, 1800.00
1476, 1801.00
1477, 1801.00
1478, 1802.00
1479, 1804.00
1480, 1806.00
1481, 1806.00
1482, 1806.00
1483, 1807.00
1484, 1809.00
1485, 1810.00
1486, 1811.00
1487, 1812.00
1488, 1813.00
1489, 1815.00
1490, 1815.00
1491, 1815.00
1492, 1817.00
1493, 1818.00
1494, 1819.00
1495, 1819.00
1496, 1822.00
1497, 1823.00
1498, 1823.00
1499, 1824.00
1500, 1826.00
1501, 1827.00
1502, 1828.00
1503, 1829.00
1504, 1829.00
1505, 1830.00
1506, 1831.00
1507, 1833.00
1508, 1835.00
1509, 1836.00
1510, 1837.00
1511, 1838.00
1512, 1839.00
1513, 1840.00
1514, 1840.00
1515, 1841.00
1516, 1843.00
1517, 1845.00
1518, 1845.00
1519, 1846.00
1520, 1848.00
1521, 1850.00
1522, 1851.00
1523, 1853.00
1524, 1853.00
1525, 1854.00
1526, 1855.00
1527, 1857.00
1528, 1858.00
1529, 1860.00
1530, 1860.00
1531, 1861.00
1532, 1863.00
1533, 1865.00
1534, 1865.00
1535, 1867.00
1536, 1869.00
1537, 1870.00
1538, 1871.00
1539, 1872.00
1540, 1874.00
1541, 1875.00
1542, 1877.00
1543, 1878.00
1544, 1879.00
1545, 1881.00
1546, 1884.00
1547, 1885.00
1548, 1885.00
1549, 1886.00
1550, 1887.00
1551, 1889.00
1552, 1888.00
1553, 1890.00
1554, 1892.00
1555, 1893.00
1556, 1896.00
1557, 1895.00
1558, 1899.00
1559, 1900.00
1560, 1901.00
1561, 1903.00
1562, 1905.00
1563, 1905.00
1564, 1906.00
1565, 1908.00
1566, 1909.00
1567, 1911.00
1568, 1913.00
1569, 1915.00
1570, 1916.00
1571, 1917.00
1572, 1919.00
1573, 1919.00
1574, 1921.00
1575, 1923.00
1576, 1924.00
1577, 1926.00
1578, 1927.00
1579, 1928.00
1580, 1931.00
1581, 1931.00
1582, 1933.00
1583, 1934.00
1584, 1935.00
1585, 1936.00
1586, 1937.00
1587, 1937.00
1588, 1939.00
1589, 1941.00
1590, 1942.00
1591, 1944.00
1592, 1944.00
1593, 1947.00
1594, 1947.00
1595, 1949.00
1596, 1950.00
1597, 1951.00
1598, 1952.00
1599, 1954.00
1600, 1955.00
1601, 1957.00
1602, 1957.00
1603, 1959.00
1604, 1961.00
1605, 1962.00
1606, 1963.00
1607, 1965.00
1608, 1967.00
1609, 1967.00
1610, 1970.00
1611, 1971.00
1612, 1973.00
1613, 1974.00
1614, 1976.00
1615, 1979.00
1616, 1980.00
1617, 1980.00
1618, 1983.00
1619, 1984.00
1620, 1986.00
1621, 1988.00
1622, 1989.00
1623, 1990.00
1624, 1992.00
1625, 1994.00
1626, 1995.00
1627, 1997.00
1628, 1998.00
1629, 2000.00
1630, 2002.00
1631, 2002.00
1632, 2005.00
1633, 2005.00
1634, 2007.00
1635, 2009.00
1636, 2009.00
1637, 2011.00
1638, 2013.00
1639, 2015.00
1640, 2015.00
1641, 2017.00
1642, 2019.00
1643, 2019.00
1644, 2020.00
1645, 2022.00
1646, 2023.00
1647, 2026.00
1648, 2027.00
1649, 2027.00
1650, 2029.00

1750, 2460.00
1751, 2459.00
1752, 2460.00
1753, 2461.00
1754, 2460.00
1755, 2462.00
1756, 2461.00
1757, 2460.00
1758, 2459.00
1759, 2459.00
1760, 2460.00
1761, 2458.00
1762, 2457.00
1763, 2458.00
1764, 2459.00
1765, 2458.00
1766, 2458.00
1767, 2458.00
1768, 2458.00
1769, 2457.00
1770, 2458.00
1771, 2456.00
1772, 2456.00
1773, 2455.00
1774, 2454.00
1775, 2453.00
1776, 2455.00
1777, 2453.00
1778, 2452.00
1779, 2453.00
1780, 2454.00
1781, 2455.00
1782, 2451.00
1783, 2449.00
1784, 2452.00
1785, 2450.00
1786, 2448.00
1787, 2448.00
1788, 2446.00
1789, 2448.00
1790, 2445.00
1791, 2445.00
1792, 2445.00
1793, 2445.00
1794, 2444.00
1795, 2446.00
1796, 2445.00
1797, 2444.00
1798, 2443.00
1799, 2441.00
1800, 2438.00
1801, 2439.00
1802, 2442.00
1803, 2441.00
1804, 2440.00
1805, 2440.00
1806, 2441.00
1807, 2439.00
1808, 2437.00
1809, 2437.00
1810, 2436.00
1811, 2435.00
1812, 2434.00
1813, 2435.00
1814, 2436.00
1815, 2434.00
1816, 2433.00
1817, 2431.00
1818, 2431.00
1819, 2430.00
1820, 2431.00
1821, 2429.00
1822, 2428.00
1823, 2426.00
1824, 2424.00
1825, 2424.00
1826, 2422.00
1827, 2422.00
1828, 2421.00
1829, 2418.00
1830, 2417.00
1831, 2415.00
1832, 2415.00
1833, 2412.00
1834, 2413.00
1835, 2411.00
1836, 2409.00
1837, 2405.00
1838, 2402.00
1839, 2399.00
1840, 2398.00
1841, 2397.00
1842, 2393.00
1843, 2392.00
1844, 2389.00
1845, 2386.00
1846, 2385.00
1847, 2383.00
1848, 2380.00
1849, 2377.00
1850, 2375.00
1851, 2374.00
1852, 2368.00
1853, 2367.00
1854, 2364.00
1855, 2361.00
1856, 2359.00
1857, 2359.00
1858, 2355.00
1859, 2354.00
1860, 2352.00
1861, 2349.00
1862, 2348.00
1863, 2348.00
1864, 2345.00
1865, 2339.00
1866, 2340.00
1867, 2339.00
1868, 2339.00
1869, 2336.00
1870, 2334.00
1871, 2333.00
1872, 2333.00
1873, 2333.00
1874, 2330.00
1875, 2329.00
1876, 2327.00
1877, 2327.00
1878, 2326.00
1879, 2322.00
1880, 2321.00
1881, 2322.00
1882, 2324.00
1883, 2318.00
1884, 2317.00
1885, 2321.00
1886, 2319.00
1887, 2317.00
1888, 2319.00
1889, 2317.00
1890, 2312.00
1891, 2314.00
1892, 2315.00
1893, 2312.00
1894, 2314.00
1895, 2312.00
1896, 2313.00
1897, 2313.00
1898, 2311.00
1899, 2312.00
1900, 2309.00
1901, 2310.00
1902, 2311.00
1903, 2311.00
1904, 2309.00
1905, 2309.00
1906, 2310.00
1907, 2310.00
1908, 2309.00
1909, 2309.00
1910, 2310.00
1911, 2309.00
1912, 2308.00
1913, 2307.00
1914, 2307.00
1915, 2306.00
1916, 2306.00
1917, 2308.00
1918, 2307.00
1919, 2309.00
1920, 2305.00
1921, 2307.00
1922, 2307.00
1923, 2306.00
1924, 2307.00
1925, 2305.00
1926, 2307.00
1927, 2306.00
1928, 2306.00
1929, 2306.00
1930, 2307.00
1931, 2307.00
1932, 2309.00
1933, 2309.00
1934, 2306.00
1935, 2308.00
1936, 2307.00
1937, 2307.00
1938, 2308.00
1939, 2307.00
1940, 2308.00
1941, 2308.00
1942, 2308.00
1943, 2310.00
1944, 2310.00
1945, 2309.00
1946, 2309.00
1947, 2310.00
1948, 2311.00
1949, 2313.00
1950, 2312.00
1951, 2311.00
1952, 2311.00
1953, 2312.00
1954, 2313.00
1955, 2312.00
1956, 2313.00
1957, 2315.00
1958, 2314.00
1959, 2315.00
1960, 2316.00
1961, 2313.00
1962, 2316.00
1963, 2315.00
1964, 2319.00
1965, 2316.00
1966, 2318.00
1967, 2318.00
1968, 2319.00
1969, 2319.00
1970, 2321.00
1971, 2319.00
1972, 2322.00
1973, 2319.00
1974, 2322.00
1975, 2321.00
1976, 2323.00
1977, 2323.00
1978, 2325.00
1979, 2324.00
1980, 2326.00
1981, 2327.00
1982, 2326.00
1983, 2327.00
1984, 2327.00
1985, 2327.00
1986, 2329.00
1987, 2328.00
1988, 2330.00
1989, 2329.00
1990, 2331.00
1991, 2330.00
1992, 2331.00
1993, 2332.00
1994, 2332.00
1995, 2333.00
1996, 2334.00
1997, 2334.00
1998, 2336.00
1999, 2335.00
2000, 2337.00
2001, 2336.00
2002, 2337.00
2003, 2336.00
2004, 2338.00
2005, 2339.00
2006, 2339.00
2007, 2341.00
2008, 2339.00
2009, 2342.00
2010, 2342.00
2011, 2343.00
2012, 2345.00
2013, 2343.00
2014, 2344.00
2015, 2345.00
2016, 2345.00
2017, 2345.00
2018, 2348.00
2019, 2347.00
2020, 2347.00
2021, 2347.00
2022, 2349.00
2023, 2350.00
2024, 2350.00
2025, 2350.00
2026, 2352.00
2027, 2350.00
2028, 2351.00
2029, 2353.00
2030, 2353.00
2031, 2354.00
2032, 2354.00
2033, 2354.00
2034, 2355.00
2035, 2355.00
2036, 2357.00
2037, 2358.00
2038, 2359.00
2039, 2357.00
2040, 2360.00
2041, 2362.00
2042, 2360.00
2043, 2361.00
2044, 2363.00
2045, 2364.00
2046, 2364.00
2047, 2365.00
2048, 2366.00
2049, 2368.00
2050, 2369.00
2051, 2369.00
2052, 2371.00
2053, 2370.00
2054, 2371.00
2055, 2372.00
2056, 2373.00
2057, 2373.00
2058, 2375.00
2059, 2376.00
2060, 2378.00
2061, 2377.00
2062, 2376.00
2063, 2381.00
2064, 2380.00
2065, 2381.00
2066, 2381.00
2067, 2384.00
2068, 2385.00
2069, 2385.00
2070, 2384.00
2071, 2386.00
2072, 2389.00
2073, 2387.00
2074, 2390.00
2075, 2390.00
2076, 2391.00
2077, 2391.00
2078, 2393.00
2079, 2394.00
2080, 2395.00
2081, 2395.00
2082, 2397.00
2083, 2396.00
2084, 2394.00
2085, 2397.00
2086, 2398.00
2087, 2399.00
2088, 2399.00
2089, 2398.00
2090, 2402.00
2091, 2401.00
2092, 2402.00
2093, 2401.00
2094, 2402.00
2095, 2405.00
2096, 2405.00
2097, 2403.00
2098, 2407.00
2099, 2405.00
2100, 2407.00
2101, 2408.00
2102, 2406.00
2103, 2408.00
2104, 2409.00
2105, 2411.00
2106, 2410.00
2107, 2411.00
2108, 2412.00
2109, 2411.00
2110, 2413.00
2111, 2411.00
2112, 2410.00
2113, 2413.00
2114, 2413.00
2115, 2413.00
2116, 2413.00
2117, 2414.00
2118, 2414.00
2119, 2415.00
2120, 2415.00
2121, 2413.00
2122, 2418.00
2123, 2416.00
2124, 2418.00
2125, 2415.00
2126, 2419.00
2127, 2416.00
2128, 2417.00
2129, 2419.00
2130, 2418.00
2131, 2420.00
2132, 2421.00
2133, 2421.00
2134, 2420.00
2135, 2420.00
2136, 2421.00
2137, 2421.00
2138, 2422.00
2139, 2419.00
2140, 2422.00
2141, 2422.00
2142, 2423.00
2143, 2425.00
2144, 2421.00
2145, 2425.00
2146, 2425.00
2147, 2423.00
2148, 2424.00
2149, 2425.00
2150, 2426.00
