FW version: 24
Log Version: 3.0.3

General Info:
       Command/Macro Performed,            Timestamp,             Device ID, COM Port, UART/I2C, Test Name, Host Major, Host Minor, Host Revision, Host Git Commit
            Single_measurement,  2023_06_27_11_15_20,       Insight2_F4_xxx,    USB-C,      USB,          ,          0,          1,             1,      4031237645

Show Spectrometer Status:
l0_version, f4_version, battery_perc, battery_mVolt, accelerometer_temp, accelerometer_x, accelerometer_y, accelerometer_z, compass_temp, compass_x, compass_y, compass_z, lamp_0, lamp_1, gain_0, gain_1
        17,         24,           95,          2076,               5488,           65308,           65408,           18472,            0,     65438,     65503,     65512,   2866,   2866,    1,    1

Temperature Statistic Info:
NTC AVG [°C], NTC2 AVG [°C]
      37.063,        36.750

Statistic Info:
M1:  num,      min,      max,   median,      AVG,      STD,M2:  num,      min,      max,   median,      AVG,      STD
     301,  1279.00,  1468.00,  1318.00,  1340.73,  58.3971,     401,  1760.00,  1872.00,  1808.00,  1810.03,  36.1801,

Measurements:
Wavelength, Data Amplitude
1350, 1311.00
1351, 1310.00
1352, 1310.00
1353, 1309.00
1354, 1309.00
1355, 1308.00
1356, 1307.00
1357, 1307.00
1358, 1307.00
1359, 1306.00
1360, 1305.00
1361, 1304.00
1362, 1304.00
1363, 1302.00
1364, 1302.00
1365, 1301.00
1366, 1301.00
1367, 1300.00
1368, 1298.00
1369, 1298.00
1370, 1297.00
1371, 1297.00
1372, 1294.00
1373, 1294.00
1374, 1293.00
1375, 1293.00
1376, 1292.00
1377, 1291.00
1378, 1291.00
1379, 1290.00
1380, 1288.00
1381, 1288.00
1382, 1289.00
1383, 1287.00
1384, 1287.00
1385, 1285.00
1386, 1286.00
1387, 1285.00
1388, 1285.00
1389, 1284.00
1390, 1284.00
1391, 1284.00
1392, 1283.00
1393, 1284.00
1394, 1283.00
1395, 1283.00
1396, 1282.00
1397, 1282.00
1398, 1281.00
1399, 1281.00
1400, 1280.00
1401, 1281.00
1402, 1281.00
1403, 1281.00
1404, 1280.00
1405, 1281.00
1406, 1281.00
1407, 1280.00
1408, 1280.00
1409, 1280.00
1410, 1280.00
1411, 1280.00
1412, 1280.00
1413, 1280.00
1414, 1280.00
1415, 1280.00
1416, 1280.00
1417, 1279.00
1418, 1280.00
1419, 1280.00
1420, 1280.00
1421, 1280.00
1422, 1279.00
1423, 1280.00
1424, 1280.00
1425, 1280.00
1426, 1280.00
1427, 1280.00
1428, 1279.00
1429, 1281.00
1430, 1281.00
1431, 1281.00
1432, 1281.00
1433, 1282.00
1434, 1282.00
1435, 1281.00
1436, 1282.00
1437, 1281.00
1438, 1282.00
1439, 1282.00
1440, 1282.00
1441, 1284.00
1442, 1283.00
1443, 1283.00
1444, 1285.00
1445, 1284.00
1446, 1285.00
1447, 1285.00
1448, 1286.00
1449, 1286.00
1450, 1286.00
1451, 1287.00
1452, 1287.00
1453, 1286.00
1454, 1288.00
1455, 1288.00
1456, 1289.00
1457, 1288.00
1458, 1290.00
1459, 1290.00
1460, 1291.00
1461, 1291.00
1462, 1292.00
1463, 1292.00
1464, 1292.00
1465, 1293.00
1466, 1293.00
1467, 1294.00
1468, 1295.00
1469, 1296.00
1470, 1296.00
1471, 1297.00
1472, 1297.00
1473, 1298.00
1474, 1299.00
1475, 1299.00
1476, 1299.00
1477, 1301.00
1478, 1301.00
1479, 1302.00
1480, 1302.00
1481, 1303.00
1482, 1305.00
1483, 1305.00
1484, 1306.00
1485, 1306.00
1486, 1308.00
1487, 1308.00
1488, 1309.00
1489, 1310.00
1490, 1310.00
1491, 1311.00
1492, 1311.00
1493, 1313.00
1494, 1314.00
1495, 1315.00
1496, 1315.00
1497, 1315.00
1498, 1318.00
1499, 1317.00
1500, 1318.00
1501, 1319.00
1502, 1319.00
1503, 1320.00
1504, 1321.00
1505, 1322.00
1506, 1324.00
1507, 1324.00
1508, 1325.00
1509, 1326.00
1510, 1326.00
1511, 1326.00
1512, 1327.00
1513, 1329.00
1514, 1329.00
1515, 1330.00
1516, 1332.00
1517, 1332.00
1518, 1334.00
1519, 1334.00
1520, 1335.00
1521, 1336.00
1522, 1337.00
1523, 1338.00
1524, 1338.00
1525, 1340.00
1526, 1341.00
1527, 1342.00
1528, 1342.00
1529, 1343.00
1530, 1345.00
1531, 1345.00
1532, 1347.00
1533, 1347.00
1534, 1348.00
1535, 1349.00
1536, 1350.00
1537, 1351.00
1538, 1352.00
1539, 1352.00
1540, 1354.00
1541, 1354.00
1542, 1355.00
1543, 1356.00
1544, 1357.00
1545, 1358.00
1546, 1359.00
1547, 1360.00
1548, 1361.00
1549, 1361.00
1550, 1363.00
1551, 1364.00
1552, 1364.00
1553, 1365.00
1554, 1366.00
1555, 1367.00
1556, 1368.00
1557, 1369.00
1558, 1370.00
1559, 1372.00
1560, 1373.00
1561, 1373.00
1562, 1374.00
1563, 1375.00
1564, 1377.00
1565, 1378.00
1566, 1380.00
1567, 1379.00
1568, 1382.00
1569, 1382.00
1570, 1383.00
1571, 1384.00
1572, 1384.00
1573, 1386.00
1574, 1388.00
1575, 1388.00
1576, 1389.00
1577, 1389.00
1578, 1391.00
1579, 1391.00
1580, 1393.00
1581, 1394.00
1582, 1395.00
1583, 1395.00
1584, 1397.00
1585, 1399.00
1586, 1399.00
1587, 1400.00
1588, 1400.00
1589, 1402.00
1590, 1402.00
1591, 1403.00
1592, 1404.00
1593, 1405.00
1594, 1406.00
1595, 1407.00
1596, 1409.00
1597, 1409.00
1598, 1410.00
1599, 1411.00
1600, 1412.00
1601, 1412.00
1602, 1414.00
1603, 1415.00
1604, 1415.00
1605, 1417.00
1606, 1417.00
1607, 1419.00
1608, 1420.00
1609, 1422.00
1610, 1422.00
1611, 1424.00
1612, 1425.00
1613, 1425.00
1614, 1428.00
1615, 1428.00
1616, 1430.00
1617, 1431.00
1618, 1433.00
1619, 1435.00
1620, 1435.00
1621, 1436.00
1622, 1437.00
1623, 1439.00
1624, 1440.00
1625, 1441.00
1626, 1442.00
1627, 1443.00
1628, 1444.00
1629, 1445.00
1630, 1447.00
1631, 1447.00
1632, 1450.00
1633, 1451.00
1634, 1451.00
1635, 1453.00
1636, 1453.00
1637, 1454.00
1638, 1456.00
1639, 1455.00
1640, 1457.00
1641, 1458.00
1642, 1459.00
1643, 1461.00
1644, 1462.00
1645, 1463.00
1646, 1465.00
1647, 1465.00
1648, 1466.00
1649, 1467.00
1650, 1468.00

1750, 1871.00
1751, 1871.00
1752, 1871.00
1753, 1870.00
1754, 1869.00
1755, 1870.00
1756, 1871.00
1757, 1871.00
1758, 1869.00
1759, 1871.00
1760, 1872.00
1761, 1869.00
1762, 1868.00
1763, 1870.00
1764, 1869.00
1765, 1869.00
1766, 1869.00
1767, 1870.00
1768, 1869.00
1769, 1869.00
1770, 1870.00
1771, 1869.00
1772, 1868.00
1773, 1869.00
1774, 1867.00
1775, 1867.00
1776, 1868.00
1777, 1867.00
1778, 1867.00
1779, 1868.00
1780, 1866.00
1781, 1865.00
1782, 1865.00
1783, 1866.00
1784, 1864.00
1785, 1863.00
1786, 1862.00
1787, 1863.00
1788, 1863.00
1789, 1863.00
1790, 1862.00
1791, 1862.00
1792, 1861.00
1793, 1861.00
1794, 1862.00
1795, 1861.00
1796, 1860.00
1797, 1859.00
1798, 1859.00
1799, 1858.00
1800, 1859.00
1801, 1858.00
1802, 1859.00
1803, 1858.00
1804, 1857.00
1805, 1857.00
1806, 1859.00
1807, 1857.00
1808, 1856.00
1809, 1855.00
1810, 1855.00
1811, 1855.00
1812, 1853.00
1813, 1853.00
1814, 1855.00
1815, 1852.00
1816, 1852.00
1817, 1852.00
1818, 1851.00
1819, 1850.00
1820, 1849.00
1821, 1847.00
1822, 1850.00
1823, 1849.00
1824, 1848.00
1825, 1847.00
1826, 1845.00
1827, 1845.00
1828, 1845.00
1829, 1842.00
1830, 1842.00
1831, 1840.00
1832, 1840.00
1833, 1840.00
1834, 1836.00
1835, 1835.00
1836, 1837.00
1837, 1834.00
1838, 1833.00
1839, 1831.00
1840, 1829.00
1841, 1827.00
1842, 1826.00
1843, 1825.00
1844, 1821.00
1845, 1822.00
1846, 1819.00
1847, 1818.00
1848, 1816.00
1849, 1813.00
1850, 1814.00
1851, 1810.00
1852, 1809.00
1853, 1808.00
1854, 1805.00
1855, 1804.00
1856, 1802.00
1857, 1801.00
1858, 1799.00
1859, 1796.00
1860, 1796.00
1861, 1794.00
1862, 1792.00
1863, 1790.00
1864, 1790.00
1865, 1789.00
1866, 1788.00
1867, 1785.00
1868, 1785.00
1869, 1783.00
1870, 1782.00
1871, 1782.00
1872, 1780.00
1873, 1779.00
1874, 1781.00
1875, 1779.00
1876, 1777.00
1877, 1775.00
1878, 1776.00
1879, 1775.00
1880, 1773.00
1881, 1773.00
1882, 1773.00
1883, 1771.00
1884, 1772.00
1885, 1771.00
1886, 1770.00
1887, 1770.00
1888, 1771.00
1889, 1771.00
1890, 1769.00
1891, 1767.00
1892, 1768.00
1893, 1769.00
1894, 1768.00
1895, 1766.00
1896, 1769.00
1897, 1767.00
1898, 1768.00
1899, 1767.00
1900, 1766.00
1901, 1766.00
1902, 1765.00
1903, 1765.00
1904, 1766.00
1905, 1764.00
1906, 1764.00
1907, 1765.00
1908, 1765.00
1909, 1763.00
1910, 1763.00
1911, 1763.00
1912, 1763.00
1913, 1763.00
1914, 1763.00
1915, 1764.00
1916, 1764.00
1917, 1762.00
1918, 1760.00
1919, 1763.00
1920, 1764.00
1921, 1762.00
1922, 1763.00
1923, 1762.00
1924, 1762.00
1925, 1762.00
1926, 1762.00
1927, 1763.00
1928, 1762.00
1929, 1762.00
1930, 1763.00
1931, 1763.00
1932, 1761.00
1933, 1762.00
1934, 1764.00
1935, 1763.00
1936, 1762.00
1937, 1763.00
1938, 1764.00
1939, 1763.00
1940, 1765.00
1941, 1763.00
1942, 1762.00
1943, 1764.00
1944, 1763.00
1945, 1763.00
1946, 1765.00
1947, 1765.00
1948, 1764.00
1949, 1765.00
1950, 1766.00
1951, 1766.00
1952, 1764.00
1953, 1767.00
1954, 1766.00
1955, 1768.00
1956, 1765.00
1957, 1766.00
1958, 1766.00
1959, 1767.00
1960, 1767.00
1961, 1768.00
1962, 1769.00
1963, 1769.00
1964, 1769.00
1965, 1768.00
1966, 1768.00
1967, 1771.00
1968, 1770.00
1969, 1771.00
1970, 1772.00
1971, 1771.00
1972, 1772.00
1973, 1770.00
1974, 1771.00
1975, 1772.00
1976, 1773.00
1977, 1773.00
1978, 1772.00
1979, 1774.00
1980, 1773.00
1981, 1774.00
1982, 1775.00
1983, 1775.00
1984, 1775.00
1985, 1776.00
1986, 1777.00
1987, 1775.00
1988, 1777.00
1989, 1779.00
1990, 1777.00
1991, 1778.00
1992, 1778.00
1993, 1780.00
1994, 1779.00
1995, 1780.00
1996, 1782.00
1997, 1783.00
1998, 1783.00
1999, 1780.00
2000, 1784.00
2001, 1783.00
2002, 1782.00
2003, 1785.00
2004, 1783.00
2005, 1783.00
2006, 1787.00
2007, 1785.00
2008, 1785.00
2009, 1785.00
2010, 1787.00
2011, 1786.00
2012, 1787.00
2013, 1787.00
2014, 1787.00
2015, 1788.00
2016, 1788.00
2017, 1789.00
2018, 1787.00
2019, 1790.00
2020, 1789.00
2021, 1791.00
2022, 1790.00
2023, 1791.00
2024, 1792.00
2025, 1791.00
2026, 1791.00
2027, 1793.00
2028, 1794.00
2029, 1794.00
2030, 1795.00
2031, 1794.00
2032, 1795.00
2033, 1796.00
2034, 1796.00
2035, 1798.00
2036, 1799.00
2037, 1798.00
2038, 1798.00
2039, 1798.00
2040, 1798.00
2041, 1801.00
2042, 1801.00
2043, 1800.00
2044, 1800.00
2045, 1803.00
2046, 1802.00
2047, 1803.00
2048, 1803.00
2049, 1804.00
2050, 1804.00
2051, 1805.00
2052, 1807.00
2053, 1806.00
2054, 1809.00
2055, 1808.00
2056, 1809.00
2057, 1809.00
2058, 1810.00
2059, 1810.00
2060, 1811.00
2061, 1812.00
2062, 1812.00
2063, 1814.00
2064, 1814.00
2065, 1815.00
2066, 1814.00
2067, 1815.00
2068, 1817.00
2069, 1818.00
2070, 1817.00
2071, 1818.00
2072, 1819.00
2073, 1819.00
2074, 1820.00
2075, 1821.00
2076, 1819.00
2077, 1822.00
2078, 1821.00
2079, 1823.00
2080, 1823.00
2081, 1823.00
2082, 1823.00
2083, 1824.00
2084, 1826.00
2085, 1826.00
2086, 1825.00
2087, 1827.00
2088, 1827.00
2089, 1827.00
2090, 1828.00
2091, 1829.00
2092, 1829.00
2093, 1830.00
2094, 1832.00
2095, 1833.00
2096, 1833.00
2097, 1832.00
2098, 1832.00
2099, 1831.00
2100, 1833.00
2101, 1833.00
2102, 1834.00
2103, 1835.00
2104, 1834.00
2105, 1833.00
2106, 1834.00
2107, 1836.00
2108, 1834.00
2109, 1836.00
2110, 1837.00
2111, 1836.00
2112, 1838.00
2113, 1837.00
2114, 1837.00
2115, 1837.00
2116, 1839.00
2117, 1837.00
2118, 1839.00
2119, 1839.00
2120, 1839.00
2121, 1840.00
2122, 1840.00
2123, 1839.00
2124, 1839.00
2125, 1840.00
2126, 1840.00
2127, 1843.00
2128, 1842.00
2129, 1841.00
2130, 1841.00
2131, 1841.00
2132, 1843.00
2133, 1843.00
2134, 1842.00
2135, 1842.00
2136, 1843.00
2137, 1844.00
2138, 1844.00
2139, 1843.00
2140, 1844.00
2141, 1844.00
2142, 1845.00
2143, 1845.00
2144, 1844.00
2145, 1845.00
2146, 1845.00
2147, 1844.00
2148, 1845.00
2149, 1845.00
2150, 1845.00
