FW version: 24
Log Version: 3.0.3

General Info:
       Command/Macro Performed,            Timestamp,             Device ID, COM Port, UART/I2C, Test Name, Host Major, Host Minor, Host Revision, Host Git Commit
            Single_measurement,  2023_06_27_11_15_13,       Insight2_F4_xxx,    USB-C,      USB,          ,          0,          1,             1,      4031237645

Show Spectrometer Status:
l0_version, f4_version, battery_perc, battery_mVolt, accelerometer_temp, accelerometer_x, accelerometer_y, accelerometer_z, compass_temp, compass_x, compass_y, compass_z, lamp_0, lamp_1, gain_0, gain_1
        17,         24,           95,          2077,               5504,           65420,             148,           18516,            0,     65439,     65503,     65494,   2457,   2457,    1,    1

Temperature Statistic Info:
NTC AVG [°C], NTC2 AVG [°C]
      37.004,        36.693

Statistic Info:
M1:  num,      min,      max,   median,      AVG,      STD,M2:  num,      min,      max,   median,      AVG,      STD
     301,   949.00,  1098.00,   980.00,   996.81,  45.4613,     401,  1362.00,  1448.00,  1399.00,  1400.67,  28.1324,

Measurements:
Wavelength, Data Amplitude
1350, 972.00
1351, 972.00
1352, 970.00
1353, 971.00
1354, 969.00
1355, 970.00
1356, 969.00
1357, 969.00
1358, 969.00
1359, 968.00
1360, 967.00
1361, 967.00
1362, 967.00
1363, 966.00
1364, 966.00
1365, 964.00
1366, 963.00
1367, 963.00
1368, 963.00
1369, 962.00
1370, 963.00
1371, 961.00
1372, 962.00
1373, 959.00
1374, 959.00
1375, 959.00
1376, 958.00
1377, 957.00
1378, 957.00
1379, 957.00
1380, 955.00
1381, 955.00
1382, 955.00
1383, 955.00
1384, 954.00
1385, 954.00
1386, 953.00
1387, 953.00
1388, 953.00
1389, 953.00
1390, 952.00
1391, 951.00
1392, 952.00
1393, 952.00
1394, 951.00
1395, 950.00
1396, 950.00
1397, 950.00
1398, 950.00
1399, 951.00
1400, 950.00
1401, 949.00
1402, 950.00
1403, 950.00
1404, 950.00
1405, 950.00
1406, 949.00
1407, 951.00
1408, 949.00
1409, 950.00
1410, 950.00
1411, 950.00
1412, 950.00
1413, 950.00
1414, 949.00
1415, 949.00
1416, 949.00
1417, 949.00
1418, 949.00
1419, 949.00
1420, 949.00
1421, 949.00
1422, 950.00
1423, 949.00
1424, 950.00
1425, 949.00
1426, 950.00
1427, 949.00
1428, 950.00
1429, 949.00
1430, 950.00
1431, 949.00
1432, 952.00
1433, 950.00
1434, 951.00
1435, 951.00
1436, 951.00
1437, 951.00
1438, 952.00
1439, 951.00
1440, 952.00
1441, 952.00
1442, 952.00
1443, 953.00
1444, 953.00
1445, 953.00
1446, 953.00
1447, 953.00
1448, 954.00
1449, 955.00
1450, 956.00
1451, 955.00
1452, 956.00
1453, 955.00
1454, 955.00
1455, 956.00
1456, 957.00
1457, 957.00
1458, 958.00
1459, 958.00
1460, 959.00
1461, 959.00
1462, 959.00
1463, 960.00
1464, 961.00
1465, 959.00
1466, 960.00
1467, 961.00
1468, 962.00
1469, 963.00
1470, 963.00
1471, 963.00
1472, 963.00
1473, 964.00
1474, 965.00
1475, 965.00
1476, 966.00
1477, 967.00
1478, 966.00
1479, 967.00
1480, 969.00
1481, 968.00
1482, 969.00
1483, 970.00
1484, 970.00
1485, 970.00
1486, 972.00
1487, 972.00
1488, 972.00
1489, 973.00
1490, 974.00
1491, 974.00
1492, 975.00
1493, 975.00
1494, 976.00
1495, 976.00
1496, 977.00
1497, 978.00
1498, 979.00
1499, 979.00
1500, 980.00
1501, 980.00
1502, 981.00
1503, 982.00
1504, 983.00
1505, 983.00
1506, 983.00
1507, 984.00
1508, 985.00
1509, 986.00
1510, 986.00
1511, 987.00
1512, 988.00
1513, 990.00
1514, 989.00
1515, 989.00
1516, 990.00
1517, 991.00
1518, 992.00
1519, 993.00
1520, 993.00
1521, 994.00
1522, 994.00
1523, 995.00
1524, 995.00
1525, 998.00
1526, 998.00
1527, 998.00
1528, 999.00
1529, 999.00
1530, 1001.00
1531, 1002.00
1532, 1001.00
1533, 1002.00
1534, 1003.00
1535, 1004.00
1536, 1005.00
1537, 1005.00
1538, 1006.00
1539, 1005.00
1540, 1007.00
1541, 1009.00
1542, 1009.00
1543, 1009.00
1544, 1009.00
1545, 1011.00
1546, 1012.00
1547, 1012.00
1548, 1013.00
1549, 1012.00
1550, 1014.00
1551, 1015.00
1552, 1015.00
1553, 1016.00
1554, 1017.00
1555, 1017.00
1556, 1018.00
1557, 1019.00
1558, 1020.00
1559, 1021.00
1560, 1021.00
1561, 1022.00
1562, 1024.00
1563, 1024.00
1564, 1025.00
1565, 1026.00
1566, 1027.00
1567, 1028.00
1568, 1028.00
1569, 1028.00
1570, 1029.00
1571, 1030.00
1572, 1031.00
1573, 1032.00
1574, 1033.00
1575, 1034.00
1576, 1034.00
1577, 1036.00
1578, 1036.00
1579, 1036.00
1580, 1037.00
1581, 1038.00
1582, 1039.00
1583, 1040.00
1584, 1041.00
1585, 1041.00
1586, 1041.00
1587, 1042.00
1588, 1043.00
1589, 1044.00
1590, 1045.00
1591, 1044.00
1592, 1046.00
1593, 1046.00
1594, 1047.00
1595, 1048.00
1596, 1049.00
1597, 1049.00
1598, 1050.00
1599, 1051.00
1600, 1052.00
1601, 1053.00
1602, 1054.00
1603, 1055.00
1604, 1056.00
1605, 1056.00
1606, 1057.00
1607, 1057.00
1608, 1058.00
1609, 1059.00
1610, 1060.00
1611, 1061.00
1612, 1063.00
1613, 1063.00
1614, 1063.00
1615, 1065.00
1616, 1066.00
1617, 1068.00
1618, 1068.00
1619, 1068.00
1620, 1071.00
1621, 1071.00
1622, 1072.00
1623, 1072.00
1624, 1073.00
1625, 1075.00
1626, 1076.00
1627, 1076.00
1628, 1077.00
1629, 1079.00
1630, 1079.00
1631, 1080.00
1632, 1082.00
1633, 1081.00
1634, 1082.00
1635, 1082.00
1636, 1085.00
1637, 1085.00
1638, 1087.00
1639, 1086.00
1640, 1088.00
1641, 1088.00
1642, 1089.00
1643, 1091.00
1644, 1091.00
1645, 1091.00
1646, 1093.00
1647, 1094.00
1648, 1095.00
1649, 1095.00
1650, 1098.00

1750, 1447.00
1751, 1447.00
1752, 1445.00
1753, 1446.00
1754, 1447.00
1755, 1445.00
1756, 1446.00
1757, 1445.00
1758, 1446.00
1759, 1448.00
1760, 1447.00
1761, 1446.00
1762, 1446.00
1763, 1447.00
1764, 1447.00
1765, 1445.00
1766, 1446.00
1767, 1446.00
1768, 1445.00
1769, 1445.00
1770, 1445.00
1771, 1446.00
1772, 1445.00
1773, 1445.00
1774, 1444.00
1775, 1444.00
1776, 1444.00
1777, 1444.00
1778, 1442.00
1779, 1444.00
1780, 1442.00
1781, 1442.00
1782, 1442.00
1783, 1443.00
1784, 1440.00
1785, 1442.00
1786, 1442.00
1787, 1441.00
1788, 1441.00
1789, 1441.00
1790, 1442.00
1791, 1439.00
1792, 1441.00
1793, 1440.00
1794, 1439.00
1795, 1440.00
1796, 1439.00
1797, 1439.00
1798, 1439.00
1799, 1439.00
1800, 1438.00
1801, 1437.00
1802, 1436.00
1803, 1437.00
1804, 1439.00
1805, 1437.00
1806, 1435.00
1807, 1436.00
1808, 1436.00
1809, 1436.00
1810, 1434.00
1811, 1435.00
1812, 1436.00
1813, 1432.00
1814, 1434.00
1815, 1434.00
1816, 1434.00
1817, 1432.00
1818, 1432.00
1819, 1433.00
1820, 1431.00
1821, 1429.00
1822, 1431.00
1823, 1429.00
1824, 1429.00
1825, 1429.00
1826, 1428.00
1827, 1427.00
1828, 1428.00
1829, 1427.00
1830, 1427.00
1831, 1426.00
1832, 1424.00
1833, 1421.00
1834, 1423.00
1835, 1422.00
1836, 1420.00
1837, 1418.00
1838, 1418.00
1839, 1416.00
1840, 1414.00
1841, 1414.00
1842, 1413.00
1843, 1411.00
1844, 1411.00
1845, 1409.00
1846, 1407.00
1847, 1406.00
1848, 1405.00
1849, 1402.00
1850, 1403.00
1851, 1400.00
1852, 1400.00
1853, 1399.00
1854, 1398.00
1855, 1396.00
1856, 1394.00
1857, 1394.00
1858, 1392.00
1859, 1391.00
1860, 1390.00
1861, 1388.00
1862, 1386.00
1863, 1386.00
1864, 1385.00
1865, 1383.00
1866, 1382.00
1867, 1382.00
1868, 1381.00
1869, 1380.00
1870, 1379.00
1871, 1378.00
1872, 1377.00
1873, 1377.00
1874, 1377.00
1875, 1375.00
1876, 1375.00
1877, 1373.00
1878, 1373.00
1879, 1374.00
1880, 1374.00
1881, 1373.00
1882, 1371.00
1883, 1371.00
1884, 1370.00
1885, 1371.00
1886, 1371.00
1887, 1370.00
1888, 1368.00
1889, 1368.00
1890, 1369.00
1891, 1367.00
1892, 1368.00
1893, 1368.00
1894, 1367.00
1895, 1368.00
1896, 1366.00
1897, 1367.00
1898, 1365.00
1899, 1367.00
1900, 1367.00
1901, 1366.00
1902, 1365.00
1903, 1365.00
1904, 1366.00
1905, 1363.00
1906, 1366.00
1907, 1365.00
1908, 1366.00
1909, 1364.00
1910, 1365.00
1911, 1363.00
1912, 1364.00
1913, 1364.00
1914, 1363.00
1915, 1364.00
1916, 1363.00
1917, 1363.00
1918, 1363.00
1919, 1364.00
1920, 1364.00
1921, 1363.00
1922, 1364.00
1923, 1362.00
1924, 1364.00
1925, 1362.00
1926, 1364.00
1927, 1364.00
1928, 1363.00
1929, 1362.00
1930, 1363.00
1931, 1362.00
1932, 1365.00
1933, 1363.00
1934, 1362.00
1935, 1363.00
1936, 1364.00
1937, 1364.00
1938, 1364.00
1939, 1364.00
1940, 1364.00
1941, 1364.00
1942, 1365.00
1943, 1365.00
1944, 1362.00
1945, 1363.00
1946, 1365.00
1947, 1365.00
1948, 1365.00
1949, 1365.00
1950, 1365.00
1951, 1367.00
1952, 1366.00
1953, 1365.00
1954, 1366.00
1955, 1367.00
1956, 1366.00
1957, 1367.00
1958, 1367.00
1959, 1366.00
1960, 1369.00
1961, 1368.00
1962, 1367.00
1963, 1368.00
1964, 1368.00
1965, 1369.00
1966, 1369.00
1967, 1369.00
1968, 1370.00
1969, 1371.00
1970, 1369.00
1971, 1371.00
1972, 1371.00
1973, 1371.00
1974, 1372.00
1975, 1372.00
1976, 1371.00
1977, 1373.00
1978, 1372.00
1979, 1373.00
1980, 1373.00
1981, 1373.00
1982, 1374.00
1983, 1374.00
1984, 1374.00
1985, 1374.00
1986, 1377.00
1987, 1375.00
1988, 1375.00
1989, 1377.00
1990, 1375.00
1991, 1374.00
1992, 1375.00
1993, 1376.00
1994, 1377.00
1995, 1376.00
1996, 1378.00
1997, 1379.00
1998, 1378.00
1999, 1376.00
2000, 1380.00
2001, 1378.00
2002, 1380.00
2003, 1379.00
2004, 1380.00
2005, 1380.00
2006, 1380.00
2007, 1383.00
2008, 1381.00
2009, 1382.00
2010, 1382.00
2011, 1381.00
2012, 1382.00
2013, 1382.00
2014, 1384.00
2015, 1383.00
2016, 1384.00
2017, 1385.00
2018, 1385.00
2019, 1385.00
2020, 1385.00
2021, 1388.00
2022, 1387.00
2023, 1385.00
2024, 1388.00
2025, 1387.00
2026, 1386.00
2027, 1388.00
2028, 1390.00
2029, 1389.00
2030, 1389.00
2031, 1389.00
2032, 1390.00
2033, 1389.00
2034, 1389.00
2035, 1389.00
2036, 1393.00
2037, 1390.00
2038, 1393.00
2039, 1393.00
2040, 1394.00
2041, 1392.00
2042, 1393.00
2043, 1393.00
2044, 1394.00
2045, 1395.00
2046, 1393.00
2047, 1396.00
2048, 1398.00
2049, 1397.00
2050, 1398.00
2051, 1399.00
2052, 1398.00
2053, 1399.00
2054, 1398.00
2055, 1400.00
2056, 1399.00
2057, 1399.00
2058, 1400.00
2059, 1402.00
2060, 1402.00
2061, 1404.00
2062, 1403.00
2063, 1404.00
2064, 1404.00
2065, 1405.00
2066, 1404.00
2067, 1407.00
2068, 1407.00
2069, 1406.00
2070, 1406.00
2071, 1407.00
2072, 1408.00
2073, 1408.00
2074, 1409.00
2075, 1410.00
2076, 1411.00
2077, 1411.00
2078, 1411.00
2079, 1411.00
2080, 1411.00
2081, 1413.00
2082, 1412.00
2083, 1413.00
2084, 1414.00
2085, 1414.00
2086, 1415.00
2087, 1412.00
2088, 1415.00
2089, 1414.00
2090, 1416.00
2091, 1416.00
2092, 1416.00
2093, 1416.00
2094, 1418.00
2095, 1417.00
2096, 1418.00
2097, 1418.00
2098, 1419.00
2099, 1420.00
2100, 1419.00
2101, 1420.00
2102, 1420.00
2103, 1420.00
2104, 1419.00
2105, 1420.00
2106, 1421.00
2107, 1421.00
2108, 1421.00
2109, 1422.00
2110, 1422.00
2111, 1423.00
2112, 1423.00
2113, 1423.00
2114, 1424.00
2115, 1421.00
2116, 1423.00
2117, 1425.00
2118, 1423.00
2119, 1424.00
2120, 1426.00
2121, 1423.00
2122, 1424.00
2123, 1426.00
2124, 1425.00
2125, 1425.00
2126, 1428.00
2127, 1425.00
2128, 1428.00
2129, 1426.00
2130, 1425.00
2131, 1428.00
2132, 1426.00
2133, 1428.00
2134, 1427.00
2135, 1427.00
2136, 1427.00
2137, 1428.00
2138, 1428.00
2139, 1428.00
2140, 1428.00
2141, 1429.00
2142, 1428.00
2143, 1429.00
2144, 1429.00
2145, 1429.00
2146, 1429.00
2147, 1428.00
2148, 1428.00
2149, 1429.00
2150, 1431.00
