FW version: 24
Log Version: 3.0.3

General Info:
       Command/Macro Performed,            Timestamp,             Device ID, COM Port, UART/I2C, Test Name, Host Major, Host Minor, Host Revision, Host Git Commit
            Single_measurement,  2023_06_27_11_15_01,       Insight2_F4_xxx,    USB-C,      USB,          ,          0,          1,             1,      4031237645

Show Spectrometer Status:
l0_version, f4_version, battery_perc, battery_mVolt, accelerometer_temp, accelerometer_x, accelerometer_y, accelerometer_z, compass_temp, compass_x, compass_y, compass_z, lamp_0, lamp_1, gain_0, gain_1
        17,         24,           95,          2077,               5472,           65352,              24,           18552,            0,     65485,     65400,     65529,   2047,   2047,    1,    1

Temperature Statistic Info:
NTC AVG [°C], NTC2 AVG [°C]
      36.891,        36.580

Statistic Info:
M1:  num,      min,      max,   median,      AVG,      STD,M2:  num,      min,      max,   median,      AVG,      STD
     301,   656.00,   763.00,   680.00,   691.76,  32.9445,     401,   990.00,  1054.00,  1019.00,  1020.03,  20.9033,

Measurements:
Wavelength, Data Amplitude
1350, 672.00
1351, 671.00
1352, 671.00
1353, 671.00
1354, 669.00
1355, 670.00
1356, 669.00
1357, 670.00
1358, 669.00
1359, 668.00
1360, 668.00
1361, 669.00
1362, 668.00
1363, 667.00
1364, 668.00
1365, 667.00
1366, 666.00
1367, 666.00
1368, 665.00
1369, 665.00
1370, 665.00
1371, 665.00
1372, 664.00
1373, 663.00
1374, 663.00
1375, 664.00
1376, 663.00
1377, 661.00
1378, 662.00
1379, 662.00
1380, 662.00
1381, 660.00
1382, 661.00
1383, 659.00
1384, 660.00
1385, 660.00
1386, 660.00
1387, 659.00
1388, 659.00
1389, 658.00
1390, 659.00
1391, 659.00
1392, 659.00
1393, 659.00
1394, 657.00
1395, 659.00
1396, 658.00
1397, 658.00
1398, 659.00
1399, 657.00
1400, 657.00
1401, 658.00
1402, 657.00
1403, 657.00
1404, 658.00
1405, 658.00
1406, 657.00
1407, 657.00
1408, 658.00
1409, 658.00
1410, 657.00
1411, 658.00
1412, 657.00
1413, 657.00
1414, 657.00
1415, 657.00
1416, 657.00
1417, 656.00
1418, 657.00
1419, 658.00
1420, 658.00
1421, 658.00
1422, 657.00
1423, 657.00
1424, 656.00
1425, 657.00
1426, 658.00
1427, 657.00
1428, 658.00
1429, 658.00
1430, 658.00
1431, 658.00
1432, 658.00
1433, 658.00
1434, 659.00
1435, 659.00
1436, 659.00
1437, 659.00
1438, 659.00
1439, 659.00
1440, 659.00
1441, 659.00
1442, 660.00
1443, 660.00
1444, 660.00
1445, 660.00
1446, 661.00
1447, 661.00
1448, 661.00
1449, 662.00
1450, 661.00
1451, 662.00
1452, 661.00
1453, 662.00
1454, 662.00
1455, 663.00
1456, 663.00
1457, 664.00
1458, 664.00
1459, 664.00
1460, 664.00
1461, 664.00
1462, 665.00
1463, 665.00
1464, 666.00
1465, 665.00
1466, 666.00
1467, 666.00
1468, 666.00
1469, 667.00
1470, 668.00
1471, 668.00
1472, 668.00
1473, 669.00
1474, 668.00
1475, 670.00
1476, 669.00
1477, 670.00
1478, 671.00
1479, 670.00
1480, 671.00
1481, 672.00
1482, 673.00
1483, 673.00
1484, 674.00
1485, 674.00
1486, 674.00
1487, 675.00
1488, 675.00
1489, 677.00
1490, 676.00
1491, 675.00
1492, 677.00
1493, 677.00
1494, 678.00
1495, 677.00
1496, 679.00
1497, 679.00
1498, 679.00
1499, 680.00
1500, 680.00
1501, 680.00
1502, 681.00
1503, 682.00
1504, 682.00
1505, 683.00
1506, 684.00
1507, 683.00
1508, 684.00
1509, 685.00
1510, 685.00
1511, 685.00
1512, 686.00
1513, 686.00
1514, 687.00
1515, 687.00
1516, 688.00
1517, 689.00
1518, 689.00
1519, 689.00
1520, 690.00
1521, 690.00
1522, 692.00
1523, 691.00
1524, 693.00
1525, 693.00
1526, 693.00
1527, 693.00
1528, 693.00
1529, 695.00
1530, 696.00
1531, 696.00
1532, 695.00
1533, 698.00
1534, 697.00
1535, 697.00
1536, 699.00
1537, 699.00
1538, 699.00
1539, 701.00
1540, 700.00
1541, 701.00
1542, 701.00
1543, 703.00
1544, 702.00
1545, 702.00
1546, 703.00
1547, 704.00
1548, 705.00
1549, 705.00
1550, 705.00
1551, 706.00
1552, 706.00
1553, 706.00
1554, 707.00
1555, 708.00
1556, 708.00
1557, 708.00
1558, 709.00
1559, 710.00
1560, 710.00
1561, 711.00
1562, 712.00
1563, 711.00
1564, 712.00
1565, 713.00
1566, 713.00
1567, 715.00
1568, 715.00
1569, 715.00
1570, 716.00
1571, 716.00
1572, 717.00
1573, 717.00
1574, 718.00
1575, 719.00
1576, 719.00
1577, 719.00
1578, 719.00
1579, 721.00
1580, 722.00
1581, 722.00
1582, 722.00
1583, 723.00
1584, 723.00
1585, 724.00
1586, 724.00
1587, 724.00
1588, 725.00
1589, 726.00
1590, 726.00
1591, 727.00
1592, 728.00
1593, 728.00
1594, 729.00
1595, 729.00
1596, 729.00
1597, 730.00
1598, 730.00
1599, 731.00
1600, 732.00
1601, 732.00
1602, 733.00
1603, 734.00
1604, 734.00
1605, 735.00
1606, 735.00
1607, 736.00
1608, 736.00
1609, 737.00
1610, 738.00
1611, 738.00
1612, 739.00
1613, 739.00
1614, 741.00
1615, 741.00
1616, 741.00
1617, 742.00
1618, 743.00
1619, 744.00
1620, 744.00
1621, 745.00
1622, 746.00
1623, 747.00
1624, 748.00
1625, 749.00
1626, 748.00
1627, 749.00
1628, 750.00
1629, 751.00
1630, 751.00
1631, 752.00
1632, 752.00
1633, 753.00
1634, 752.00
1635, 753.00
1636, 754.00
1637, 755.00
1638, 756.00
1639, 755.00
1640, 756.00
1641, 758.00
1642, 758.00
1643, 759.00
1644, 760.00
1645, 760.00
1646, 760.00
1647, 761.00
1648, 762.00
1649, 762.00
1650, 763.00

1750, 1052.00
1751, 1053.00
1752, 1053.00
1753, 1053.00
1754, 1053.00
1755, 1053.00
1756, 1053.00
1757, 1054.00
1758, 1053.00
1759, 1054.00
1760, 1051.00
1761, 1052.00
1762, 1053.00
1763, 1053.00
1764, 1052.00
1765, 1053.00
1766, 1053.00
1767, 1052.00
1768, 1052.00
1769, 1053.00
1770, 1052.00
1771, 1052.00
1772, 1051.00
1773, 1051.00
1774, 1053.00
1775, 1052.00
1776, 1051.00
1777, 1051.00
1778, 1052.00
1779, 1052.00
1780, 1050.00
1781, 1051.00
1782, 1050.00
1783, 1050.00
1784, 1050.00
1785, 1050.00
1786, 1048.00
1787, 1051.00
1788, 1050.00
1789, 1051.00
1790, 1047.00
1791, 1048.00
1792, 1048.00
1793, 1048.00
1794, 1047.00
1795, 1045.00
1796, 1047.00
1797, 1049.00
1798, 1048.00
1799, 1047.00
1800, 1048.00
1801, 1046.00
1802, 1045.00
1803, 1047.00
1804, 1046.00
1805, 1044.00
1806, 1045.00
1807, 1048.00
1808, 1046.00
1809, 1044.00
1810, 1044.00
1811, 1045.00
1812, 1046.00
1813, 1044.00
1814, 1044.00
1815, 1043.00
1816, 1044.00
1817, 1044.00
1818, 1044.00
1819, 1042.00
1820, 1042.00
1821, 1043.00
1822, 1043.00
1823, 1041.00
1824, 1040.00
1825, 1040.00
1826, 1039.00
1827, 1041.00
1828, 1039.00
1829, 1039.00
1830, 1039.00
1831, 1037.00
1832, 1037.00
1833, 1036.00
1834, 1034.00
1835, 1033.00
1836, 1035.00
1837, 1033.00
1838, 1031.00
1839, 1032.00
1840, 1030.00
1841, 1030.00
1842, 1028.00
1843, 1027.00
1844, 1027.00
1845, 1026.00
1846, 1025.00
1847, 1024.00
1848, 1023.00
1849, 1019.00
1850, 1021.00
1851, 1021.00
1852, 1020.00
1853, 1016.00
1854, 1017.00
1855, 1017.00
1856, 1014.00
1857, 1014.00
1858, 1013.00
1859, 1012.00
1860, 1013.00
1861, 1010.00
1862, 1010.00
1863, 1008.00
1864, 1008.00
1865, 1007.00
1866, 1007.00
1867, 1005.00
1868, 1006.00
1869, 1005.00
1870, 1003.00
1871, 1003.00
1872, 1002.00
1873, 1003.00
1874, 1000.00
1875, 1001.00
1876, 1000.00
1877, 1000.00
1878, 1000.00
1879, 999.00
1880, 999.00
1881, 998.00
1882, 998.00
1883, 998.00
1884, 998.00
1885, 999.00
1886, 997.00
1887, 996.00
1888, 996.00
1889, 997.00
1890, 996.00
1891, 995.00
1892, 998.00
1893, 994.00
1894, 994.00
1895, 993.00
1896, 995.00
1897, 993.00
1898, 993.00
1899, 993.00
1900, 993.00
1901, 993.00
1902, 994.00
1903, 993.00
1904, 993.00
1905, 994.00
1906, 993.00
1907, 992.00
1908, 994.00
1909, 993.00
1910, 995.00
1911, 993.00
1912, 993.00
1913, 994.00
1914, 993.00
1915, 993.00
1916, 993.00
1917, 993.00
1918, 993.00
1919, 992.00
1920, 993.00
1921, 993.00
1922, 991.00
1923, 990.00
1924, 993.00
1925, 992.00
1926, 992.00
1927, 994.00
1928, 993.00
1929, 992.00
1930, 990.00
1931, 992.00
1932, 991.00
1933, 993.00
1934, 993.00
1935, 992.00
1936, 993.00
1937, 992.00
1938, 993.00
1939, 991.00
1940, 994.00
1941, 992.00
1942, 994.00
1943, 993.00
1944, 993.00
1945, 994.00
1946, 993.00
1947, 994.00
1948, 994.00
1949, 993.00
1950, 994.00
1951, 992.00
1952, 995.00
1953, 993.00
1954, 995.00
1955, 995.00
1956, 994.00
1957, 994.00
1958, 994.00
1959, 994.00
1960, 994.00
1961, 996.00
1962, 996.00
1963, 995.00
1964, 995.00
1965, 996.00
1966, 994.00
1967, 998.00
1968, 996.00
1969, 996.00
1970, 997.00
1971, 998.00
1972, 997.00
1973, 997.00
1974, 999.00
1975, 999.00
1976, 999.00
1977, 999.00
1978, 999.00
1979, 999.00
1980, 999.00
1981, 1000.00
1982, 1001.00
1983, 1000.00
1984, 1000.00
1985, 1000.00
1986, 1001.00
1987, 1000.00
1988, 1002.00
1989, 1002.00
1990, 1001.00
1991, 1002.00
1992, 1003.00
1993, 1002.00
1994, 1002.00
1995, 1002.00
1996, 1002.00
1997, 1003.00
1998, 1004.00
1999, 1003.00
2000, 1005.00
2001, 1004.00
2002, 1005.00
2003, 1004.00
2004, 1005.00
2005, 1005.00
2006, 1006.00
2007, 1006.00
2008, 1005.00
2009, 1005.00
2010, 1007.00
2011, 1009.00
2012, 1005.00
2013, 1007.00
2014, 1007.00
2015, 1007.00
2016, 1007.00
2017, 1006.00
2018, 1010.00
2019, 1008.00
2020, 1007.00
2021, 1009.00
2022, 1010.00
2023, 1009.00
2024, 1011.00
2025, 1010.00
2026, 1010.00
2027, 1010.00
2028, 1010.00
2029, 1010.00
2030, 1011.00
2031, 1012.00
2032, 1012.00
2033, 1011.00
2034, 1011.00
2035, 1013.00
2036, 1012.00
2037, 1012.00
2038, 1013.00
2039, 1014.00
2040, 1016.00
2041, 1016.00
2042, 1015.00
2043, 1016.00
2044, 1015.00
2045, 1017.00
2046, 1017.00
2047, 1017.00
2048, 1017.00
2049, 1016.00
2050, 1018.00
2051, 1017.00
2052, 1019.00
2053, 1019.00
2054, 1019.00
2055, 1020.00
2056, 1021.00
2057, 1019.00
2058, 1020.00
2059, 1022.00
2060, 1022.00
2061, 1025.00
2062, 1022.00
2063, 1022.00
2064, 1023.00
2065, 1023.00
2066, 1022.00
2067, 1024.00
2068, 1025.00
2069, 1025.00
2070, 1025.00
2071, 1026.00
2072, 1026.00
2073, 1027.00
2074, 1028.00
2075, 1026.00
2076, 1029.00
2077, 1029.00
2078, 1028.00
2079, 1027.00
2080, 1029.00
2081, 1029.00
2082, 1030.00
2083, 1030.00
2084, 1030.00
2085, 1030.00
2086, 1031.00
2087, 1031.00
2088, 1032.00
2089, 1033.00
2090, 1032.00
2091, 1032.00
2092, 1033.00
2093, 1032.00
2094, 1033.00
2095, 1033.00
2096, 1034.00
2097, 1035.00
2098, 1034.00
2099, 1036.00
2100, 1035.00
2101, 1035.00
2102, 1035.00
2103, 1034.00
2104, 1035.00
2105, 1037.00
2106, 1036.00
2107, 1037.00
2108, 1036.00
2109, 1037.00
2110, 1036.00
2111, 1037.00
2112, 1037.00
2113, 1039.00
2114, 1039.00
2115, 1039.00
2116, 1038.00
2117, 1039.00
2118, 1037.00
2119, 1038.00
2120, 1038.00
2121, 1039.00
2122, 1040.00
2123, 1039.00
2124, 1038.00
2125, 1039.00
2126, 1040.00
2127, 1040.00
2128, 1040.00
2129, 1040.00
2130, 1041.00
2131, 1041.00
2132, 1042.00
2133, 1042.00
2134, 1041.00
2135, 1041.00
2136, 1042.00
2137, 1041.00
2138, 1042.00
2139, 1043.00
2140, 1041.00
2141, 1042.00
2142, 1042.00
2143, 1042.00
2144, 1042.00
2145, 1043.00
2146, 1044.00
2147, 1043.00
2148, 1041.00
2149, 1043.00
2150, 1042.00
