FW version: 24
Log Version: 3.0.3

General Info:
       Command/Macro Performed,            Timestamp,             Device ID, COM Port, UART/I2C, Test Name, Host Major, Host Minor, Host Revision, Host Git Commit
            Single_measurement,  2023_06_27_11_15_32,       Insight2_F4_xxx,    USB-C,      USB,          ,          0,          1,             1,      4031237645

Show Spectrometer Status:
l0_version, f4_version, battery_perc, battery_mVolt, accelerometer_temp, accelerometer_x, accelerometer_y, accelerometer_z, compass_temp, compass_x, compass_y, compass_z, lamp_0, lamp_1, gain_0, gain_1
        17,         24,           95,          2075,               5488,           65404,              40,           18436,            0,     65532,     65404,     65478,   3276,   3276,    1,    1

Temperature Statistic Info:
NTC AVG [°C], NTC2 AVG [°C]
      37.208,        36.891

Statistic Info:
M1:  num,      min,      max,   median,      AVG,      STD,M2:  num,      min,      max,   median,      AVG,      STD
     301,  1643.00,  1876.00,  1691.00,  1719.49,  72.4018,     401,  2185.00,  2322.00,  2240.00,  2244.86,  44.5830,

Measurements:
Wavelength, Data Amplitude
1350, 1685.00
1351, 1685.00
1352, 1683.00
1353, 1683.00
1354, 1681.00
1355, 1682.00
1356, 1681.00
1357, 1680.00
1358, 1680.00
1359, 1679.00
1360, 1678.00
1361, 1676.00
1362, 1676.00
1363, 1675.00
1364, 1672.00
1365, 1672.00
1366, 1672.00
1367, 1670.00
1368, 1669.00
1369, 1669.00
1370, 1667.00
1371, 1665.00
1372, 1664.00
1373, 1664.00
1374, 1663.00
1375, 1661.00
1376, 1661.00
1377, 1660.00
1378, 1657.00
1379, 1658.00
1380, 1657.00
1381, 1656.00
1382, 1655.00
1383, 1654.00
1384, 1653.00
1385, 1653.00
1386, 1652.00
1387, 1651.00
1388, 1651.00
1389, 1651.00
1390, 1651.00
1391, 1649.00
1392, 1650.00
1393, 1649.00
1394, 1647.00
1395, 1647.00
1396, 1647.00
1397, 1647.00
1398, 1647.00
1399, 1647.00
1400, 1646.00
1401, 1645.00
1402, 1646.00
1403, 1645.00
1404, 1646.00
1405, 1645.00
1406, 1645.00
1407, 1644.00
1408, 1645.00
1409, 1644.00
1410, 1644.00
1411, 1643.00
1412, 1645.00
1413, 1643.00
1414, 1643.00
1415, 1644.00
1416, 1643.00
1417, 1644.00
1418, 1643.00
1419, 1643.00
1420, 1643.00
1421, 1643.00
1422, 1644.00
1423, 1643.00
1424, 1643.00
1425, 1644.00
1426, 1644.00
1427, 1644.00
1428, 1644.00
1429, 1645.00
1430, 1644.00
1431, 1643.00
1432, 1645.00
1433, 1645.00
1434, 1646.00
1435, 1646.00
1436, 1646.00
1437, 1646.00
1438, 1646.00
1439, 1646.00
1440, 1647.00
1441, 1648.00
1442, 1648.00
1443, 1648.00
1444, 1648.00
1445, 1649.00
1446, 1650.00
1447, 1649.00
1448, 1650.00
1449, 1652.00
1450, 1651.00
1451, 1651.00
1452, 1652.00
1453, 1653.00
1454, 1653.00
1455, 1654.00
1456, 1655.00
1457, 1655.00
1458, 1656.00
1459, 1656.00
1460, 1656.00
1461, 1657.00
1462, 1658.00
1463, 1659.00
1464, 1659.00
1465, 1661.00
1466, 1661.00
1467, 1661.00
1468, 1662.00
1469, 1663.00
1470, 1663.00
1471, 1665.00
1472, 1665.00
1473, 1665.00
1474, 1667.00
1475, 1666.00
1476, 1668.00
1477, 1669.00
1478, 1670.00
1479, 1670.00
1480, 1671.00
1481, 1672.00
1482, 1673.00
1483, 1675.00
1484, 1676.00
1485, 1676.00
1486, 1677.00
1487, 1678.00
1488, 1679.00
1489, 1680.00
1490, 1682.00
1491, 1683.00
1492, 1683.00
1493, 1683.00
1494, 1685.00
1495, 1685.00
1496, 1687.00
1497, 1688.00
1498, 1689.00
1499, 1690.00
1500, 1691.00
1501, 1691.00
1502, 1693.00
1503, 1693.00
1504, 1695.00
1505, 1696.00
1506, 1696.00
1507, 1697.00
1508, 1699.00
1509, 1700.00
1510, 1701.00
1511, 1702.00
1512, 1702.00
1513, 1704.00
1514, 1705.00
1515, 1706.00
1516, 1708.00
1517, 1708.00
1518, 1710.00
1519, 1710.00
1520, 1711.00
1521, 1713.00
1522, 1714.00
1523, 1715.00
1524, 1717.00
1525, 1717.00
1526, 1718.00
1527, 1720.00
1528, 1720.00
1529, 1722.00
1530, 1724.00
1531, 1725.00
1532, 1725.00
1533, 1727.00
1534, 1728.00
1535, 1727.00
1536, 1730.00
1537, 1731.00
1538, 1733.00
1539, 1732.00
1540, 1735.00
1541, 1736.00
1542, 1737.00
1543, 1738.00
1544, 1739.00
1545, 1740.00
1546, 1742.00
1547, 1742.00
1548, 1743.00
1549, 1745.00
1550, 1746.00
1551, 1747.00
1552, 1749.00
1553, 1750.00
1554, 1751.00
1555, 1753.00
1556, 1753.00
1557, 1755.00
1558, 1755.00
1559, 1757.00
1560, 1759.00
1561, 1761.00
1562, 1761.00
1563, 1763.00
1564, 1764.00
1565, 1765.00
1566, 1766.00
1567, 1768.00
1568, 1770.00
1569, 1771.00
1570, 1773.00
1571, 1773.00
1572, 1776.00
1573, 1775.00
1574, 1777.00
1575, 1778.00
1576, 1780.00
1577, 1782.00
1578, 1782.00
1579, 1784.00
1580, 1785.00
1581, 1786.00
1582, 1787.00
1583, 1789.00
1584, 1789.00
1585, 1791.00
1586, 1791.00
1587, 1793.00
1588, 1794.00
1589, 1794.00
1590, 1796.00
1591, 1798.00
1592, 1799.00
1593, 1801.00
1594, 1801.00
1595, 1804.00
1596, 1803.00
1597, 1806.00
1598, 1807.00
1599, 1807.00
1600, 1808.00
1601, 1809.00
1602, 1811.00
1603, 1812.00
1604, 1814.00
1605, 1815.00
1606, 1815.00
1607, 1818.00
1608, 1818.00
1609, 1819.00
1610, 1822.00
1611, 1822.00
1612, 1825.00
1613, 1825.00
1614, 1828.00
1615, 1829.00
1616, 1830.00
1617, 1831.00
1618, 1833.00
1619, 1835.00
1620, 1837.00
1621, 1837.00
1622, 1839.00
1623, 1841.00
1624, 1842.00
1625, 1843.00
1626, 1845.00
1627, 1846.00
1628, 1847.00
1629, 1849.00
1630, 1851.00
1631, 1853.00
1632, 1854.00
1633, 1856.00
1634, 1857.00
1635, 1858.00
1636, 1859.00
1637, 1860.00
1638, 1861.00
1639, 1863.00
1640, 1864.00
1641, 1865.00
1642, 1867.00
1643, 1868.00
1644, 1868.00
1645, 1871.00
1646, 1871.00
1647, 1873.00
1648, 1873.00
1649, 1875.00
1650, 1876.00

1750, 2322.00
1751, 2321.00
1752, 2320.00
1753, 2321.00
1754, 2321.00
1755, 2322.00
1756, 2319.00
1757, 2320.00
1758, 2321.00
1759, 2320.00
1760, 2320.00
1761, 2322.00
1762, 2320.00
1763, 2320.00
1764, 2319.00
1765, 2320.00
1766, 2319.00
1767, 2319.00
1768, 2318.00
1769, 2319.00
1770, 2318.00
1771, 2318.00
1772, 2318.00
1773, 2317.00
1774, 2318.00
1775, 2317.00
1776, 2316.00
1777, 2316.00
1778, 2317.00
1779, 2315.00
1780, 2316.00
1781, 2314.00
1782, 2314.00
1783, 2314.00
1784, 2314.00
1785, 2313.00
1786, 2312.00
1787, 2312.00
1788, 2312.00
1789, 2310.00
1790, 2311.00
1791, 2308.00
1792, 2309.00
1793, 2309.00
1794, 2307.00
1795, 2308.00
1796, 2307.00
1797, 2306.00
1798, 2306.00
1799, 2305.00
1800, 2306.00
1801, 2306.00
1802, 2305.00
1803, 2304.00
1804, 2304.00
1805, 2303.00
1806, 2304.00
1807, 2302.00
1808, 2302.00
1809, 2301.00
1810, 2301.00
1811, 2301.00
1812, 2299.00
1813, 2298.00
1814, 2298.00
1815, 2299.00
1816, 2298.00
1817, 2297.00
1818, 2295.00
1819, 2295.00
1820, 2295.00
1821, 2293.00
1822, 2293.00
1823, 2293.00
1824, 2292.00
1825, 2290.00
1826, 2291.00
1827, 2289.00
1828, 2288.00
1829, 2284.00
1830, 2285.00
1831, 2286.00
1832, 2283.00
1833, 2280.00
1834, 2279.00
1835, 2276.00
1836, 2277.00
1837, 2274.00
1838, 2272.00
1839, 2272.00
1840, 2268.00
1841, 2267.00
1842, 2266.00
1843, 2262.00
1844, 2261.00
1845, 2260.00
1846, 2257.00
1847, 2254.00
1848, 2252.00
1849, 2251.00
1850, 2247.00
1851, 2244.00
1852, 2245.00
1853, 2240.00
1854, 2239.00
1855, 2239.00
1856, 2237.00
1857, 2234.00
1858, 2232.00
1859, 2229.00
1860, 2227.00
1861, 2226.00
1862, 2225.00
1863, 2222.00
1864, 2220.00
1865, 2218.00
1866, 2218.00
1867, 2214.00
1868, 2214.00
1869, 2212.00
1870, 2212.00
1871, 2210.00
1872, 2210.00
1873, 2208.00
1874, 2206.00
1875, 2205.00
1876, 2205.00
1877, 2205.00
1878, 2203.00
1879, 2203.00
1880, 2201.00
1881, 2201.00
1882, 2199.00
1883, 2199.00
1884, 2198.00
1885, 2197.00
1886, 2196.00
1887, 2195.00
1888, 2196.00
1889, 2195.00
1890, 2194.00
1891, 2195.00
1892, 2195.00
1893, 2194.00
1894, 2194.00
1895, 2194.00
1896, 2192.00
1897, 2191.00
1898, 2191.00
1899, 2190.00
1900, 2193.00
1901, 2189.00
1902, 2190.00
1903, 2189.00
1904, 2189.00
1905, 2191.00
1906, 2189.00
1907, 2188.00
1908, 2186.00
1909, 2189.00
1910, 2188.00
1911, 2187.00
1912, 2188.00
1913, 2187.00
1914, 2187.00
1915, 2187.00
1916, 2186.00
1917, 2187.00
1918, 2186.00
1919, 2187.00
1920, 2188.00
1921, 2186.00
1922, 2187.00
1923, 2187.00
1924, 2187.00
1925, 2187.00
1926, 2185.00
1927, 2188.00
1928, 2187.00
1929, 2187.00
1930, 2186.00
1931, 2185.00
1932, 2187.00
1933, 2186.00
1934, 2187.00
1935, 2187.00
1936, 2189.00
1937, 2188.00
1938, 2187.00
1939, 2188.00
1940, 2186.00
1941, 2188.00
1942, 2187.00
1943, 2187.00
1944, 2187.00
1945, 2190.00
1946, 2191.00
1947, 2190.00
1948, 2189.00
1949, 2188.00
1950, 2189.00
1951, 2189.00
1952, 2191.00
1953, 2190.00
1954, 2191.00
1955, 2191.00
1956, 2191.00
1957, 2193.00
1958, 2192.00
1959, 2191.00
1960, 2193.00
1961, 2192.00
1962, 2195.00
1963, 2195.00
1964, 2194.00
1965, 2193.00
1966, 2195.00
1967, 2195.00
1968, 2194.00
1969, 2196.00
1970, 2197.00
1971, 2196.00
1972, 2197.00
1973, 2197.00
1974, 2198.00
1975, 2197.00
1976, 2199.00
1977, 2200.00
1978, 2200.00
1979, 2201.00
1980, 2202.00
1981, 2201.00
1982, 2202.00
1983, 2202.00
1984, 2204.00
1985, 2205.00
1986, 2205.00
1987, 2204.00
1988, 2204.00
1989, 2206.00
1990, 2205.00
1991, 2205.00
1992, 2205.00
1993, 2207.00
1994, 2208.00
1995, 2211.00
1996, 2209.00
1997, 2209.00
1998, 2211.00
1999, 2210.00
2000, 2211.00
2001, 2211.00
2002, 2211.00
2003, 2212.00
2004, 2215.00
2005, 2212.00
2006, 2213.00
2007, 2214.00
2008, 2216.00
2009, 2214.00
2010, 2215.00
2011, 2216.00
2012, 2217.00
2013, 2216.00
2014, 2216.00
2015, 2219.00
2016, 2219.00
2017, 2219.00
2018, 2217.00
2019, 2219.00
2020, 2219.00
2021, 2219.00
2022, 2221.00
2023, 2222.00
2024, 2222.00
2025, 2223.00
2026, 2223.00
2027, 2225.00
2028, 2225.00
2029, 2224.00
2030, 2224.00
2031, 2228.00
2032, 2228.00
2033, 2227.00
2034, 2227.00
2035, 2227.00
2036, 2228.00
2037, 2229.00
2038, 2229.00
2039, 2231.00
2040, 2233.00
2041, 2232.00
2042, 2230.00
2043, 2231.00
2044, 2233.00
2045, 2235.00
2046, 2235.00
2047, 2235.00
2048, 2236.00
2049, 2236.00
2050, 2237.00
2051, 2239.00
2052, 2239.00
2053, 2238.00
2054, 2240.00
2055, 2243.00
2056, 2243.00
2057, 2243.00
2058, 2244.00
2059, 2245.00
2060, 2246.00
2061, 2246.00
2062, 2248.00
2063, 2247.00
2064, 2249.00
2065, 2250.00
2066, 2250.00
2067, 2250.00
2068, 2252.00
2069, 2252.00
2070, 2254.00
2071, 2253.00
2072, 2256.00
2073, 2255.00
2074, 2256.00
2075, 2257.00
2076, 2256.00
2077, 2258.00
2078, 2257.00
2079, 2260.00
2080, 2260.00
2081, 2259.00
2082, 2261.00
2083, 2263.00
2084, 2263.00
2085, 2264.00
2086, 2264.00
2087, 2264.00
2088, 2265.00
2089, 2264.00
2090, 2266.00
2091, 2267.00
2092, 2267.00
2093, 2268.00
2094, 2268.00
2095, 2269.00
2096, 2270.00
2097, 2270.00
2098, 2271.00
2099, 2271.00
2100, 2271.00
2101, 2272.00
2102, 2272.00
2103, 2273.00
2104, 2272.00
2105, 2272.00
2106, 2276.00
2107, 2275.00
2108, 2275.00
2109, 2276.00
2110, 2276.00
2111, 2276.00
2112, 2278.00
2113, 2277.00
2114, 2276.00
2115, 2278.00
2116, 2277.00
2117, 2279.00
2118, 2278.00
2119, 2281.00
2120, 2280.00
2121, 2282.00
2122, 2279.00
2123, 2280.00
2124, 2281.00
2125, 2280.00
2126, 2281.00
2127, 2282.00
2128, 2281.00
2129, 2281.00
2130, 2283.00
2131, 2283.00
2132, 2284.00
2133, 2283.00
2134, 2283.00
2135, 2283.00
2136, 2284.00
2137, 2284.00
2138, 2283.00
2139, 2285.00
2140, 2283.00
2141, 2285.00
2142, 2286.00
2143, 2286.00
2144, 2286.00
2145, 2288.00
2146, 2286.00
2147, 2286.00
2148, 2286.00
2149, 2287.00
2150, 2286.00
