FW version: 24
Log Version: 3.0.3

General Info:
       Command/Macro Performed,            Timestamp,             Device ID, COM Port, UART/I2C, Test Name, Host Major, Host Minor, Host Revision, Host Git Commit
            Single_measurement,  2023_06_30_12_21_42,       Insight2_F4_xxx,    USB-C,      USB,          ,          0,          1,             1,      4031237645

Show Spectrometer Status:
l0_version, f4_version, battery_perc, battery_mVolt, accelerometer_temp, accelerometer_x, accelerometer_y, accelerometer_z, compass_temp, compass_x, compass_y, compass_z, lamp_0, lamp_1, gain_0, gain_1
        17,         24,           95,          2079,               5792,           65248,             140,           18444,            0,     65534,     65468,     65535,   3276,   3276,      1,      1

Temperature Statistic Info:
NTC AVG [°C], NTC2 AVG [°C]
      37.840,        37.554

Statistic Info:
M1:  num,      min,      max,   median,      AVG,      STD,M2:  num,      min,      max,   median,      AVG,      STD
     301,  1622.00,  1828.00,  1669.00,  1691.11,  64.0284,     401,  2266.00,  2387.00,  2329.00,  2326.53,  40.4045,

Measurements:
Wavelength, Data Amplitude
1350, 1646.00
1351, 1647.00
1352, 1647.00
1353, 1646.00
1354, 1645.00
1355, 1646.00
1356, 1645.00
1357, 1644.00
1358, 1644.00
1359, 1643.00
1360, 1645.00
1361, 1643.00
1362, 1643.00
1363, 1642.00
1364, 1640.00
1365, 1641.00
1366, 1639.00
1367, 1640.00
1368, 1639.00
1369, 1638.00
1370, 1638.00
1371, 1637.00
1372, 1636.00
1373, 1634.00
1374, 1635.00
1375, 1635.00
1376, 1632.00
1377, 1632.00
1378, 1631.00
1379, 1632.00
1380, 1631.00
1381, 1631.00
1382, 1629.00
1383, 1630.00
1384, 1629.00
1385, 1629.00
1386, 1628.00
1387, 1627.00
1388, 1628.00
1389, 1626.00
1390, 1627.00
1391, 1627.00
1392, 1626.00
1393, 1626.00
1394, 1626.00
1395, 1626.00
1396, 1625.00
1397, 1626.00
1398, 1625.00
1399, 1625.00
1400, 1625.00
1401, 1624.00
1402, 1626.00
1403, 1624.00
1404, 1623.00
1405, 1624.00
1406, 1624.00
1407, 1624.00
1408, 1624.00
1409, 1625.00
1410, 1622.00
1411, 1624.00
1412, 1624.00
1413, 1625.00
1414, 1623.00
1415, 1624.00
1416, 1624.00
1417, 1624.00
1418, 1624.00
1419, 1623.00
1420, 1624.00
1421, 1624.00
1422, 1624.00
1423, 1624.00
1424, 1625.00
1425, 1624.00
1426, 1624.00
1427, 1625.00
1428, 1625.00
1429, 1626.00
1430, 1626.00
1431, 1626.00
1432, 1626.00
1433, 1626.00
1434, 1628.00
1435, 1626.00
1436, 1628.00
1437, 1628.00
1438, 1628.00
1439, 1629.00
1440, 1629.00
1441, 1629.00
1442, 1630.00
1443, 1630.00
1444, 1630.00
1445, 1631.00
1446, 1633.00
1447, 1633.00
1448, 1632.00
1449, 1633.00
1450, 1633.00
1451, 1633.00
1452, 1634.00
1453, 1635.00
1454, 1635.00
1455, 1635.00
1456, 1636.00
1457, 1638.00
1458, 1637.00
1459, 1637.00
1460, 1640.00
1461, 1640.00
1462, 1639.00
1463, 1641.00
1464, 1641.00
1465, 1642.00
1466, 1643.00
1467, 1643.00
1468, 1644.00
1469, 1644.00
1470, 1644.00
1471, 1646.00
1472, 1647.00
1473, 1647.00
1474, 1648.00
1475, 1649.00
1476, 1651.00
1477, 1651.00
1478, 1651.00
1479, 1653.00
1480, 1652.00
1481, 1655.00
1482, 1655.00
1483, 1657.00
1484, 1656.00
1485, 1658.00
1486, 1658.00
1487, 1659.00
1488, 1660.00
1489, 1661.00
1490, 1661.00
1491, 1662.00
1492, 1663.00
1493, 1664.00
1494, 1664.00
1495, 1665.00
1496, 1665.00
1497, 1667.00
1498, 1668.00
1499, 1668.00
1500, 1669.00
1501, 1671.00
1502, 1671.00
1503, 1671.00
1504, 1673.00
1505, 1675.00
1506, 1674.00
1507, 1675.00
1508, 1676.00
1509, 1677.00
1510, 1679.00
1511, 1677.00
1512, 1680.00
1513, 1681.00
1514, 1682.00
1515, 1683.00
1516, 1683.00
1517, 1684.00
1518, 1685.00
1519, 1686.00
1520, 1687.00
1521, 1690.00
1522, 1689.00
1523, 1690.00
1524, 1691.00
1525, 1691.00
1526, 1693.00
1527, 1694.00
1528, 1695.00
1529, 1696.00
1530, 1696.00
1531, 1697.00
1532, 1699.00
1533, 1700.00
1534, 1701.00
1535, 1702.00
1536, 1704.00
1537, 1703.00
1538, 1705.00
1539, 1706.00
1540, 1706.00
1541, 1707.00
1542, 1709.00
1543, 1710.00
1544, 1711.00
1545, 1712.00
1546, 1712.00
1547, 1713.00
1548, 1715.00
1549, 1715.00
1550, 1717.00
1551, 1717.00
1552, 1718.00
1553, 1720.00
1554, 1720.00
1555, 1722.00
1556, 1723.00
1557, 1723.00
1558, 1725.00
1559, 1727.00
1560, 1727.00
1561, 1729.00
1562, 1729.00
1563, 1731.00
1564, 1732.00
1565, 1735.00
1566, 1735.00
1567, 1737.00
1568, 1735.00
1569, 1739.00
1570, 1739.00
1571, 1739.00
1572, 1741.00
1573, 1742.00
1574, 1743.00
1575, 1744.00
1576, 1745.00
1577, 1746.00
1578, 1748.00
1579, 1748.00
1580, 1749.00
1581, 1750.00
1582, 1752.00
1583, 1751.00
1584, 1754.00
1585, 1755.00
1586, 1756.00
1587, 1756.00
1588, 1756.00
1589, 1758.00
1590, 1759.00
1591, 1759.00
1592, 1761.00
1593, 1763.00
1594, 1763.00
1595, 1763.00
1596, 1765.00
1597, 1766.00
1598, 1767.00
1599, 1769.00
1600, 1769.00
1601, 1770.00
1602, 1771.00
1603, 1772.00
1604, 1774.00
1605, 1775.00
1606, 1775.00
1607, 1776.00
1608, 1779.00
1609, 1779.00
1610, 1780.00
1611, 1782.00
1612, 1783.00
1613, 1783.00
1614, 1785.00
1615, 1787.00
1616, 1787.00
1617, 1790.00
1618, 1791.00
1619, 1792.00
1620, 1794.00
1621, 1795.00
1622, 1796.00
1623, 1798.00
1624, 1799.00
1625, 1799.00
1626, 1802.00
1627, 1802.00
1628, 1802.00
1629, 1804.00
1630, 1806.00
1631, 1806.00
1632, 1809.00
1633, 1810.00
1634, 1811.00
1635, 1811.00
1636, 1813.00
1637, 1814.00
1638, 1815.00
1639, 1816.00
1640, 1817.00
1641, 1819.00
1642, 1819.00
1643, 1821.00
1644, 1822.00
1645, 1822.00
1646, 1824.00
1647, 1825.00
1648, 1826.00
1649, 1827.00
1650, 1828.00

1750, 2385.00
1751, 2384.00
1752, 2385.00
1753, 2385.00
1754, 2385.00
1755, 2383.00
1756, 2387.00
1757, 2387.00
1758, 2384.00
1759, 2384.00
1760, 2384.00
1761, 2386.00
1762, 2385.00
1763, 2384.00
1764, 2383.00
1765, 2385.00
1766, 2383.00
1767, 2382.00
1768, 2383.00
1769, 2384.00
1770, 2383.00
1771, 2383.00
1772, 2382.00
1773, 2384.00
1774, 2383.00
1775, 2382.00
1776, 2383.00
1777, 2381.00
1778, 2381.00
1779, 2380.00
1780, 2380.00
1781, 2379.00
1782, 2378.00
1783, 2379.00
1784, 2377.00
1785, 2377.00
1786, 2378.00
1787, 2377.00
1788, 2375.00
1789, 2375.00
1790, 2375.00
1791, 2376.00
1792, 2374.00
1793, 2375.00
1794, 2375.00
1795, 2372.00
1796, 2373.00
1797, 2372.00
1798, 2371.00
1799, 2373.00
1800, 2372.00
1801, 2372.00
1802, 2371.00
1803, 2370.00
1804, 2369.00
1805, 2370.00
1806, 2370.00
1807, 2371.00
1808, 2370.00
1809, 2370.00
1810, 2368.00
1811, 2370.00
1812, 2369.00
1813, 2367.00
1814, 2368.00
1815, 2368.00
1816, 2365.00
1817, 2366.00
1818, 2367.00
1819, 2366.00
1820, 2364.00
1821, 2364.00
1822, 2363.00
1823, 2365.00
1824, 2361.00
1825, 2364.00
1826, 2362.00
1827, 2361.00
1828, 2358.00
1829, 2359.00
1830, 2358.00
1831, 2357.00
1832, 2356.00
1833, 2356.00
1834, 2352.00
1835, 2353.00
1836, 2352.00
1837, 2350.00
1838, 2348.00
1839, 2347.00
1840, 2345.00
1841, 2344.00
1842, 2344.00
1843, 2341.00
1844, 2339.00
1845, 2338.00
1846, 2336.00
1847, 2334.00
1848, 2331.00
1849, 2330.00
1850, 2327.00
1851, 2326.00
1852, 2325.00
1853, 2323.00
1854, 2318.00
1855, 2319.00
1856, 2317.00
1857, 2315.00
1858, 2310.00
1859, 2310.00
1860, 2309.00
1861, 2308.00
1862, 2303.00
1863, 2303.00
1864, 2303.00
1865, 2299.00
1866, 2298.00
1867, 2296.00
1868, 2294.00
1869, 2295.00
1870, 2291.00
1871, 2292.00
1872, 2289.00
1873, 2289.00
1874, 2288.00
1875, 2286.00
1876, 2284.00
1877, 2284.00
1878, 2283.00
1879, 2283.00
1880, 2281.00
1881, 2283.00
1882, 2278.00
1883, 2279.00
1884, 2279.00
1885, 2277.00
1886, 2277.00
1887, 2276.00
1888, 2276.00
1889, 2275.00
1890, 2277.00
1891, 2274.00
1892, 2273.00
1893, 2274.00
1894, 2274.00
1895, 2275.00
1896, 2275.00
1897, 2274.00
1898, 2272.00
1899, 2273.00
1900, 2273.00
1901, 2271.00
1902, 2271.00
1903, 2271.00
1904, 2270.00
1905, 2270.00
1906, 2271.00
1907, 2269.00
1908, 2268.00
1909, 2271.00
1910, 2269.00
1911, 2270.00
1912, 2271.00
1913, 2270.00
1914, 2269.00
1915, 2269.00
1916, 2269.00
1917, 2268.00
1918, 2269.00
1919, 2267.00
1920, 2271.00
1921, 2268.00
1922, 2266.00
1923, 2269.00
1924, 2269.00
1925, 2269.00
1926, 2268.00
1927, 2269.00
1928, 2269.00
1929, 2268.00
1930, 2267.00
1931, 2269.00
1932, 2269.00
1933, 2269.00
1934, 2269.00
1935, 2269.00
1936, 2270.00
1937, 2271.00
1938, 2271.00
1939, 2270.00
1940, 2271.00
1941, 2272.00
1942, 2273.00
1943, 2270.00
1944, 2272.00
1945, 2272.00
1946, 2273.00
1947, 2271.00
1948, 2273.00
1949, 2272.00
1950, 2273.00
1951, 2274.00
1952, 2272.00
1953, 2275.00
1954, 2275.00
1955, 2275.00
1956, 2277.00
1957, 2274.00
1958, 2276.00
1959, 2277.00
1960, 2276.00
1961, 2276.00
1962, 2278.00
1963, 2279.00
1964, 2281.00
1965, 2280.00
1966, 2282.00
1967, 2280.00
1968, 2281.00
1969, 2282.00
1970, 2280.00
1971, 2281.00
1972, 2285.00
1973, 2285.00
1974, 2284.00
1975, 2286.00
1976, 2286.00
1977, 2286.00
1978, 2287.00
1979, 2288.00
1980, 2287.00
1981, 2288.00
1982, 2289.00
1983, 2290.00
1984, 2290.00
1985, 2291.00
1986, 2291.00
1987, 2291.00
1988, 2293.00
1989, 2293.00
1990, 2292.00
1991, 2293.00
1992, 2294.00
1993, 2294.00
1994, 2296.00
1995, 2297.00
1996, 2297.00
1997, 2297.00
1998, 2299.00
1999, 2298.00
2000, 2298.00
2001, 2300.00
2002, 2300.00
2003, 2301.00
2004, 2303.00
2005, 2301.00
2006, 2305.00
2007, 2303.00
2008, 2303.00
2009, 2302.00
2010, 2304.00
2011, 2303.00
2012, 2307.00
2013, 2305.00
2014, 2307.00
2015, 2306.00
2016, 2308.00
2017, 2308.00
2018, 2308.00
2019, 2308.00
2020, 2309.00
2021, 2311.00
2022, 2311.00
2023, 2310.00
2024, 2311.00
2025, 2312.00
2026, 2314.00
2027, 2313.00
2028, 2313.00
2029, 2316.00
2030, 2315.00
2031, 2316.00
2032, 2316.00
2033, 2316.00
2034, 2318.00
2035, 2317.00
2036, 2317.00
2037, 2318.00
2038, 2318.00
2039, 2322.00
2040, 2321.00
2041, 2321.00
2042, 2322.00
2043, 2323.00
2044, 2323.00
2045, 2323.00
2046, 2325.00
2047, 2324.00
2048, 2326.00
2049, 2325.00
2050, 2329.00
2051, 2329.00
2052, 2332.00
2053, 2330.00
2054, 2331.00
2055, 2333.00
2056, 2331.00
2057, 2333.00
2058, 2333.00
2059, 2336.00
2060, 2335.00
2061, 2337.00
2062, 2337.00
2063, 2339.00
2064, 2339.00
2065, 2340.00
2066, 2343.00
2067, 2342.00
2068, 2343.00
2069, 2343.00
2070, 2345.00
2071, 2344.00
2072, 2346.00
2073, 2346.00
2074, 2346.00
2075, 2348.00
2076, 2347.00
2077, 2349.00
2078, 2350.00
2079, 2350.00
2080, 2351.00
2081, 2351.00
2082, 2353.00
2083, 2353.00
2084, 2353.00
2085, 2354.00
2086, 2353.00
2087, 2354.00
2088, 2356.00
2089, 2355.00
2090, 2357.00
2091, 2357.00
2092, 2359.00
2093, 2359.00
2094, 2359.00
2095, 2360.00
2096, 2360.00
2097, 2362.00
2098, 2359.00
2099, 2360.00
2100, 2361.00
2101, 2362.00
2102, 2363.00
2103, 2362.00
2104, 2364.00
2105, 2363.00
2106, 2363.00
2107, 2363.00
2108, 2363.00
2109, 2364.00
2110, 2365.00
2111, 2364.00
2112, 2365.00
2113, 2365.00
2114, 2364.00
2115, 2366.00
2116, 2365.00
2117, 2365.00
2118, 2366.00
2119, 2367.00
2120, 2367.00
2121, 2365.00
2122, 2369.00
2123, 2367.00
2124, 2368.00
2125, 2368.00
2126, 2367.00
2127, 2367.00
2128, 2367.00
2129, 2368.00
2130, 2370.00
2131, 2368.00
2132, 2370.00
2133, 2370.00
2134, 2372.00
2135, 2371.00
2136, 2371.00
2137, 2371.00
2138, 2373.00
2139, 2371.00
2140, 2370.00
2141, 2373.00
2142, 2371.00
2143, 2371.00
2144, 2373.00
2145, 2372.00
2146, 2373.00
2147, 2373.00
2148, 2371.00
2149, 2375.00
2150, 2373.00
