FW version: 24
Log Version: 3.0.3

General Info:
       Command/Macro Performed,            Timestamp,             Device ID, COM Port, UART/I2C, Test Name, Host Major, Host Minor, Host Revision, Host Git Commit
            Single_measurement,  2023_06_30_12_21_19,       Insight2_F4_xxx,    USB-C,      USB,          ,          0,          1,             1,      4031237645

Show Spectrometer Status:
l0_version, f4_version, battery_perc, battery_mVolt, accelerometer_temp, accelerometer_x, accelerometer_y, accelerometer_z, compass_temp, compass_x, compass_y, compass_z, lamp_0, lamp_1, gain_0, gain_1
        17,         24,           95,          2080,               5776,           65276,             144,           18432,            0,     65535,     65462,     65527,   2866,   2866,      1,      1

Temperature Statistic Info:
NTC AVG [°C], NTC2 AVG [°C]
      37.669,        37.353

Statistic Info:
M1:  num,      min,      max,   median,      AVG,      STD,M2:  num,      min,      max,   median,      AVG,      STD
     301,  1264.00,  1431.00,  1303.00,  1319.73,  51.7600,     401,  1828.00,  1925.00,  1878.00,  1877.39,  32.9482,

Measurements:
Wavelength, Data Amplitude
1350, 1282.00
1351, 1282.00
1352, 1282.00
1353, 1281.00
1354, 1281.00
1355, 1281.00
1356, 1281.00
1357, 1281.00
1358, 1281.00
1359, 1280.00
1360, 1280.00
1361, 1279.00
1362, 1280.00
1363, 1279.00
1364, 1278.00
1365, 1278.00
1366, 1278.00
1367, 1277.00
1368, 1276.00
1369, 1275.00
1370, 1275.00
1371, 1274.00
1372, 1275.00
1373, 1274.00
1374, 1274.00
1375, 1273.00
1376, 1272.00
1377, 1272.00
1378, 1271.00
1379, 1271.00
1380, 1270.00
1381, 1270.00
1382, 1270.00
1383, 1269.00
1384, 1269.00
1385, 1268.00
1386, 1268.00
1387, 1268.00
1388, 1268.00
1389, 1267.00
1390, 1268.00
1391, 1268.00
1392, 1267.00
1393, 1267.00
1394, 1267.00
1395, 1266.00
1396, 1267.00
1397, 1266.00
1398, 1266.00
1399, 1266.00
1400, 1266.00
1401, 1266.00
1402, 1266.00
1403, 1265.00
1404, 1265.00
1405, 1265.00
1406, 1265.00
1407, 1266.00
1408, 1265.00
1409, 1265.00
1410, 1265.00
1411, 1266.00
1412, 1265.00
1413, 1265.00
1414, 1264.00
1415, 1266.00
1416, 1265.00
1417, 1266.00
1418, 1266.00
1419, 1265.00
1420, 1266.00
1421, 1265.00
1422, 1266.00
1423, 1266.00
1424, 1266.00
1425, 1266.00
1426, 1267.00
1427, 1266.00
1428, 1267.00
1429, 1266.00
1430, 1266.00
1431, 1267.00
1432, 1268.00
1433, 1267.00
1434, 1268.00
1435, 1268.00
1436, 1268.00
1437, 1269.00
1438, 1269.00
1439, 1270.00
1440, 1269.00
1441, 1270.00
1442, 1270.00
1443, 1270.00
1444, 1272.00
1445, 1271.00
1446, 1272.00
1447, 1272.00
1448, 1273.00
1449, 1274.00
1450, 1273.00
1451, 1274.00
1452, 1274.00
1453, 1275.00
1454, 1276.00
1455, 1275.00
1456, 1276.00
1457, 1277.00
1458, 1277.00
1459, 1278.00
1460, 1278.00
1461, 1278.00
1462, 1279.00
1463, 1278.00
1464, 1280.00
1465, 1280.00
1466, 1280.00
1467, 1281.00
1468, 1281.00
1469, 1283.00
1470, 1283.00
1471, 1283.00
1472, 1283.00
1473, 1284.00
1474, 1285.00
1475, 1285.00
1476, 1287.00
1477, 1287.00
1478, 1288.00
1479, 1289.00
1480, 1290.00
1481, 1290.00
1482, 1291.00
1483, 1291.00
1484, 1291.00
1485, 1293.00
1486, 1294.00
1487, 1295.00
1488, 1295.00
1489, 1295.00
1490, 1296.00
1491, 1297.00
1492, 1297.00
1493, 1298.00
1494, 1299.00
1495, 1300.00
1496, 1300.00
1497, 1301.00
1498, 1301.00
1499, 1302.00
1500, 1303.00
1501, 1305.00
1502, 1304.00
1503, 1304.00
1504, 1306.00
1505, 1306.00
1506, 1306.00
1507, 1307.00
1508, 1308.00
1509, 1309.00
1510, 1310.00
1511, 1311.00
1512, 1311.00
1513, 1313.00
1514, 1313.00
1515, 1314.00
1516, 1316.00
1517, 1316.00
1518, 1316.00
1519, 1316.00
1520, 1318.00
1521, 1318.00
1522, 1320.00
1523, 1321.00
1524, 1320.00
1525, 1321.00
1526, 1321.00
1527, 1322.00
1528, 1324.00
1529, 1325.00
1530, 1325.00
1531, 1326.00
1532, 1327.00
1533, 1327.00
1534, 1329.00
1535, 1329.00
1536, 1329.00
1537, 1330.00
1538, 1331.00
1539, 1332.00
1540, 1334.00
1541, 1334.00
1542, 1335.00
1543, 1335.00
1544, 1336.00
1545, 1338.00
1546, 1337.00
1547, 1338.00
1548, 1339.00
1549, 1340.00
1550, 1341.00
1551, 1342.00
1552, 1341.00
1553, 1343.00
1554, 1344.00
1555, 1345.00
1556, 1345.00
1557, 1347.00
1558, 1348.00
1559, 1349.00
1560, 1349.00
1561, 1350.00
1562, 1351.00
1563, 1352.00
1564, 1354.00
1565, 1354.00
1566, 1355.00
1567, 1356.00
1568, 1356.00
1569, 1357.00
1570, 1358.00
1571, 1358.00
1572, 1361.00
1573, 1361.00
1574, 1361.00
1575, 1362.00
1576, 1363.00
1577, 1363.00
1578, 1364.00
1579, 1366.00
1580, 1366.00
1581, 1367.00
1582, 1368.00
1583, 1369.00
1584, 1370.00
1585, 1369.00
1586, 1371.00
1587, 1372.00
1588, 1373.00
1589, 1373.00
1590, 1374.00
1591, 1375.00
1592, 1375.00
1593, 1379.00
1594, 1378.00
1595, 1379.00
1596, 1379.00
1597, 1380.00
1598, 1380.00
1599, 1382.00
1600, 1382.00
1601, 1383.00
1602, 1383.00
1603, 1383.00
1604, 1386.00
1605, 1387.00
1606, 1388.00
1607, 1388.00
1608, 1390.00
1609, 1391.00
1610, 1393.00
1611, 1393.00
1612, 1394.00
1613, 1396.00
1614, 1395.00
1615, 1397.00
1616, 1398.00
1617, 1398.00
1618, 1399.00
1619, 1400.00
1620, 1402.00
1621, 1403.00
1622, 1404.00
1623, 1405.00
1624, 1407.00
1625, 1407.00
1626, 1408.00
1627, 1409.00
1628, 1411.00
1629, 1412.00
1630, 1413.00
1631, 1414.00
1632, 1413.00
1633, 1416.00
1634, 1416.00
1635, 1417.00
1636, 1418.00
1637, 1419.00
1638, 1420.00
1639, 1420.00
1640, 1421.00
1641, 1423.00
1642, 1424.00
1643, 1424.00
1644, 1425.00
1645, 1427.00
1646, 1426.00
1647, 1428.00
1648, 1430.00
1649, 1430.00
1650, 1431.00

1750, 1921.00
1751, 1923.00
1752, 1925.00
1753, 1923.00
1754, 1923.00
1755, 1923.00
1756, 1924.00
1757, 1923.00
1758, 1923.00
1759, 1925.00
1760, 1925.00
1761, 1922.00
1762, 1922.00
1763, 1922.00
1764, 1924.00
1765, 1923.00
1766, 1923.00
1767, 1923.00
1768, 1923.00
1769, 1922.00
1770, 1923.00
1771, 1923.00
1772, 1922.00
1773, 1920.00
1774, 1921.00
1775, 1921.00
1776, 1920.00
1777, 1919.00
1778, 1919.00
1779, 1920.00
1780, 1919.00
1781, 1918.00
1782, 1918.00
1783, 1919.00
1784, 1919.00
1785, 1917.00
1786, 1918.00
1787, 1917.00
1788, 1917.00
1789, 1916.00
1790, 1915.00
1791, 1915.00
1792, 1916.00
1793, 1916.00
1794, 1916.00
1795, 1915.00
1796, 1915.00
1797, 1913.00
1798, 1913.00
1799, 1912.00
1800, 1913.00
1801, 1913.00
1802, 1913.00
1803, 1913.00
1804, 1913.00
1805, 1913.00
1806, 1913.00
1807, 1913.00
1808, 1912.00
1809, 1911.00
1810, 1912.00
1811, 1911.00
1812, 1909.00
1813, 1911.00
1814, 1910.00
1815, 1911.00
1816, 1909.00
1817, 1909.00
1818, 1909.00
1819, 1907.00
1820, 1908.00
1821, 1909.00
1822, 1906.00
1823, 1907.00
1824, 1906.00
1825, 1905.00
1826, 1906.00
1827, 1905.00
1828, 1907.00
1829, 1903.00
1830, 1901.00
1831, 1903.00
1832, 1901.00
1833, 1902.00
1834, 1900.00
1835, 1898.00
1836, 1896.00
1837, 1896.00
1838, 1895.00
1839, 1895.00
1840, 1892.00
1841, 1891.00
1842, 1889.00
1843, 1889.00
1844, 1886.00
1845, 1887.00
1846, 1885.00
1847, 1882.00
1848, 1881.00
1849, 1880.00
1850, 1877.00
1851, 1875.00
1852, 1876.00
1853, 1873.00
1854, 1873.00
1855, 1869.00
1856, 1868.00
1857, 1867.00
1858, 1866.00
1859, 1864.00
1860, 1862.00
1861, 1860.00
1862, 1860.00
1863, 1859.00
1864, 1856.00
1865, 1854.00
1866, 1854.00
1867, 1852.00
1868, 1852.00
1869, 1849.00
1870, 1851.00
1871, 1846.00
1872, 1846.00
1873, 1846.00
1874, 1846.00
1875, 1843.00
1876, 1842.00
1877, 1842.00
1878, 1843.00
1879, 1841.00
1880, 1840.00
1881, 1840.00
1882, 1839.00
1883, 1839.00
1884, 1838.00
1885, 1837.00
1886, 1836.00
1887, 1835.00
1888, 1837.00
1889, 1837.00
1890, 1834.00
1891, 1835.00
1892, 1835.00
1893, 1834.00
1894, 1836.00
1895, 1834.00
1896, 1835.00
1897, 1831.00
1898, 1832.00
1899, 1833.00
1900, 1833.00
1901, 1832.00
1902, 1832.00
1903, 1832.00
1904, 1832.00
1905, 1830.00
1906, 1830.00
1907, 1831.00
1908, 1831.00
1909, 1832.00
1910, 1830.00
1911, 1830.00
1912, 1829.00
1913, 1830.00
1914, 1830.00
1915, 1829.00
1916, 1830.00
1917, 1830.00
1918, 1830.00
1919, 1830.00
1920, 1829.00
1921, 1828.00
1922, 1831.00
1923, 1830.00
1924, 1829.00
1925, 1829.00
1926, 1829.00
1927, 1830.00
1928, 1829.00
1929, 1830.00
1930, 1832.00
1931, 1831.00
1932, 1832.00
1933, 1830.00
1934, 1832.00
1935, 1830.00
1936, 1833.00
1937, 1832.00
1938, 1833.00
1939, 1830.00
1940, 1832.00
1941, 1833.00
1942, 1830.00
1943, 1832.00
1944, 1833.00
1945, 1834.00
1946, 1833.00
1947, 1834.00
1948, 1833.00
1949, 1834.00
1950, 1835.00
1951, 1836.00
1952, 1835.00
1953, 1835.00
1954, 1835.00
1955, 1835.00
1956, 1835.00
1957, 1835.00
1958, 1839.00
1959, 1836.00
1960, 1838.00
1961, 1838.00
1962, 1836.00
1963, 1838.00
1964, 1838.00
1965, 1839.00
1966, 1841.00
1967, 1840.00
1968, 1839.00
1969, 1842.00
1970, 1841.00
1971, 1841.00
1972, 1843.00
1973, 1843.00
1974, 1843.00
1975, 1844.00
1976, 1845.00
1977, 1843.00
1978, 1845.00
1979, 1846.00
1980, 1845.00
1981, 1847.00
1982, 1848.00
1983, 1849.00
1984, 1849.00
1985, 1849.00
1986, 1848.00
1987, 1848.00
1988, 1851.00
1989, 1850.00
1990, 1850.00
1991, 1852.00
1992, 1851.00
1993, 1852.00
1994, 1853.00
1995, 1854.00
1996, 1853.00
1997, 1853.00
1998, 1855.00
1999, 1855.00
2000, 1856.00
2001, 1855.00
2002, 1858.00
2003, 1855.00
2004, 1858.00
2005, 1856.00
2006, 1858.00
2007, 1858.00
2008, 1859.00
2009, 1860.00
2010, 1860.00
2011, 1860.00
2012, 1861.00
2013, 1861.00
2014, 1861.00
2015, 1862.00
2016, 1861.00
2017, 1860.00
2018, 1864.00
2019, 1863.00
2020, 1863.00
2021, 1863.00
2022, 1864.00
2023, 1864.00
2024, 1865.00
2025, 1865.00
2026, 1865.00
2027, 1869.00
2028, 1866.00
2029, 1867.00
2030, 1867.00
2031, 1868.00
2032, 1869.00
2033, 1869.00
2034, 1869.00
2035, 1872.00
2036, 1872.00
2037, 1872.00
2038, 1872.00
2039, 1871.00
2040, 1874.00
2041, 1873.00
2042, 1875.00
2043, 1875.00
2044, 1875.00
2045, 1876.00
2046, 1875.00
2047, 1877.00
2048, 1879.00
2049, 1877.00
2050, 1878.00
2051, 1878.00
2052, 1879.00
2053, 1883.00
2054, 1882.00
2055, 1883.00
2056, 1883.00
2057, 1884.00
2058, 1885.00
2059, 1884.00
2060, 1886.00
2061, 1885.00
2062, 1888.00
2063, 1888.00
2064, 1889.00
2065, 1889.00
2066, 1887.00
2067, 1889.00
2068, 1891.00
2069, 1893.00
2070, 1893.00
2071, 1893.00
2072, 1894.00
2073, 1894.00
2074, 1894.00
2075, 1896.00
2076, 1897.00
2077, 1898.00
2078, 1898.00
2079, 1898.00
2080, 1897.00
2081, 1898.00
2082, 1899.00
2083, 1899.00
2084, 1901.00
2085, 1900.00
2086, 1902.00
2087, 1901.00
2088, 1901.00
2089, 1903.00
2090, 1902.00
2091, 1905.00
2092, 1905.00
2093, 1903.00
2094, 1906.00
2095, 1905.00
2096, 1904.00
2097, 1906.00
2098, 1907.00
2099, 1905.00
2100, 1907.00
2101, 1909.00
2102, 1908.00
2103, 1907.00
2104, 1908.00
2105, 1908.00
2106, 1908.00
2107, 1909.00
2108, 1910.00
2109, 1909.00
2110, 1909.00
2111, 1909.00
2112, 1909.00
2113, 1911.00
2114, 1911.00
2115, 1910.00
2116, 1910.00
2117, 1913.00
2118, 1911.00
2119, 1910.00
2120, 1912.00
2121, 1910.00
2122, 1912.00
2123, 1912.00
2124, 1912.00
2125, 1914.00
2126, 1913.00
2127, 1914.00
2128, 1913.00
2129, 1914.00
2130, 1914.00
2131, 1913.00
2132, 1913.00
2133, 1914.00
2134, 1914.00
2135, 1914.00
2136, 1913.00
2137, 1916.00
2138, 1916.00
2139, 1915.00
2140, 1916.00
2141, 1917.00
2142, 1914.00
2143, 1915.00
2144, 1916.00
2145, 1916.00
2146, 1917.00
2147, 1916.00
2148, 1917.00
2149, 1918.00
2150, 1917.00
