FW version: 24
Log Version: 3.0.3

General Info:
       Command/Macro Performed,            Timestamp,             Device ID, COM Port, UART/I2C, Test Name, Host Major, Host Minor, Host Revision, Host Git Commit
            Single_measurement,  2023_06_30_12_20_29,       Insight2_F4_xxx,    USB-C,      USB,          ,          0,          1,             1,      4031237645

Show Spectrometer Status:
l0_version, f4_version, battery_perc, battery_mVolt, accelerometer_temp, accelerometer_x, accelerometer_y, accelerometer_z, compass_temp, compass_x, compass_y, compass_z, lamp_0, lamp_1, gain_0, gain_1
        17,         24,           95,          2078,               5744,           65256,             132,           18468,            0,     65530,     65462,     65525,   3276,   3276,      0,      0

Temperature Statistic Info:
NTC AVG [°C], NTC2 AVG [°C]
      37.411,        37.121

Statistic Info:
M1:  num,      min,      max,   median,      AVG,      STD,M2:  num,      min,      max,   median,      AVG,      STD
     301,   560.00,   631.00,   577.00,   584.11,  22.1251,     401,   784.00,   826.00,   805.00,   804.67,  14.0402,

Measurements:
Wavelength, Data Amplitude
1350, 569.00
1351, 569.00
1352, 569.00
1353, 568.00
1354, 569.00
1355, 569.00
1356, 568.00
1357, 568.00
1358, 568.00
1359, 568.00
1360, 568.00
1361, 567.00
1362, 568.00
1363, 567.00
1364, 567.00
1365, 566.00
1366, 566.00
1367, 567.00
1368, 566.00
1369, 566.00
1370, 566.00
1371, 565.00
1372, 565.00
1373, 565.00
1374, 565.00
1375, 564.00
1376, 564.00
1377, 564.00
1378, 564.00
1379, 564.00
1380, 563.00
1381, 563.00
1382, 563.00
1383, 563.00
1384, 562.00
1385, 563.00
1386, 563.00
1387, 562.00
1388, 562.00
1389, 562.00
1390, 562.00
1391, 562.00
1392, 562.00
1393, 562.00
1394, 562.00
1395, 562.00
1396, 562.00
1397, 562.00
1398, 561.00
1399, 561.00
1400, 561.00
1401, 561.00
1402, 561.00
1403, 561.00
1404, 561.00
1405, 561.00
1406, 561.00
1407, 561.00
1408, 561.00
1409, 561.00
1410, 561.00
1411, 561.00
1412, 561.00
1413, 561.00
1414, 560.00
1415, 561.00
1416, 561.00
1417, 561.00
1418, 561.00
1419, 561.00
1420, 561.00
1421, 561.00
1422, 561.00
1423, 561.00
1424, 562.00
1425, 561.00
1426, 561.00
1427, 561.00
1428, 561.00
1429, 561.00
1430, 561.00
1431, 561.00
1432, 562.00
1433, 562.00
1434, 562.00
1435, 562.00
1436, 562.00
1437, 562.00
1438, 562.00
1439, 562.00
1440, 562.00
1441, 562.00
1442, 563.00
1443, 563.00
1444, 563.00
1445, 563.00
1446, 564.00
1447, 563.00
1448, 564.00
1449, 564.00
1450, 564.00
1451, 564.00
1452, 564.00
1453, 564.00
1454, 564.00
1455, 565.00
1456, 565.00
1457, 566.00
1458, 565.00
1459, 566.00
1460, 566.00
1461, 566.00
1462, 566.00
1463, 567.00
1464, 567.00
1465, 567.00
1466, 567.00
1467, 567.00
1468, 568.00
1469, 568.00
1470, 568.00
1471, 568.00
1472, 569.00
1473, 569.00
1474, 569.00
1475, 569.00
1476, 570.00
1477, 570.00
1478, 570.00
1479, 570.00
1480, 570.00
1481, 571.00
1482, 572.00
1483, 572.00
1484, 572.00
1485, 572.00
1486, 572.00
1487, 573.00
1488, 573.00
1489, 574.00
1490, 573.00
1491, 574.00
1492, 574.00
1493, 575.00
1494, 576.00
1495, 576.00
1496, 576.00
1497, 576.00
1498, 576.00
1499, 576.00
1500, 577.00
1501, 577.00
1502, 577.00
1503, 578.00
1504, 578.00
1505, 578.00
1506, 578.00
1507, 579.00
1508, 579.00
1509, 579.00
1510, 580.00
1511, 580.00
1512, 580.00
1513, 581.00
1514, 581.00
1515, 581.00
1516, 581.00
1517, 582.00
1518, 582.00
1519, 582.00
1520, 583.00
1521, 583.00
1522, 584.00
1523, 584.00
1524, 584.00
1525, 584.00
1526, 585.00
1527, 586.00
1528, 585.00
1529, 586.00
1530, 586.00
1531, 586.00
1532, 587.00
1533, 587.00
1534, 588.00
1535, 588.00
1536, 589.00
1537, 589.00
1538, 589.00
1539, 589.00
1540, 590.00
1541, 590.00
1542, 590.00
1543, 590.00
1544, 591.00
1545, 592.00
1546, 592.00
1547, 592.00
1548, 592.00
1549, 593.00
1550, 593.00
1551, 593.00
1552, 594.00
1553, 594.00
1554, 594.00
1555, 595.00
1556, 595.00
1557, 595.00
1558, 596.00
1559, 596.00
1560, 596.00
1561, 597.00
1562, 598.00
1563, 598.00
1564, 598.00
1565, 598.00
1566, 599.00
1567, 599.00
1568, 600.00
1569, 600.00
1570, 601.00
1571, 600.00
1572, 601.00
1573, 602.00
1574, 602.00
1575, 602.00
1576, 603.00
1577, 603.00
1578, 603.00
1579, 604.00
1580, 604.00
1581, 605.00
1582, 605.00
1583, 605.00
1584, 605.00
1585, 606.00
1586, 606.00
1587, 606.00
1588, 607.00
1589, 608.00
1590, 608.00
1591, 608.00
1592, 608.00
1593, 608.00
1594, 609.00
1595, 609.00
1596, 610.00
1597, 610.00
1598, 610.00
1599, 610.00
1600, 611.00
1601, 612.00
1602, 612.00
1603, 612.00
1604, 613.00
1605, 613.00
1606, 613.00
1607, 614.00
1608, 614.00
1609, 615.00
1610, 615.00
1611, 616.00
1612, 615.00
1613, 616.00
1614, 617.00
1615, 617.00
1616, 617.00
1617, 618.00
1618, 618.00
1619, 619.00
1620, 620.00
1621, 620.00
1622, 620.00
1623, 621.00
1624, 622.00
1625, 621.00
1626, 623.00
1627, 622.00
1628, 623.00
1629, 623.00
1630, 624.00
1631, 624.00
1632, 625.00
1633, 625.00
1634, 625.00
1635, 626.00
1636, 626.00
1637, 627.00
1638, 627.00
1639, 627.00
1640, 628.00
1641, 628.00
1642, 629.00
1643, 629.00
1644, 629.00
1645, 629.00
1646, 630.00
1647, 630.00
1648, 631.00
1649, 631.00
1650, 631.00

1750, 826.00
1751, 825.00
1752, 824.00
1753, 824.00
1754, 825.00
1755, 825.00
1756, 825.00
1757, 825.00
1758, 825.00
1759, 825.00
1760, 825.00
1761, 825.00
1762, 825.00
1763, 824.00
1764, 824.00
1765, 825.00
1766, 824.00
1767, 824.00
1768, 825.00
1769, 824.00
1770, 824.00
1771, 824.00
1772, 824.00
1773, 824.00
1774, 824.00
1775, 824.00
1776, 823.00
1777, 823.00
1778, 823.00
1779, 823.00
1780, 823.00
1781, 823.00
1782, 823.00
1783, 823.00
1784, 823.00
1785, 823.00
1786, 822.00
1787, 823.00
1788, 822.00
1789, 822.00
1790, 822.00
1791, 822.00
1792, 821.00
1793, 821.00
1794, 821.00
1795, 821.00
1796, 821.00
1797, 821.00
1798, 820.00
1799, 820.00
1800, 820.00
1801, 820.00
1802, 821.00
1803, 820.00
1804, 820.00
1805, 820.00
1806, 820.00
1807, 820.00
1808, 820.00
1809, 820.00
1810, 819.00
1811, 819.00
1812, 819.00
1813, 818.00
1814, 819.00
1815, 819.00
1816, 819.00
1817, 818.00
1818, 819.00
1819, 818.00
1820, 818.00
1821, 818.00
1822, 817.00
1823, 817.00
1824, 817.00
1825, 818.00
1826, 817.00
1827, 816.00
1828, 817.00
1829, 816.00
1830, 816.00
1831, 815.00
1832, 815.00
1833, 814.00
1834, 815.00
1835, 814.00
1836, 814.00
1837, 813.00
1838, 813.00
1839, 812.00
1840, 811.00
1841, 811.00
1842, 810.00
1843, 810.00
1844, 810.00
1845, 809.00
1846, 808.00
1847, 808.00
1848, 808.00
1849, 806.00
1850, 805.00
1851, 805.00
1852, 804.00
1853, 804.00
1854, 802.00
1855, 801.00
1856, 801.00
1857, 801.00
1858, 800.00
1859, 799.00
1860, 798.00
1861, 798.00
1862, 797.00
1863, 796.00
1864, 796.00
1865, 796.00
1866, 795.00
1867, 794.00
1868, 794.00
1869, 793.00
1870, 793.00
1871, 792.00
1872, 792.00
1873, 792.00
1874, 791.00
1875, 791.00
1876, 790.00
1877, 790.00
1878, 790.00
1879, 790.00
1880, 789.00
1881, 789.00
1882, 789.00
1883, 789.00
1884, 788.00
1885, 788.00
1886, 788.00
1887, 787.00
1888, 787.00
1889, 788.00
1890, 787.00
1891, 787.00
1892, 787.00
1893, 787.00
1894, 786.00
1895, 786.00
1896, 786.00
1897, 786.00
1898, 786.00
1899, 786.00
1900, 785.00
1901, 785.00
1902, 785.00
1903, 786.00
1904, 785.00
1905, 786.00
1906, 785.00
1907, 785.00
1908, 785.00
1909, 785.00
1910, 785.00
1911, 785.00
1912, 785.00
1913, 784.00
1914, 785.00
1915, 785.00
1916, 784.00
1917, 785.00
1918, 785.00
1919, 785.00
1920, 784.00
1921, 785.00
1922, 784.00
1923, 784.00
1924, 785.00
1925, 784.00
1926, 785.00
1927, 784.00
1928, 784.00
1929, 785.00
1930, 785.00
1931, 784.00
1932, 784.00
1933, 784.00
1934, 785.00
1935, 785.00
1936, 785.00
1937, 785.00
1938, 785.00
1939, 785.00
1940, 786.00
1941, 785.00
1942, 785.00
1943, 785.00
1944, 786.00
1945, 786.00
1946, 786.00
1947, 786.00
1948, 786.00
1949, 786.00
1950, 787.00
1951, 786.00
1952, 786.00
1953, 786.00
1954, 787.00
1955, 786.00
1956, 787.00
1957, 787.00
1958, 787.00
1959, 787.00
1960, 788.00
1961, 788.00
1962, 788.00
1963, 788.00
1964, 788.00
1965, 789.00
1966, 789.00
1967, 789.00
1968, 789.00
1969, 789.00
1970, 790.00
1971, 789.00
1972, 790.00
1973, 789.00
1974, 790.00
1975, 790.00
1976, 790.00
1977, 790.00
1978, 791.00
1979, 791.00
1980, 791.00
1981, 791.00
1982, 791.00
1983, 792.00
1984, 792.00
1985, 792.00
1986, 792.00
1987, 793.00
1988, 793.00
1989, 793.00
1990, 793.00
1991, 793.00
1992, 793.00
1993, 794.00
1994, 795.00
1995, 794.00
1996, 794.00
1997, 794.00
1998, 794.00
1999, 794.00
2000, 795.00
2001, 794.00
2002, 795.00
2003, 795.00
2004, 795.00
2005, 796.00
2006, 796.00
2007, 796.00
2008, 796.00
2009, 797.00
2010, 796.00
2011, 797.00
2012, 798.00
2013, 797.00
2014, 798.00
2015, 798.00
2016, 798.00
2017, 798.00
2018, 798.00
2019, 799.00
2020, 798.00
2021, 799.00
2022, 799.00
2023, 799.00
2024, 799.00
2025, 799.00
2026, 800.00
2027, 800.00
2028, 801.00
2029, 801.00
2030, 800.00
2031, 800.00
2032, 801.00
2033, 801.00
2034, 801.00
2035, 801.00
2036, 802.00
2037, 801.00
2038, 803.00
2039, 803.00
2040, 803.00
2041, 804.00
2042, 804.00
2043, 804.00
2044, 804.00
2045, 804.00
2046, 804.00
2047, 805.00
2048, 805.00
2049, 805.00
2050, 805.00
2051, 806.00
2052, 806.00
2053, 806.00
2054, 806.00
2055, 807.00
2056, 806.00
2057, 807.00
2058, 807.00
2059, 807.00
2060, 808.00
2061, 808.00
2062, 809.00
2063, 809.00
2064, 809.00
2065, 809.00
2066, 809.00
2067, 810.00
2068, 810.00
2069, 810.00
2070, 811.00
2071, 811.00
2072, 811.00
2073, 811.00
2074, 811.00
2075, 812.00
2076, 812.00
2077, 811.00
2078, 813.00
2079, 814.00
2080, 813.00
2081, 813.00
2082, 813.00
2083, 814.00
2084, 814.00
2085, 814.00
2086, 814.00
2087, 815.00
2088, 815.00
2089, 814.00
2090, 815.00
2091, 815.00
2092, 815.00
2093, 816.00
2094, 815.00
2095, 816.00
2096, 816.00
2097, 817.00
2098, 816.00
2099, 817.00
2100, 817.00
2101, 817.00
2102, 818.00
2103, 817.00
2104, 817.00
2105, 818.00
2106, 817.00
2107, 817.00
2108, 818.00
2109, 818.00
2110, 818.00
2111, 817.00
2112, 818.00
2113, 818.00
2114, 819.00
2115, 818.00
2116, 818.00
2117, 818.00
2118, 818.00
2119, 819.00
2120, 819.00
2121, 818.00
2122, 820.00
2123, 820.00
2124, 819.00
2125, 819.00
2126, 819.00
2127, 819.00
2128, 819.00
2129, 820.00
2130, 820.00
2131, 820.00
2132, 820.00
2133, 820.00
2134, 819.00
2135, 820.00
2136, 820.00
2137, 820.00
2138, 819.00
2139, 820.00
2140, 819.00
2141, 820.00
2142, 821.00
2143, 820.00
2144, 821.00
2145, 821.00
2146, 820.00
2147, 821.00
2148, 821.00
2149, 820.00
2150, 821.00
