FW version: 24
Log Version: 3.0.3

General Info:
       Command/Macro Performed,            Timestamp,             Device ID, COM Port, UART/I2C, Test Name, Host Major, Host Minor, Host Revision, Host Git Commit
            Single_measurement,  2023_06_28_11_55_58,       Insight2_F4_xxx,    USB-C,      USB,          ,          0,          1,             1,      4031237645

Show Spectrometer Status:
l0_version, f4_version, battery_perc, battery_mVolt, accelerometer_temp, accelerometer_x, accelerometer_y, accelerometer_z, compass_temp, compass_x, compass_y, compass_z, lamp_0, lamp_1, gain_0, gain_1
        17,         24,           47,          1903,               6560,           65320,            1304,           18848,            0,     65406,     65438,     18863,   3276,   3276,      0,      0

Temperature Statistic Info:
NTC AVG [°C], NTC2 AVG [°C]
      40.114,        39.792

Statistic Info:
M1:  num,      min,      max,   median,      AVG,      STD,M2:  num,      min,      max,   median,      AVG,      STD
     301,   670.00,   772.00,   691.00,   703.73,  31.6859,     401,   869.00,   931.00,   894.00,   896.23,  20.1260,

Measurements:
Wavelength, Data Amplitude
1350, 689.00
1351, 689.00
1352, 688.00
1353, 688.00
1354, 688.00
1355, 687.00
1356, 687.00
1357, 687.00
1358, 687.00
1359, 687.00
1360, 686.00
1361, 686.00
1362, 686.00
1363, 684.00
1364, 684.00
1365, 683.00
1366, 683.00
1367, 682.00
1368, 682.00
1369, 681.00
1370, 681.00
1371, 680.00
1372, 680.00
1373, 679.00
1374, 679.00
1375, 679.00
1376, 678.00
1377, 677.00
1378, 677.00
1379, 676.00
1380, 676.00
1381, 676.00
1382, 675.00
1383, 675.00
1384, 675.00
1385, 674.00
1386, 674.00
1387, 674.00
1388, 674.00
1389, 674.00
1390, 673.00
1391, 673.00
1392, 673.00
1393, 673.00
1394, 672.00
1395, 672.00
1396, 672.00
1397, 672.00
1398, 672.00
1399, 672.00
1400, 672.00
1401, 672.00
1402, 672.00
1403, 672.00
1404, 672.00
1405, 671.00
1406, 671.00
1407, 671.00
1408, 671.00
1409, 671.00
1410, 671.00
1411, 671.00
1412, 671.00
1413, 671.00
1414, 670.00
1415, 670.00
1416, 670.00
1417, 671.00
1418, 671.00
1419, 671.00
1420, 670.00
1421, 670.00
1422, 670.00
1423, 671.00
1424, 671.00
1425, 670.00
1426, 670.00
1427, 671.00
1428, 671.00
1429, 671.00
1430, 671.00
1431, 671.00
1432, 671.00
1433, 671.00
1434, 671.00
1435, 671.00
1436, 672.00
1437, 672.00
1438, 672.00
1439, 672.00
1440, 672.00
1441, 672.00
1442, 672.00
1443, 673.00
1444, 673.00
1445, 673.00
1446, 673.00
1447, 673.00
1448, 674.00
1449, 674.00
1450, 673.00
1451, 674.00
1452, 674.00
1453, 675.00
1454, 675.00
1455, 675.00
1456, 676.00
1457, 676.00
1458, 676.00
1459, 676.00
1460, 676.00
1461, 676.00
1462, 677.00
1463, 677.00
1464, 677.00
1465, 677.00
1466, 678.00
1467, 678.00
1468, 679.00
1469, 678.00
1470, 679.00
1471, 679.00
1472, 680.00
1473, 680.00
1474, 680.00
1475, 681.00
1476, 681.00
1477, 682.00
1478, 682.00
1479, 682.00
1480, 683.00
1481, 683.00
1482, 683.00
1483, 684.00
1484, 684.00
1485, 685.00
1486, 685.00
1487, 686.00
1488, 686.00
1489, 686.00
1490, 687.00
1491, 687.00
1492, 688.00
1493, 688.00
1494, 688.00
1495, 689.00
1496, 689.00
1497, 689.00
1498, 690.00
1499, 690.00
1500, 691.00
1501, 691.00
1502, 692.00
1503, 692.00
1504, 692.00
1505, 693.00
1506, 693.00
1507, 694.00
1508, 694.00
1509, 695.00
1510, 695.00
1511, 695.00
1512, 696.00
1513, 696.00
1514, 697.00
1515, 698.00
1516, 699.00
1517, 699.00
1518, 699.00
1519, 700.00
1520, 700.00
1521, 700.00
1522, 701.00
1523, 701.00
1524, 702.00
1525, 702.00
1526, 703.00
1527, 703.00
1528, 704.00
1529, 704.00
1530, 705.00
1531, 706.00
1532, 706.00
1533, 706.00
1534, 706.00
1535, 708.00
1536, 708.00
1537, 709.00
1538, 709.00
1539, 710.00
1540, 710.00
1541, 711.00
1542, 711.00
1543, 712.00
1544, 712.00
1545, 713.00
1546, 714.00
1547, 714.00
1548, 714.00
1549, 714.00
1550, 715.00
1551, 716.00
1552, 717.00
1553, 717.00
1554, 718.00
1555, 718.00
1556, 719.00
1557, 720.00
1558, 720.00
1559, 720.00
1560, 721.00
1561, 722.00
1562, 722.00
1563, 722.00
1564, 724.00
1565, 724.00
1566, 725.00
1567, 725.00
1568, 726.00
1569, 726.00
1570, 727.00
1571, 727.00
1572, 728.00
1573, 729.00
1574, 729.00
1575, 730.00
1576, 730.00
1577, 731.00
1578, 731.00
1579, 732.00
1580, 732.00
1581, 733.00
1582, 733.00
1583, 734.00
1584, 735.00
1585, 735.00
1586, 735.00
1587, 736.00
1588, 736.00
1589, 737.00
1590, 738.00
1591, 738.00
1592, 739.00
1593, 739.00
1594, 739.00
1595, 740.00
1596, 741.00
1597, 741.00
1598, 742.00
1599, 742.00
1600, 743.00
1601, 743.00
1602, 744.00
1603, 744.00
1604, 745.00
1605, 745.00
1606, 746.00
1607, 747.00
1608, 747.00
1609, 748.00
1610, 749.00
1611, 749.00
1612, 750.00
1613, 751.00
1614, 751.00
1615, 752.00
1616, 752.00
1617, 753.00
1618, 754.00
1619, 754.00
1620, 755.00
1621, 756.00
1622, 756.00
1623, 757.00
1624, 758.00
1625, 758.00
1626, 759.00
1627, 760.00
1628, 760.00
1629, 760.00
1630, 761.00
1631, 761.00
1632, 762.00
1633, 763.00
1634, 763.00
1635, 764.00
1636, 765.00
1637, 765.00
1638, 766.00
1639, 766.00
1640, 766.00
1641, 768.00
1642, 768.00
1643, 769.00
1644, 769.00
1645, 770.00
1646, 770.00
1647, 770.00
1648, 771.00
1649, 772.00
1650, 772.00

1750, 931.00
1751, 930.00
1752, 930.00
1753, 931.00
1754, 931.00
1755, 930.00
1756, 931.00
1757, 931.00
1758, 931.00
1759, 930.00
1760, 930.00
1761, 931.00
1762, 930.00
1763, 930.00
1764, 930.00
1765, 930.00
1766, 930.00
1767, 931.00
1768, 930.00
1769, 930.00
1770, 930.00
1771, 929.00
1772, 929.00
1773, 929.00
1774, 929.00
1775, 929.00
1776, 929.00
1777, 929.00
1778, 929.00
1779, 928.00
1780, 928.00
1781, 927.00
1782, 927.00
1783, 927.00
1784, 927.00
1785, 927.00
1786, 927.00
1787, 926.00
1788, 926.00
1789, 926.00
1790, 925.00
1791, 925.00
1792, 925.00
1793, 925.00
1794, 925.00
1795, 925.00
1796, 925.00
1797, 925.00
1798, 924.00
1799, 924.00
1800, 923.00
1801, 923.00
1802, 923.00
1803, 923.00
1804, 922.00
1805, 923.00
1806, 923.00
1807, 923.00
1808, 922.00
1809, 922.00
1810, 921.00
1811, 921.00
1812, 921.00
1813, 921.00
1814, 920.00
1815, 920.00
1816, 920.00
1817, 920.00
1818, 920.00
1819, 919.00
1820, 919.00
1821, 918.00
1822, 917.00
1823, 917.00
1824, 917.00
1825, 917.00
1826, 916.00
1827, 915.00
1828, 915.00
1829, 914.00
1830, 914.00
1831, 913.00
1832, 913.00
1833, 913.00
1834, 911.00
1835, 911.00
1836, 909.00
1837, 909.00
1838, 908.00
1839, 907.00
1840, 906.00
1841, 906.00
1842, 904.00
1843, 903.00
1844, 903.00
1845, 902.00
1846, 901.00
1847, 900.00
1848, 899.00
1849, 897.00
1850, 897.00
1851, 896.00
1852, 895.00
1853, 894.00
1854, 893.00
1855, 892.00
1856, 891.00
1857, 890.00
1858, 889.00
1859, 890.00
1860, 888.00
1861, 887.00
1862, 886.00
1863, 885.00
1864, 884.00
1865, 883.00
1866, 882.00
1867, 883.00
1868, 882.00
1869, 881.00
1870, 881.00
1871, 880.00
1872, 880.00
1873, 879.00
1874, 879.00
1875, 879.00
1876, 878.00
1877, 877.00
1878, 877.00
1879, 877.00
1880, 876.00
1881, 875.00
1882, 875.00
1883, 876.00
1884, 875.00
1885, 874.00
1886, 875.00
1887, 874.00
1888, 874.00
1889, 873.00
1890, 873.00
1891, 873.00
1892, 873.00
1893, 873.00
1894, 872.00
1895, 872.00
1896, 872.00
1897, 872.00
1898, 872.00
1899, 872.00
1900, 872.00
1901, 872.00
1902, 871.00
1903, 871.00
1904, 871.00
1905, 871.00
1906, 872.00
1907, 871.00
1908, 871.00
1909, 871.00
1910, 871.00
1911, 870.00
1912, 870.00
1913, 870.00
1914, 871.00
1915, 871.00
1916, 871.00
1917, 870.00
1918, 870.00
1919, 870.00
1920, 870.00
1921, 870.00
1922, 870.00
1923, 870.00
1924, 870.00
1925, 870.00
1926, 870.00
1927, 870.00
1928, 869.00
1929, 870.00
1930, 869.00
1931, 870.00
1932, 870.00
1933, 870.00
1934, 870.00
1935, 870.00
1936, 870.00
1937, 871.00
1938, 870.00
1939, 870.00
1940, 870.00
1941, 870.00
1942, 871.00
1943, 871.00
1944, 871.00
1945, 871.00
1946, 871.00
1947, 871.00
1948, 871.00
1949, 871.00
1950, 872.00
1951, 872.00
1952, 872.00
1953, 872.00
1954, 872.00
1955, 872.00
1956, 872.00
1957, 872.00
1958, 873.00
1959, 872.00
1960, 872.00
1961, 874.00
1962, 873.00
1963, 873.00
1964, 873.00
1965, 873.00
1966, 874.00
1967, 874.00
1968, 874.00
1969, 874.00
1970, 875.00
1971, 874.00
1972, 875.00
1973, 874.00
1974, 875.00
1975, 876.00
1976, 876.00
1977, 876.00
1978, 876.00
1979, 877.00
1980, 876.00
1981, 877.00
1982, 877.00
1983, 878.00
1984, 877.00
1985, 877.00
1986, 878.00
1987, 878.00
1988, 879.00
1989, 878.00
1990, 878.00
1991, 879.00
1992, 879.00
1993, 879.00
1994, 879.00
1995, 879.00
1996, 880.00
1997, 881.00
1998, 880.00
1999, 880.00
2000, 881.00
2001, 881.00
2002, 882.00
2003, 882.00
2004, 882.00
2005, 882.00
2006, 883.00
2007, 882.00
2008, 883.00
2009, 883.00
2010, 883.00
2011, 884.00
2012, 883.00
2013, 884.00
2014, 884.00
2015, 885.00
2016, 884.00
2017, 885.00
2018, 885.00
2019, 885.00
2020, 885.00
2021, 886.00
2022, 886.00
2023, 886.00
2024, 886.00
2025, 886.00
2026, 887.00
2027, 887.00
2028, 887.00
2029, 887.00
2030, 888.00
2031, 887.00
2032, 889.00
2033, 889.00
2034, 889.00
2035, 889.00
2036, 890.00
2037, 889.00
2038, 890.00
2039, 890.00
2040, 890.00
2041, 890.00
2042, 891.00
2043, 892.00
2044, 892.00
2045, 892.00
2046, 893.00
2047, 893.00
2048, 893.00
2049, 893.00
2050, 894.00
2051, 894.00
2052, 894.00
2053, 894.00
2054, 895.00
2055, 895.00
2056, 895.00
2057, 896.00
2058, 896.00
2059, 896.00
2060, 896.00
2061, 897.00
2062, 898.00
2063, 897.00
2064, 898.00
2065, 898.00
2066, 899.00
2067, 899.00
2068, 899.00
2069, 899.00
2070, 900.00
2071, 900.00
2072, 901.00
2073, 901.00
2074, 901.00
2075, 901.00
2076, 902.00
2077, 902.00
2078, 903.00
2079, 903.00
2080, 904.00
2081, 904.00
2082, 904.00
2083, 904.00
2084, 904.00
2085, 906.00
2086, 905.00
2087, 905.00
2088, 906.00
2089, 906.00
2090, 906.00
2091, 906.00
2092, 907.00
2093, 907.00
2094, 907.00
2095, 907.00
2096, 907.00
2097, 908.00
2098, 908.00
2099, 907.00
2100, 908.00
2101, 909.00
2102, 908.00
2103, 909.00
2104, 909.00
2105, 909.00
2106, 910.00
2107, 910.00
2108, 910.00
2109, 910.00
2110, 911.00
2111, 910.00
2112, 910.00
2113, 910.00
2114, 911.00
2115, 911.00
2116, 911.00
2117, 911.00
2118, 912.00
2119, 911.00
2120, 912.00
2121, 911.00
2122, 913.00
2123, 912.00
2124, 912.00
2125, 912.00
2126, 913.00
2127, 913.00
2128, 912.00
2129, 913.00
2130, 913.00
2131, 913.00
2132, 914.00
2133, 914.00
2134, 914.00
2135, 914.00
2136, 914.00
2137, 914.00
2138, 914.00
2139, 914.00
2140, 914.00
2141, 915.00
2142, 915.00
2143, 915.00
2144, 914.00
2145, 915.00
2146, 916.00
2147, 915.00
2148, 915.00
2149, 916.00
2150, 916.00
