FW version: 24
Log Version: 3.0.3

General Info:
       Command/Macro Performed,            Timestamp,             Device ID, COM Port, UART/I2C, Test Name, Host Major, Host Minor, Host Revision, Host Git Commit
            Single_measurement,  2023_06_28_11_57_15,       Insight2_F4_xxx,    USB-C,      USB,          ,          0,          1,             1,      4031237645

Show Spectrometer Status:
l0_version, f4_version, battery_perc, battery_mVolt, accelerometer_temp, accelerometer_x, accelerometer_y, accelerometer_z, compass_temp, compass_x, compass_y, compass_z, lamp_0, lamp_1, gain_0, gain_1
        17,         24,           47,          1901,               6576,           65232,            1296,           18664,            0,     65495,     65439,     18668,   3276,   3276,      1,      1

Temperature Statistic Info:
NTC AVG [°C], NTC2 AVG [°C]
      40.617,        40.292

Statistic Info:
M1:  num,      min,      max,   median,      AVG,      STD,M2:  num,      min,      max,   median,      AVG,      STD
     301,  1943.00,  2241.00,  2004.00,  2041.35,  92.4174,     401,  2516.00,  2696.00,  2591.00,  2594.99,  58.4582,

Measurements:
Wavelength, Data Amplitude
1350, 1998.00
1351, 1999.00
1352, 1996.00
1353, 1997.00
1354, 1994.00
1355, 1993.00
1356, 1993.00
1357, 1993.00
1358, 1991.00
1359, 1989.00
1360, 1989.00
1361, 1987.00
1362, 1986.00
1363, 1983.00
1364, 1982.00
1365, 1980.00
1366, 1980.00
1367, 1979.00
1368, 1977.00
1369, 1974.00
1370, 1975.00
1371, 1972.00
1372, 1970.00
1373, 1969.00
1374, 1969.00
1375, 1967.00
1376, 1965.00
1377, 1963.00
1378, 1962.00
1379, 1961.00
1380, 1961.00
1381, 1960.00
1382, 1959.00
1383, 1957.00
1384, 1957.00
1385, 1956.00
1386, 1955.00
1387, 1954.00
1388, 1954.00
1389, 1952.00
1390, 1953.00
1391, 1951.00
1392, 1950.00
1393, 1951.00
1394, 1950.00
1395, 1950.00
1396, 1950.00
1397, 1949.00
1398, 1949.00
1399, 1947.00
1400, 1947.00
1401, 1947.00
1402, 1948.00
1403, 1947.00
1404, 1946.00
1405, 1946.00
1406, 1946.00
1407, 1946.00
1408, 1945.00
1409, 1946.00
1410, 1945.00
1411, 1944.00
1412, 1946.00
1413, 1945.00
1414, 1944.00
1415, 1944.00
1416, 1944.00
1417, 1944.00
1418, 1945.00
1419, 1944.00
1420, 1944.00
1421, 1945.00
1422, 1944.00
1423, 1944.00
1424, 1944.00
1425, 1943.00
1426, 1945.00
1427, 1945.00
1428, 1946.00
1429, 1944.00
1430, 1945.00
1431, 1945.00
1432, 1946.00
1433, 1946.00
1434, 1947.00
1435, 1947.00
1436, 1947.00
1437, 1947.00
1438, 1949.00
1439, 1948.00
1440, 1949.00
1441, 1949.00
1442, 1951.00
1443, 1951.00
1444, 1951.00
1445, 1952.00
1446, 1952.00
1447, 1953.00
1448, 1953.00
1449, 1953.00
1450, 1955.00
1451, 1955.00
1452, 1956.00
1453, 1957.00
1454, 1957.00
1455, 1957.00
1456, 1959.00
1457, 1960.00
1458, 1960.00
1459, 1960.00
1460, 1961.00
1461, 1961.00
1462, 1962.00
1463, 1963.00
1464, 1964.00
1465, 1965.00
1466, 1966.00
1467, 1967.00
1468, 1968.00
1469, 1969.00
1470, 1969.00
1471, 1972.00
1472, 1974.00
1473, 1973.00
1474, 1975.00
1475, 1975.00
1476, 1977.00
1477, 1977.00
1478, 1978.00
1479, 1980.00
1480, 1981.00
1481, 1982.00
1482, 1985.00
1483, 1985.00
1484, 1986.00
1485, 1987.00
1486, 1988.00
1487, 1989.00
1488, 1991.00
1489, 1991.00
1490, 1993.00
1491, 1993.00
1492, 1994.00
1493, 1996.00
1494, 1997.00
1495, 1997.00
1496, 1999.00
1497, 2000.00
1498, 2003.00
1499, 2003.00
1500, 2004.00
1501, 2005.00
1502, 2007.00
1503, 2008.00
1504, 2009.00
1505, 2010.00
1506, 2011.00
1507, 2013.00
1508, 2013.00
1509, 2015.00
1510, 2016.00
1511, 2018.00
1512, 2020.00
1513, 2021.00
1514, 2022.00
1515, 2023.00
1516, 2026.00
1517, 2026.00
1518, 2029.00
1519, 2030.00
1520, 2031.00
1521, 2032.00
1522, 2033.00
1523, 2034.00
1524, 2037.00
1525, 2037.00
1526, 2038.00
1527, 2040.00
1528, 2042.00
1529, 2043.00
1530, 2045.00
1531, 2046.00
1532, 2048.00
1533, 2051.00
1534, 2051.00
1535, 2053.00
1536, 2054.00
1537, 2055.00
1538, 2058.00
1539, 2059.00
1540, 2060.00
1541, 2062.00
1542, 2063.00
1543, 2064.00
1544, 2066.00
1545, 2068.00
1546, 2070.00
1547, 2072.00
1548, 2072.00
1549, 2074.00
1550, 2075.00
1551, 2078.00
1552, 2079.00
1553, 2080.00
1554, 2082.00
1555, 2083.00
1556, 2085.00
1557, 2087.00
1558, 2089.00
1559, 2090.00
1560, 2091.00
1561, 2093.00
1562, 2095.00
1563, 2097.00
1564, 2099.00
1565, 2099.00
1566, 2102.00
1567, 2105.00
1568, 2105.00
1569, 2107.00
1570, 2109.00
1571, 2111.00
1572, 2113.00
1573, 2114.00
1574, 2116.00
1575, 2119.00
1576, 2119.00
1577, 2121.00
1578, 2123.00
1579, 2125.00
1580, 2125.00
1581, 2127.00
1582, 2129.00
1583, 2131.00
1584, 2132.00
1585, 2133.00
1586, 2134.00
1587, 2135.00
1588, 2137.00
1589, 2139.00
1590, 2139.00
1591, 2141.00
1592, 2143.00
1593, 2145.00
1594, 2146.00
1595, 2148.00
1596, 2150.00
1597, 2151.00
1598, 2153.00
1599, 2154.00
1600, 2156.00
1601, 2157.00
1602, 2157.00
1603, 2160.00
1604, 2160.00
1605, 2163.00
1606, 2164.00
1607, 2167.00
1608, 2169.00
1609, 2170.00
1610, 2172.00
1611, 2174.00
1612, 2176.00
1613, 2177.00
1614, 2180.00
1615, 2182.00
1616, 2184.00
1617, 2185.00
1618, 2186.00
1619, 2189.00
1620, 2192.00
1621, 2193.00
1622, 2194.00
1623, 2196.00
1624, 2198.00
1625, 2200.00
1626, 2203.00
1627, 2204.00
1628, 2205.00
1629, 2207.00
1630, 2209.00
1631, 2209.00
1632, 2213.00
1633, 2213.00
1634, 2215.00
1635, 2217.00
1636, 2217.00
1637, 2220.00
1638, 2222.00
1639, 2223.00
1640, 2225.00
1641, 2227.00
1642, 2227.00
1643, 2229.00
1644, 2232.00
1645, 2232.00
1646, 2233.00
1647, 2236.00
1648, 2237.00
1649, 2239.00
1650, 2241.00

1750, 2695.00
1751, 2695.00
1752, 2693.00
1753, 2695.00
1754, 2693.00
1755, 2694.00
1756, 2696.00
1757, 2695.00
1758, 2694.00
1759, 2694.00
1760, 2694.00
1761, 2694.00
1762, 2694.00
1763, 2693.00
1764, 2693.00
1765, 2695.00
1766, 2692.00
1767, 2693.00
1768, 2693.00
1769, 2691.00
1770, 2690.00
1771, 2692.00
1772, 2693.00
1773, 2689.00
1774, 2690.00
1775, 2689.00
1776, 2688.00
1777, 2687.00
1778, 2687.00
1779, 2686.00
1780, 2686.00
1781, 2687.00
1782, 2684.00
1783, 2687.00
1784, 2686.00
1785, 2684.00
1786, 2684.00
1787, 2682.00
1788, 2683.00
1789, 2681.00
1790, 2681.00
1791, 2679.00
1792, 2678.00
1793, 2679.00
1794, 2677.00
1795, 2677.00
1796, 2677.00
1797, 2674.00
1798, 2675.00
1799, 2675.00
1800, 2676.00
1801, 2673.00
1802, 2673.00
1803, 2675.00
1804, 2672.00
1805, 2672.00
1806, 2670.00
1807, 2670.00
1808, 2671.00
1809, 2669.00
1810, 2668.00
1811, 2669.00
1812, 2666.00
1813, 2667.00
1814, 2665.00
1815, 2665.00
1816, 2664.00
1817, 2663.00
1818, 2661.00
1819, 2662.00
1820, 2659.00
1821, 2658.00
1822, 2657.00
1823, 2655.00
1824, 2653.00
1825, 2654.00
1826, 2651.00
1827, 2650.00
1828, 2649.00
1829, 2649.00
1830, 2646.00
1831, 2643.00
1832, 2640.00
1833, 2639.00
1834, 2637.00
1835, 2635.00
1836, 2633.00
1837, 2633.00
1838, 2626.00
1839, 2629.00
1840, 2625.00
1841, 2622.00
1842, 2620.00
1843, 2615.00
1844, 2615.00
1845, 2613.00
1846, 2609.00
1847, 2605.00
1848, 2604.00
1849, 2599.00
1850, 2596.00
1851, 2595.00
1852, 2591.00
1853, 2591.00
1854, 2586.00
1855, 2583.00
1856, 2580.00
1857, 2578.00
1858, 2575.00
1859, 2573.00
1860, 2569.00
1861, 2569.00
1862, 2564.00
1863, 2562.00
1864, 2560.00
1865, 2557.00
1866, 2557.00
1867, 2555.00
1868, 2553.00
1869, 2551.00
1870, 2551.00
1871, 2548.00
1872, 2546.00
1873, 2547.00
1874, 2544.00
1875, 2543.00
1876, 2542.00
1877, 2539.00
1878, 2539.00
1879, 2537.00
1880, 2537.00
1881, 2536.00
1882, 2536.00
1883, 2535.00
1884, 2532.00
1885, 2533.00
1886, 2533.00
1887, 2530.00
1888, 2529.00
1889, 2528.00
1890, 2529.00
1891, 2527.00
1892, 2527.00
1893, 2526.00
1894, 2526.00
1895, 2526.00
1896, 2525.00
1897, 2525.00
1898, 2523.00
1899, 2523.00
1900, 2523.00
1901, 2521.00
1902, 2524.00
1903, 2521.00
1904, 2522.00
1905, 2521.00
1906, 2519.00
1907, 2520.00
1908, 2522.00
1909, 2519.00
1910, 2519.00
1911, 2519.00
1912, 2520.00
1913, 2520.00
1914, 2517.00
1915, 2520.00
1916, 2520.00
1917, 2517.00
1918, 2518.00
1919, 2519.00
1920, 2519.00
1921, 2518.00
1922, 2519.00
1923, 2520.00
1924, 2518.00
1925, 2518.00
1926, 2518.00
1927, 2519.00
1928, 2517.00
1929, 2517.00
1930, 2516.00
1931, 2517.00
1932, 2520.00
1933, 2519.00
1934, 2517.00
1935, 2518.00
1936, 2521.00
1937, 2516.00
1938, 2522.00
1939, 2520.00
1940, 2519.00
1941, 2519.00
1942, 2518.00
1943, 2520.00
1944, 2519.00
1945, 2520.00
1946, 2522.00
1947, 2521.00
1948, 2521.00
1949, 2523.00
1950, 2523.00
1951, 2522.00
1952, 2524.00
1953, 2525.00
1954, 2525.00
1955, 2524.00
1956, 2526.00
1957, 2525.00
1958, 2523.00
1959, 2526.00
1960, 2526.00
1961, 2527.00
1962, 2527.00
1963, 2529.00
1964, 2529.00
1965, 2528.00
1966, 2531.00
1967, 2530.00
1968, 2533.00
1969, 2531.00
1970, 2532.00
1971, 2533.00
1972, 2533.00
1973, 2534.00
1974, 2536.00
1975, 2534.00
1976, 2536.00
1977, 2537.00
1978, 2537.00
1979, 2538.00
1980, 2537.00
1981, 2538.00
1982, 2539.00
1983, 2540.00
1984, 2543.00
1985, 2541.00
1986, 2543.00
1987, 2543.00
1988, 2545.00
1989, 2544.00
1990, 2544.00
1991, 2546.00
1992, 2547.00
1993, 2547.00
1994, 2548.00
1995, 2548.00
1996, 2548.00
1997, 2550.00
1998, 2550.00
1999, 2551.00
2000, 2550.00
2001, 2551.00
2002, 2551.00
2003, 2552.00
2004, 2554.00
2005, 2553.00
2006, 2555.00
2007, 2554.00
2008, 2556.00
2009, 2557.00
2010, 2558.00
2011, 2558.00
2012, 2558.00
2013, 2560.00
2014, 2561.00
2015, 2559.00
2016, 2561.00
2017, 2561.00
2018, 2561.00
2019, 2564.00
2020, 2565.00
2021, 2567.00
2022, 2566.00
2023, 2567.00
2024, 2566.00
2025, 2564.00
2026, 2568.00
2027, 2569.00
2028, 2569.00
2029, 2569.00
2030, 2572.00
2031, 2572.00
2032, 2572.00
2033, 2574.00
2034, 2574.00
2035, 2575.00
2036, 2575.00
2037, 2575.00
2038, 2576.00
2039, 2577.00
2040, 2579.00
2041, 2579.00
2042, 2580.00
2043, 2581.00
2044, 2581.00
2045, 2582.00
2046, 2582.00
2047, 2584.00
2048, 2584.00
2049, 2587.00
2050, 2589.00
2051, 2589.00
2052, 2587.00
2053, 2589.00
2054, 2591.00
2055, 2593.00
2056, 2593.00
2057, 2593.00
2058, 2594.00
2059, 2595.00
2060, 2598.00
2061, 2599.00
2062, 2599.00
2063, 2601.00
2064, 2600.00
2065, 2599.00
2066, 2604.00
2067, 2603.00
2068, 2605.00
2069, 2605.00
2070, 2607.00
2071, 2608.00
2072, 2606.00
2073, 2609.00
2074, 2610.00
2075, 2612.00
2076, 2611.00
2077, 2615.00
2078, 2614.00
2079, 2613.00
2080, 2615.00
2081, 2617.00
2082, 2618.00
2083, 2619.00
2084, 2619.00
2085, 2619.00
2086, 2620.00
2087, 2619.00
2088, 2621.00
2089, 2624.00
2090, 2624.00
2091, 2626.00
2092, 2625.00
2093, 2628.00
2094, 2627.00
2095, 2626.00
2096, 2631.00
2097, 2628.00
2098, 2629.00
2099, 2629.00
2100, 2629.00
2101, 2631.00
2102, 2634.00
2103, 2631.00
2104, 2633.00
2105, 2631.00
2106, 2633.00
2107, 2634.00
2108, 2635.00
2109, 2635.00
2110, 2636.00
2111, 2636.00
2112, 2638.00
2113, 2637.00
2114, 2639.00
2115, 2640.00
2116, 2638.00
2117, 2638.00
2118, 2639.00
2119, 2640.00
2120, 2641.00
2121, 2643.00
2122, 2642.00
2123, 2640.00
2124, 2644.00
2125, 2643.00
2126, 2644.00
2127, 2642.00
2128, 2643.00
2129, 2643.00
2130, 2645.00
2131, 2645.00
2132, 2644.00
2133, 2643.00
2134, 2647.00
2135, 2645.00
2136, 2649.00
2137, 2648.00
2138, 2648.00
2139, 2647.00
2140, 2649.00
2141, 2648.00
2142, 2648.00
2143, 2649.00
2144, 2650.00
2145, 2651.00
2146, 2650.00
2147, 2650.00
2148, 2651.00
2149, 2651.00
2150, 2650.00
