FW version: 24
Log Version: 3.0.3

General Info:
       Command/Macro Performed,            Timestamp,             Device ID, COM Port, UART/I2C, Test Name, Host Major, Host Minor, Host Revision, Host Git Commit
            Single_measurement,  2023_06_28_11_57_07,       Insight2_F4_xxx,    USB-C,      USB,          ,          0,          1,             1,      4031237645

Show Spectrometer Status:
l0_version, f4_version, battery_perc, battery_mVolt, accelerometer_temp, accelerometer_x, accelerometer_y, accelerometer_z, compass_temp, compass_x, compass_y, compass_z, lamp_0, lamp_1, gain_0, gain_1
        17,         24,           47,          1902,               6560,           65272,            1308,           18712,            0,     65530,     65439,     18747,   3276,   3276,      1,      1

Temperature Statistic Info:
NTC AVG [°C], NTC2 AVG [°C]
      40.587,        40.233

Statistic Info:
M1:  num,      min,      max,   median,      AVG,      STD,M2:  num,      min,      max,   median,      AVG,      STD
     301,  1944.00,  2241.00,  2004.00,  2042.28,  92.4955,     401,  2517.00,  2697.00,  2590.00,  2595.74,  58.5597,

Measurements:
Wavelength, Data Amplitude
1350, 2000.00
1351, 1999.00
1352, 1997.00
1353, 1998.00
1354, 1997.00
1355, 1995.00
1356, 1993.00
1357, 1994.00
1358, 1991.00
1359, 1990.00
1360, 1988.00
1361, 1987.00
1362, 1987.00
1363, 1985.00
1364, 1983.00
1365, 1982.00
1366, 1981.00
1367, 1979.00
1368, 1977.00
1369, 1977.00
1370, 1975.00
1371, 1973.00
1372, 1972.00
1373, 1969.00
1374, 1969.00
1375, 1967.00
1376, 1967.00
1377, 1966.00
1378, 1963.00
1379, 1963.00
1380, 1962.00
1381, 1961.00
1382, 1960.00
1383, 1959.00
1384, 1958.00
1385, 1957.00
1386, 1955.00
1387, 1955.00
1388, 1954.00
1389, 1954.00
1390, 1955.00
1391, 1953.00
1392, 1952.00
1393, 1952.00
1394, 1951.00
1395, 1950.00
1396, 1951.00
1397, 1950.00
1398, 1949.00
1399, 1949.00
1400, 1949.00
1401, 1949.00
1402, 1948.00
1403, 1947.00
1404, 1948.00
1405, 1947.00
1406, 1948.00
1407, 1946.00
1408, 1945.00
1409, 1946.00
1410, 1947.00
1411, 1945.00
1412, 1946.00
1413, 1945.00
1414, 1946.00
1415, 1944.00
1416, 1945.00
1417, 1946.00
1418, 1945.00
1419, 1946.00
1420, 1944.00
1421, 1945.00
1422, 1945.00
1423, 1945.00
1424, 1947.00
1425, 1946.00
1426, 1945.00
1427, 1946.00
1428, 1946.00
1429, 1946.00
1430, 1946.00
1431, 1947.00
1432, 1947.00
1433, 1948.00
1434, 1947.00
1435, 1947.00
1436, 1949.00
1437, 1949.00
1438, 1949.00
1439, 1950.00
1440, 1950.00
1441, 1951.00
1442, 1950.00
1443, 1950.00
1444, 1951.00
1445, 1953.00
1446, 1953.00
1447, 1953.00
1448, 1955.00
1449, 1955.00
1450, 1955.00
1451, 1955.00
1452, 1956.00
1453, 1957.00
1454, 1958.00
1455, 1958.00
1456, 1959.00
1457, 1960.00
1458, 1961.00
1459, 1961.00
1460, 1962.00
1461, 1964.00
1462, 1963.00
1463, 1964.00
1464, 1965.00
1465, 1966.00
1466, 1967.00
1467, 1968.00
1468, 1968.00
1469, 1971.00
1470, 1971.00
1471, 1972.00
1472, 1972.00
1473, 1973.00
1474, 1975.00
1475, 1976.00
1476, 1976.00
1477, 1977.00
1478, 1979.00
1479, 1980.00
1480, 1981.00
1481, 1983.00
1482, 1983.00
1483, 1985.00
1484, 1985.00
1485, 1986.00
1486, 1989.00
1487, 1989.00
1488, 1991.00
1489, 1991.00
1490, 1993.00
1491, 1994.00
1492, 1995.00
1493, 1998.00
1494, 1997.00
1495, 1999.00
1496, 1999.00
1497, 2001.00
1498, 2002.00
1499, 2004.00
1500, 2004.00
1501, 2007.00
1502, 2008.00
1503, 2008.00
1504, 2010.00
1505, 2012.00
1506, 2012.00
1507, 2014.00
1508, 2015.00
1509, 2017.00
1510, 2017.00
1511, 2019.00
1512, 2020.00
1513, 2020.00
1514, 2024.00
1515, 2024.00
1516, 2026.00
1517, 2027.00
1518, 2029.00
1519, 2030.00
1520, 2031.00
1521, 2033.00
1522, 2034.00
1523, 2035.00
1524, 2037.00
1525, 2038.00
1526, 2041.00
1527, 2042.00
1528, 2042.00
1529, 2045.00
1530, 2046.00
1531, 2048.00
1532, 2049.00
1533, 2052.00
1534, 2052.00
1535, 2054.00
1536, 2055.00
1537, 2056.00
1538, 2059.00
1539, 2060.00
1540, 2060.00
1541, 2063.00
1542, 2065.00
1543, 2066.00
1544, 2068.00
1545, 2069.00
1546, 2071.00
1547, 2071.00
1548, 2073.00
1549, 2075.00
1550, 2076.00
1551, 2078.00
1552, 2080.00
1553, 2082.00
1554, 2083.00
1555, 2084.00
1556, 2087.00
1557, 2088.00
1558, 2089.00
1559, 2090.00
1560, 2093.00
1561, 2095.00
1562, 2097.00
1563, 2099.00
1564, 2100.00
1565, 2101.00
1566, 2103.00
1567, 2105.00
1568, 2107.00
1569, 2109.00
1570, 2110.00
1571, 2112.00
1572, 2113.00
1573, 2115.00
1574, 2117.00
1575, 2118.00
1576, 2120.00
1577, 2122.00
1578, 2123.00
1579, 2125.00
1580, 2125.00
1581, 2129.00
1582, 2129.00
1583, 2131.00
1584, 2133.00
1585, 2134.00
1586, 2135.00
1587, 2137.00
1588, 2137.00
1589, 2141.00
1590, 2141.00
1591, 2143.00
1592, 2145.00
1593, 2145.00
1594, 2148.00
1595, 2149.00
1596, 2150.00
1597, 2152.00
1598, 2153.00
1599, 2155.00
1600, 2157.00
1601, 2157.00
1602, 2159.00
1603, 2161.00
1604, 2163.00
1605, 2164.00
1606, 2166.00
1607, 2169.00
1608, 2169.00
1609, 2172.00
1610, 2173.00
1611, 2175.00
1612, 2177.00
1613, 2178.00
1614, 2180.00
1615, 2182.00
1616, 2184.00
1617, 2186.00
1618, 2188.00
1619, 2190.00
1620, 2192.00
1621, 2193.00
1622, 2194.00
1623, 2198.00
1624, 2198.00
1625, 2202.00
1626, 2204.00
1627, 2204.00
1628, 2206.00
1629, 2208.00
1630, 2209.00
1631, 2212.00
1632, 2213.00
1633, 2214.00
1634, 2217.00
1635, 2219.00
1636, 2219.00
1637, 2222.00
1638, 2223.00
1639, 2224.00
1640, 2226.00
1641, 2227.00
1642, 2229.00
1643, 2231.00
1644, 2233.00
1645, 2234.00
1646, 2235.00
1647, 2235.00
1648, 2239.00
1649, 2240.00
1650, 2241.00

1750, 2695.00
1751, 2696.00
1752, 2696.00
1753, 2697.00
1754, 2694.00
1755, 2695.00
1756, 2695.00
1757, 2695.00
1758, 2695.00
1759, 2695.00
1760, 2696.00
1761, 2694.00
1762, 2693.00
1763, 2694.00
1764, 2691.00
1765, 2693.00
1766, 2693.00
1767, 2693.00
1768, 2693.00
1769, 2689.00
1770, 2693.00
1771, 2691.00
1772, 2692.00
1773, 2690.00
1774, 2689.00
1775, 2691.00
1776, 2688.00
1777, 2688.00
1778, 2690.00
1779, 2687.00
1780, 2688.00
1781, 2688.00
1782, 2683.00
1783, 2685.00
1784, 2685.00
1785, 2685.00
1786, 2685.00
1787, 2685.00
1788, 2684.00
1789, 2681.00
1790, 2680.00
1791, 2678.00
1792, 2681.00
1793, 2678.00
1794, 2679.00
1795, 2678.00
1796, 2677.00
1797, 2679.00
1798, 2677.00
1799, 2677.00
1800, 2676.00
1801, 2673.00
1802, 2674.00
1803, 2672.00
1804, 2673.00
1805, 2673.00
1806, 2672.00
1807, 2671.00
1808, 2670.00
1809, 2669.00
1810, 2671.00
1811, 2670.00
1812, 2669.00
1813, 2670.00
1814, 2667.00
1815, 2667.00
1816, 2664.00
1817, 2663.00
1818, 2663.00
1819, 2661.00
1820, 2662.00
1821, 2659.00
1822, 2658.00
1823, 2656.00
1824, 2655.00
1825, 2656.00
1826, 2656.00
1827, 2650.00
1828, 2649.00
1829, 2649.00
1830, 2647.00
1831, 2644.00
1832, 2643.00
1833, 2640.00
1834, 2640.00
1835, 2636.00
1836, 2634.00
1837, 2632.00
1838, 2629.00
1839, 2627.00
1840, 2625.00
1841, 2621.00
1842, 2621.00
1843, 2618.00
1844, 2612.00
1845, 2611.00
1846, 2609.00
1847, 2606.00
1848, 2605.00
1849, 2600.00
1850, 2597.00
1851, 2595.00
1852, 2593.00
1853, 2589.00
1854, 2587.00
1855, 2584.00
1856, 2582.00
1857, 2579.00
1858, 2576.00
1859, 2572.00
1860, 2573.00
1861, 2569.00
1862, 2566.00
1863, 2564.00
1864, 2564.00
1865, 2561.00
1866, 2557.00
1867, 2557.00
1868, 2552.00
1869, 2552.00
1870, 2550.00
1871, 2548.00
1872, 2546.00
1873, 2545.00
1874, 2544.00
1875, 2544.00
1876, 2540.00
1877, 2540.00
1878, 2539.00
1879, 2536.00
1880, 2537.00
1881, 2535.00
1882, 2538.00
1883, 2532.00
1884, 2532.00
1885, 2534.00
1886, 2533.00
1887, 2532.00
1888, 2528.00
1889, 2529.00
1890, 2529.00
1891, 2529.00
1892, 2527.00
1893, 2528.00
1894, 2525.00
1895, 2528.00
1896, 2527.00
1897, 2526.00
1898, 2525.00
1899, 2525.00
1900, 2523.00
1901, 2525.00
1902, 2523.00
1903, 2524.00
1904, 2521.00
1905, 2523.00
1906, 2520.00
1907, 2523.00
1908, 2520.00
1909, 2521.00
1910, 2520.00
1911, 2517.00
1912, 2522.00
1913, 2521.00
1914, 2520.00
1915, 2519.00
1916, 2518.00
1917, 2519.00
1918, 2517.00
1919, 2519.00
1920, 2519.00
1921, 2518.00
1922, 2520.00
1923, 2519.00
1924, 2517.00
1925, 2518.00
1926, 2520.00
1927, 2519.00
1928, 2519.00
1929, 2520.00
1930, 2519.00
1931, 2519.00
1932, 2519.00
1933, 2520.00
1934, 2519.00
1935, 2520.00
1936, 2520.00
1937, 2519.00
1938, 2519.00
1939, 2521.00
1940, 2521.00
1941, 2520.00
1942, 2521.00
1943, 2519.00
1944, 2519.00
1945, 2520.00
1946, 2523.00
1947, 2523.00
1948, 2521.00
1949, 2524.00
1950, 2522.00
1951, 2523.00
1952, 2523.00
1953, 2522.00
1954, 2525.00
1955, 2525.00
1956, 2526.00
1957, 2524.00
1958, 2527.00
1959, 2527.00
1960, 2528.00
1961, 2528.00
1962, 2527.00
1963, 2528.00
1964, 2529.00
1965, 2531.00
1966, 2530.00
1967, 2530.00
1968, 2531.00
1969, 2532.00
1970, 2533.00
1971, 2534.00
1972, 2535.00
1973, 2535.00
1974, 2536.00
1975, 2535.00
1976, 2537.00
1977, 2535.00
1978, 2537.00
1979, 2538.00
1980, 2539.00
1981, 2540.00
1982, 2539.00
1983, 2541.00
1984, 2541.00
1985, 2543.00
1986, 2543.00
1987, 2541.00
1988, 2544.00
1989, 2546.00
1990, 2544.00
1991, 2548.00
1992, 2546.00
1993, 2549.00
1994, 2549.00
1995, 2547.00
1996, 2549.00
1997, 2548.00
1998, 2549.00
1999, 2550.00
2000, 2555.00
2001, 2553.00
2002, 2553.00
2003, 2554.00
2004, 2554.00
2005, 2556.00
2006, 2557.00
2007, 2557.00
2008, 2557.00
2009, 2557.00
2010, 2559.00
2011, 2558.00
2012, 2559.00
2013, 2560.00
2014, 2561.00
2015, 2561.00
2016, 2560.00
2017, 2562.00
2018, 2562.00
2019, 2564.00
2020, 2565.00
2021, 2563.00
2022, 2564.00
2023, 2564.00
2024, 2567.00
2025, 2568.00
2026, 2569.00
2027, 2569.00
2028, 2569.00
2029, 2570.00
2030, 2572.00
2031, 2572.00
2032, 2571.00
2033, 2573.00
2034, 2573.00
2035, 2573.00
2036, 2574.00
2037, 2576.00
2038, 2576.00
2039, 2577.00
2040, 2581.00
2041, 2582.00
2042, 2582.00
2043, 2584.00
2044, 2582.00
2045, 2582.00
2046, 2585.00
2047, 2585.00
2048, 2586.00
2049, 2587.00
2050, 2589.00
2051, 2589.00
2052, 2590.00
2053, 2589.00
2054, 2591.00
2055, 2594.00
2056, 2596.00
2057, 2595.00
2058, 2597.00
2059, 2598.00
2060, 2599.00
2061, 2600.00
2062, 2600.00
2063, 2601.00
2064, 2601.00
2065, 2602.00
2066, 2603.00
2067, 2603.00
2068, 2605.00
2069, 2605.00
2070, 2607.00
2071, 2609.00
2072, 2612.00
2073, 2612.00
2074, 2612.00
2075, 2611.00
2076, 2614.00
2077, 2613.00
2078, 2613.00
2079, 2615.00
2080, 2616.00
2081, 2619.00
2082, 2618.00
2083, 2620.00
2084, 2622.00
2085, 2622.00
2086, 2623.00
2087, 2621.00
2088, 2625.00
2089, 2626.00
2090, 2625.00
2091, 2626.00
2092, 2627.00
2093, 2628.00
2094, 2626.00
2095, 2628.00
2096, 2629.00
2097, 2628.00
2098, 2631.00
2099, 2630.00
2100, 2631.00
2101, 2631.00
2102, 2631.00
2103, 2631.00
2104, 2634.00
2105, 2634.00
2106, 2636.00
2107, 2638.00
2108, 2638.00
2109, 2636.00
2110, 2637.00
2111, 2636.00
2112, 2639.00
2113, 2637.00
2114, 2641.00
2115, 2640.00
2116, 2639.00
2117, 2640.00
2118, 2642.00
2119, 2640.00
2120, 2642.00
2121, 2641.00
2122, 2644.00
2123, 2642.00
2124, 2643.00
2125, 2641.00
2126, 2643.00
2127, 2644.00
2128, 2644.00
2129, 2645.00
2130, 2645.00
2131, 2646.00
2132, 2648.00
2133, 2644.00
2134, 2647.00
2135, 2647.00
2136, 2648.00
2137, 2649.00
2138, 2646.00
2139, 2648.00
2140, 2649.00
2141, 2647.00
2142, 2649.00
2143, 2650.00
2144, 2653.00
2145, 2650.00
2146, 2652.00
2147, 2652.00
2148, 2652.00
2149, 2651.00
2150, 2653.00
