FW version: 24
Log Version: 3.0.3

General Info:
       Command/Macro Performed,            Timestamp,             Device ID, COM Port, UART/I2C, Test Name, Host Major, Host Minor, Host Revision, Host Git Commit
            Single_measurement,  2023_06_28_11_56_48,       Insight2_F4_xxx,    USB-C,      USB,          ,          0,          1,             1,      4031237645

Show Spectrometer Status:
l0_version, f4_version, battery_perc, battery_mVolt, accelerometer_temp, accelerometer_x, accelerometer_y, accelerometer_z, compass_temp, compass_x, compass_y, compass_z, lamp_0, lamp_1, gain_0, gain_1
        17,         24,           47,          1903,               6592,           64956,             920,           18720,            0,     65534,     65436,     18736,   2866,   2866,      1,      1

Temperature Statistic Info:
NTC AVG [°C], NTC2 AVG [°C]
      40.411,        40.114

Statistic Info:
M1:  num,      min,      max,   median,      AVG,      STD,M2:  num,      min,      max,   median,      AVG,      STD
     301,  1512.00,  1751.00,  1561.00,  1590.44,  74.1521,     401,  2027.00,  2173.00,  2090.00,  2092.02,  47.5550,

Measurements:
Wavelength, Data Amplitude
1350, 1554.00
1351, 1552.00
1352, 1552.00
1353, 1552.00
1354, 1550.00
1355, 1551.00
1356, 1550.00
1357, 1549.00
1358, 1547.00
1359, 1546.00
1360, 1546.00
1361, 1544.00
1362, 1544.00
1363, 1542.00
1364, 1540.00
1365, 1540.00
1366, 1539.00
1367, 1539.00
1368, 1537.00
1369, 1537.00
1370, 1536.00
1371, 1534.00
1372, 1533.00
1373, 1532.00
1374, 1531.00
1375, 1530.00
1376, 1528.00
1377, 1527.00
1378, 1526.00
1379, 1525.00
1380, 1525.00
1381, 1525.00
1382, 1523.00
1383, 1524.00
1384, 1523.00
1385, 1521.00
1386, 1521.00
1387, 1520.00
1388, 1519.00
1389, 1519.00
1390, 1518.00
1391, 1517.00
1392, 1516.00
1393, 1517.00
1394, 1517.00
1395, 1516.00
1396, 1516.00
1397, 1516.00
1398, 1517.00
1399, 1515.00
1400, 1515.00
1401, 1515.00
1402, 1514.00
1403, 1514.00
1404, 1514.00
1405, 1513.00
1406, 1515.00
1407, 1514.00
1408, 1514.00
1409, 1512.00
1410, 1513.00
1411, 1514.00
1412, 1514.00
1413, 1514.00
1414, 1514.00
1415, 1514.00
1416, 1513.00
1417, 1513.00
1418, 1512.00
1419, 1513.00
1420, 1512.00
1421, 1513.00
1422, 1513.00
1423, 1513.00
1424, 1514.00
1425, 1513.00
1426, 1514.00
1427, 1514.00
1428, 1514.00
1429, 1514.00
1430, 1514.00
1431, 1514.00
1432, 1514.00
1433, 1514.00
1434, 1515.00
1435, 1515.00
1436, 1515.00
1437, 1515.00
1438, 1517.00
1439, 1517.00
1440, 1518.00
1441, 1518.00
1442, 1518.00
1443, 1518.00
1444, 1519.00
1445, 1519.00
1446, 1519.00
1447, 1520.00
1448, 1521.00
1449, 1521.00
1450, 1520.00
1451, 1521.00
1452, 1522.00
1453, 1523.00
1454, 1524.00
1455, 1523.00
1456, 1525.00
1457, 1525.00
1458, 1525.00
1459, 1526.00
1460, 1526.00
1461, 1527.00
1462, 1528.00
1463, 1528.00
1464, 1529.00
1465, 1530.00
1466, 1530.00
1467, 1531.00
1468, 1533.00
1469, 1532.00
1470, 1534.00
1471, 1534.00
1472, 1535.00
1473, 1536.00
1474, 1536.00
1475, 1538.00
1476, 1539.00
1477, 1540.00
1478, 1541.00
1479, 1541.00
1480, 1543.00
1481, 1543.00
1482, 1544.00
1483, 1546.00
1484, 1546.00
1485, 1546.00
1486, 1548.00
1487, 1549.00
1488, 1550.00
1489, 1550.00
1490, 1552.00
1491, 1553.00
1492, 1554.00
1493, 1554.00
1494, 1555.00
1495, 1557.00
1496, 1558.00
1497, 1559.00
1498, 1559.00
1499, 1560.00
1500, 1561.00
1501, 1562.00
1502, 1563.00
1503, 1563.00
1504, 1564.00
1505, 1566.00
1506, 1567.00
1507, 1568.00
1508, 1569.00
1509, 1569.00
1510, 1572.00
1511, 1572.00
1512, 1574.00
1513, 1575.00
1514, 1575.00
1515, 1576.00
1516, 1577.00
1517, 1579.00
1518, 1579.00
1519, 1581.00
1520, 1583.00
1521, 1584.00
1522, 1585.00
1523, 1586.00
1524, 1588.00
1525, 1588.00
1526, 1589.00
1527, 1590.00
1528, 1591.00
1529, 1592.00
1530, 1594.00
1531, 1596.00
1532, 1597.00
1533, 1599.00
1534, 1599.00
1535, 1601.00
1536, 1601.00
1537, 1603.00
1538, 1604.00
1539, 1605.00
1540, 1606.00
1541, 1606.00
1542, 1609.00
1543, 1610.00
1544, 1611.00
1545, 1613.00
1546, 1613.00
1547, 1614.00
1548, 1615.00
1549, 1617.00
1550, 1618.00
1551, 1619.00
1552, 1622.00
1553, 1622.00
1554, 1623.00
1555, 1624.00
1556, 1626.00
1557, 1627.00
1558, 1629.00
1559, 1630.00
1560, 1632.00
1561, 1632.00
1562, 1633.00
1563, 1634.00
1564, 1636.00
1565, 1638.00
1566, 1639.00
1567, 1640.00
1568, 1642.00
1569, 1644.00
1570, 1644.00
1571, 1646.00
1572, 1647.00
1573, 1649.00
1574, 1649.00
1575, 1651.00
1576, 1653.00
1577, 1653.00
1578, 1655.00
1579, 1656.00
1580, 1658.00
1581, 1660.00
1582, 1659.00
1583, 1661.00
1584, 1662.00
1585, 1663.00
1586, 1663.00
1587, 1666.00
1588, 1667.00
1589, 1668.00
1590, 1669.00
1591, 1671.00
1592, 1672.00
1593, 1673.00
1594, 1674.00
1595, 1675.00
1596, 1676.00
1597, 1677.00
1598, 1679.00
1599, 1680.00
1600, 1681.00
1601, 1683.00
1602, 1684.00
1603, 1685.00
1604, 1686.00
1605, 1687.00
1606, 1689.00
1607, 1691.00
1608, 1691.00
1609, 1694.00
1610, 1695.00
1611, 1697.00
1612, 1699.00
1613, 1699.00
1614, 1701.00
1615, 1703.00
1616, 1704.00
1617, 1706.00
1618, 1706.00
1619, 1709.00
1620, 1710.00
1621, 1712.00
1622, 1713.00
1623, 1715.00
1624, 1716.00
1625, 1718.00
1626, 1719.00
1627, 1721.00
1628, 1722.00
1629, 1723.00
1630, 1725.00
1631, 1726.00
1632, 1729.00
1633, 1729.00
1634, 1730.00
1635, 1733.00
1636, 1733.00
1637, 1734.00
1638, 1735.00
1639, 1737.00
1640, 1738.00
1641, 1739.00
1642, 1740.00
1643, 1742.00
1644, 1743.00
1645, 1745.00
1646, 1746.00
1647, 1747.00
1648, 1748.00
1649, 1750.00
1650, 1751.00

1750, 2171.00
1751, 2173.00
1752, 2170.00
1753, 2173.00
1754, 2172.00
1755, 2170.00
1756, 2172.00
1757, 2172.00
1758, 2173.00
1759, 2171.00
1760, 2170.00
1761, 2171.00
1762, 2170.00
1763, 2171.00
1764, 2171.00
1765, 2171.00
1766, 2168.00
1767, 2170.00
1768, 2171.00
1769, 2170.00
1770, 2168.00
1771, 2167.00
1772, 2167.00
1773, 2168.00
1774, 2169.00
1775, 2169.00
1776, 2165.00
1777, 2167.00
1778, 2167.00
1779, 2167.00
1780, 2166.00
1781, 2165.00
1782, 2164.00
1783, 2165.00
1784, 2163.00
1785, 2161.00
1786, 2163.00
1787, 2162.00
1788, 2161.00
1789, 2159.00
1790, 2161.00
1791, 2161.00
1792, 2159.00
1793, 2159.00
1794, 2160.00
1795, 2157.00
1796, 2157.00
1797, 2156.00
1798, 2157.00
1799, 2156.00
1800, 2155.00
1801, 2153.00
1802, 2155.00
1803, 2157.00
1804, 2155.00
1805, 2154.00
1806, 2153.00
1807, 2153.00
1808, 2150.00
1809, 2153.00
1810, 2152.00
1811, 2150.00
1812, 2148.00
1813, 2150.00
1814, 2147.00
1815, 2149.00
1816, 2147.00
1817, 2146.00
1818, 2145.00
1819, 2145.00
1820, 2146.00
1821, 2144.00
1822, 2141.00
1823, 2140.00
1824, 2140.00
1825, 2139.00
1826, 2137.00
1827, 2136.00
1828, 2136.00
1829, 2135.00
1830, 2129.00
1831, 2132.00
1832, 2129.00
1833, 2129.00
1834, 2126.00
1835, 2123.00
1836, 2122.00
1837, 2122.00
1838, 2118.00
1839, 2117.00
1840, 2114.00
1841, 2113.00
1842, 2109.00
1843, 2107.00
1844, 2106.00
1845, 2104.00
1846, 2102.00
1847, 2100.00
1848, 2099.00
1849, 2095.00
1850, 2091.00
1851, 2092.00
1852, 2090.00
1853, 2087.00
1854, 2083.00
1855, 2081.00
1856, 2081.00
1857, 2079.00
1858, 2075.00
1859, 2073.00
1860, 2070.00
1861, 2069.00
1862, 2069.00
1863, 2064.00
1864, 2065.00
1865, 2062.00
1866, 2061.00
1867, 2060.00
1868, 2058.00
1869, 2056.00
1870, 2054.00
1871, 2054.00
1872, 2052.00
1873, 2050.00
1874, 2048.00
1875, 2051.00
1876, 2047.00
1877, 2047.00
1878, 2045.00
1879, 2045.00
1880, 2045.00
1881, 2044.00
1882, 2044.00
1883, 2042.00
1884, 2041.00
1885, 2041.00
1886, 2039.00
1887, 2041.00
1888, 2037.00
1889, 2041.00
1890, 2037.00
1891, 2037.00
1892, 2038.00
1893, 2035.00
1894, 2035.00
1895, 2037.00
1896, 2034.00
1897, 2033.00
1898, 2035.00
1899, 2034.00
1900, 2032.00
1901, 2033.00
1902, 2033.00
1903, 2032.00
1904, 2031.00
1905, 2033.00
1906, 2034.00
1907, 2031.00
1908, 2029.00
1909, 2031.00
1910, 2030.00
1911, 2029.00
1912, 2030.00
1913, 2028.00
1914, 2030.00
1915, 2030.00
1916, 2029.00
1917, 2029.00
1918, 2029.00
1919, 2029.00
1920, 2029.00
1921, 2030.00
1922, 2029.00
1923, 2029.00
1924, 2030.00
1925, 2030.00
1926, 2030.00
1927, 2030.00
1928, 2027.00
1929, 2029.00
1930, 2030.00
1931, 2030.00
1932, 2031.00
1933, 2029.00
1934, 2029.00
1935, 2030.00
1936, 2028.00
1937, 2029.00
1938, 2029.00
1939, 2029.00
1940, 2029.00
1941, 2031.00
1942, 2033.00
1943, 2029.00
1944, 2033.00
1945, 2030.00
1946, 2032.00
1947, 2030.00
1948, 2032.00
1949, 2031.00
1950, 2033.00
1951, 2033.00
1952, 2033.00
1953, 2035.00
1954, 2035.00
1955, 2034.00
1956, 2035.00
1957, 2034.00
1958, 2035.00
1959, 2036.00
1960, 2036.00
1961, 2037.00
1962, 2037.00
1963, 2036.00
1964, 2035.00
1965, 2037.00
1966, 2037.00
1967, 2039.00
1968, 2039.00
1969, 2041.00
1970, 2042.00
1971, 2042.00
1972, 2043.00
1973, 2041.00
1974, 2042.00
1975, 2042.00
1976, 2043.00
1977, 2044.00
1978, 2046.00
1979, 2046.00
1980, 2043.00
1981, 2045.00
1982, 2046.00
1983, 2049.00
1984, 2049.00
1985, 2050.00
1986, 2049.00
1987, 2049.00
1988, 2051.00
1989, 2052.00
1990, 2051.00
1991, 2051.00
1992, 2052.00
1993, 2051.00
1994, 2054.00
1995, 2053.00
1996, 2055.00
1997, 2055.00
1998, 2056.00
1999, 2056.00
2000, 2057.00
2001, 2057.00
2002, 2056.00
2003, 2057.00
2004, 2058.00
2005, 2060.00
2006, 2059.00
2007, 2061.00
2008, 2060.00
2009, 2062.00
2010, 2061.00
2011, 2061.00
2012, 2063.00
2013, 2060.00
2014, 2065.00
2015, 2062.00
2016, 2065.00
2017, 2065.00
2018, 2066.00
2019, 2066.00
2020, 2067.00
2021, 2068.00
2022, 2069.00
2023, 2069.00
2024, 2069.00
2025, 2069.00
2026, 2071.00
2027, 2071.00
2028, 2070.00
2029, 2073.00
2030, 2073.00
2031, 2072.00
2032, 2076.00
2033, 2075.00
2034, 2073.00
2035, 2075.00
2036, 2076.00
2037, 2076.00
2038, 2078.00
2039, 2078.00
2040, 2078.00
2041, 2078.00
2042, 2081.00
2043, 2081.00
2044, 2080.00
2045, 2083.00
2046, 2083.00
2047, 2083.00
2048, 2084.00
2049, 2085.00
2050, 2084.00
2051, 2086.00
2052, 2089.00
2053, 2091.00
2054, 2091.00
2055, 2091.00
2056, 2092.00
2057, 2091.00
2058, 2093.00
2059, 2094.00
2060, 2095.00
2061, 2095.00
2062, 2095.00
2063, 2096.00
2064, 2097.00
2065, 2100.00
2066, 2100.00
2067, 2100.00
2068, 2100.00
2069, 2101.00
2070, 2103.00
2071, 2103.00
2072, 2105.00
2073, 2105.00
2074, 2106.00
2075, 2105.00
2076, 2108.00
2077, 2108.00
2078, 2109.00
2079, 2109.00
2080, 2110.00
2081, 2112.00
2082, 2112.00
2083, 2112.00
2084, 2113.00
2085, 2112.00
2086, 2113.00
2087, 2116.00
2088, 2117.00
2089, 2117.00
2090, 2118.00
2091, 2118.00
2092, 2118.00
2093, 2119.00
2094, 2119.00
2095, 2120.00
2096, 2121.00
2097, 2120.00
2098, 2123.00
2099, 2120.00
2100, 2123.00
2101, 2122.00
2102, 2124.00
2103, 2124.00
2104, 2124.00
2105, 2124.00
2106, 2124.00
2107, 2127.00
2108, 2127.00
2109, 2127.00
2110, 2125.00
2111, 2128.00
2112, 2128.00
2113, 2128.00
2114, 2128.00
2115, 2129.00
2116, 2130.00
2117, 2129.00
2118, 2129.00
2119, 2130.00
2120, 2131.00
2121, 2131.00
2122, 2131.00
2123, 2130.00
2124, 2133.00
2125, 2133.00
2126, 2132.00
2127, 2132.00
2128, 2134.00
2129, 2133.00
2130, 2137.00
2131, 2135.00
2132, 2135.00
2133, 2136.00
2134, 2134.00
2135, 2135.00
2136, 2133.00
2137, 2137.00
2138, 2136.00
2139, 2138.00
2140, 2140.00
2141, 2138.00
2142, 2137.00
2143, 2139.00
2144, 2136.00
2145, 2138.00
2146, 2138.00
2147, 2138.00
2148, 2139.00
2149, 2139.00
2150, 2139.00
