FW version: 24
Log Version: 3.0.3

General Info:
       Command/Macro Performed,            Timestamp,             Device ID, COM Port, UART/I2C, Test Name, Host Major, Host Minor, Host Revision, Host Git Commit
            Single_measurement,  2023_06_28_11_56_17,       Insight2_F4_xxx,    USB-C,      USB,          ,          0,          1,             1,      4031237645

Show Spectrometer Status:
l0_version, f4_version, battery_perc, battery_mVolt, accelerometer_temp, accelerometer_x, accelerometer_y, accelerometer_z, compass_temp, compass_x, compass_y, compass_z, lamp_0, lamp_1, gain_0, gain_1
        17,         24,           47,          1904,               6560,           65164,             956,           18584,            0,     65500,     65469,     18616,   2047,   2047,      1,      1

Temperature Statistic Info:
NTC AVG [°C], NTC2 AVG [°C]
      40.173,        39.908

Statistic Info:
M1:  num,      min,      max,   median,      AVG,      STD,M2:  num,      min,      max,   median,      AVG,      STD
     301,   773.00,   903.00,   802.00,   817.12,  41.0921,     401,  1138.00,  1220.00,  1174.00,  1176.11,  27.1562,

Measurements:
Wavelength, Data Amplitude
1350, 793.00
1351, 795.00
1352, 793.00
1353, 792.00
1354, 792.00
1355, 791.00
1356, 791.00
1357, 790.00
1358, 790.00
1359, 789.00
1360, 789.00
1361, 789.00
1362, 789.00
1363, 788.00
1364, 786.00
1365, 787.00
1366, 786.00
1367, 786.00
1368, 785.00
1369, 784.00
1370, 785.00
1371, 783.00
1372, 783.00
1373, 783.00
1374, 782.00
1375, 782.00
1376, 781.00
1377, 780.00
1378, 779.00
1379, 779.00
1380, 779.00
1381, 779.00
1382, 778.00
1383, 777.00
1384, 778.00
1385, 777.00
1386, 777.00
1387, 778.00
1388, 777.00
1389, 777.00
1390, 776.00
1391, 776.00
1392, 775.00
1393, 776.00
1394, 776.00
1395, 776.00
1396, 775.00
1397, 775.00
1398, 776.00
1399, 773.00
1400, 775.00
1401, 775.00
1402, 774.00
1403, 774.00
1404, 775.00
1405, 775.00
1406, 775.00
1407, 775.00
1408, 774.00
1409, 774.00
1410, 774.00
1411, 773.00
1412, 774.00
1413, 773.00
1414, 774.00
1415, 774.00
1416, 774.00
1417, 774.00
1418, 775.00
1419, 774.00
1420, 774.00
1421, 773.00
1422, 774.00
1423, 773.00
1424, 774.00
1425, 774.00
1426, 774.00
1427, 774.00
1428, 775.00
1429, 775.00
1430, 776.00
1431, 775.00
1432, 776.00
1433, 776.00
1434, 776.00
1435, 776.00
1436, 776.00
1437, 776.00
1438, 777.00
1439, 777.00
1440, 776.00
1441, 776.00
1442, 777.00
1443, 778.00
1444, 777.00
1445, 778.00
1446, 778.00
1447, 778.00
1448, 779.00
1449, 779.00
1450, 780.00
1451, 779.00
1452, 780.00
1453, 780.00
1454, 780.00
1455, 781.00
1456, 781.00
1457, 782.00
1458, 782.00
1459, 782.00
1460, 782.00
1461, 783.00
1462, 783.00
1463, 783.00
1464, 784.00
1465, 784.00
1466, 784.00
1467, 785.00
1468, 786.00
1469, 786.00
1470, 786.00
1471, 787.00
1472, 787.00
1473, 788.00
1474, 788.00
1475, 789.00
1476, 789.00
1477, 790.00
1478, 791.00
1479, 791.00
1480, 791.00
1481, 791.00
1482, 792.00
1483, 792.00
1484, 794.00
1485, 794.00
1486, 794.00
1487, 795.00
1488, 796.00
1489, 796.00
1490, 796.00
1491, 796.00
1492, 797.00
1493, 799.00
1494, 799.00
1495, 799.00
1496, 800.00
1497, 800.00
1498, 801.00
1499, 801.00
1500, 802.00
1501, 802.00
1502, 804.00
1503, 804.00
1504, 804.00
1505, 805.00
1506, 805.00
1507, 806.00
1508, 807.00
1509, 807.00
1510, 808.00
1511, 809.00
1512, 809.00
1513, 809.00
1514, 810.00
1515, 811.00
1516, 812.00
1517, 812.00
1518, 813.00
1519, 813.00
1520, 814.00
1521, 814.00
1522, 815.00
1523, 816.00
1524, 817.00
1525, 818.00
1526, 818.00
1527, 819.00
1528, 819.00
1529, 820.00
1530, 820.00
1531, 821.00
1532, 822.00
1533, 823.00
1534, 823.00
1535, 824.00
1536, 825.00
1537, 825.00
1538, 826.00
1539, 827.00
1540, 827.00
1541, 828.00
1542, 829.00
1543, 829.00
1544, 829.00
1545, 831.00
1546, 831.00
1547, 832.00
1548, 833.00
1549, 833.00
1550, 834.00
1551, 835.00
1552, 835.00
1553, 837.00
1554, 837.00
1555, 838.00
1556, 838.00
1557, 839.00
1558, 839.00
1559, 840.00
1560, 841.00
1561, 842.00
1562, 843.00
1563, 842.00
1564, 843.00
1565, 844.00
1566, 845.00
1567, 846.00
1568, 847.00
1569, 847.00
1570, 847.00
1571, 849.00
1572, 850.00
1573, 850.00
1574, 851.00
1575, 851.00
1576, 852.00
1577, 852.00
1578, 853.00
1579, 854.00
1580, 854.00
1581, 855.00
1582, 856.00
1583, 857.00
1584, 857.00
1585, 859.00
1586, 859.00
1587, 859.00
1588, 860.00
1589, 860.00
1590, 862.00
1591, 862.00
1592, 862.00
1593, 863.00
1594, 863.00
1595, 865.00
1596, 865.00
1597, 866.00
1598, 866.00
1599, 866.00
1600, 868.00
1601, 868.00
1602, 869.00
1603, 869.00
1604, 871.00
1605, 872.00
1606, 872.00
1607, 874.00
1608, 873.00
1609, 875.00
1610, 874.00
1611, 875.00
1612, 877.00
1613, 878.00
1614, 878.00
1615, 879.00
1616, 880.00
1617, 880.00
1618, 881.00
1619, 882.00
1620, 884.00
1621, 885.00
1622, 885.00
1623, 886.00
1624, 887.00
1625, 887.00
1626, 888.00
1627, 889.00
1628, 890.00
1629, 891.00
1630, 891.00
1631, 891.00
1632, 892.00
1633, 893.00
1634, 893.00
1635, 895.00
1636, 895.00
1637, 895.00
1638, 897.00
1639, 896.00
1640, 898.00
1641, 898.00
1642, 898.00
1643, 899.00
1644, 899.00
1645, 901.00
1646, 901.00
1647, 900.00
1648, 901.00
1649, 903.00
1650, 903.00

1750, 1220.00
1751, 1220.00
1752, 1219.00
1753, 1218.00
1754, 1220.00
1755, 1219.00
1756, 1218.00
1757, 1218.00
1758, 1218.00
1759, 1219.00
1760, 1219.00
1761, 1219.00
1762, 1219.00
1763, 1217.00
1764, 1217.00
1765, 1219.00
1766, 1217.00
1767, 1219.00
1768, 1219.00
1769, 1218.00
1770, 1218.00
1771, 1219.00
1772, 1217.00
1773, 1217.00
1774, 1217.00
1775, 1217.00
1776, 1216.00
1777, 1217.00
1778, 1215.00
1779, 1214.00
1780, 1213.00
1781, 1215.00
1782, 1216.00
1783, 1214.00
1784, 1217.00
1785, 1214.00
1786, 1213.00
1787, 1213.00
1788, 1213.00
1789, 1213.00
1790, 1213.00
1791, 1213.00
1792, 1213.00
1793, 1212.00
1794, 1212.00
1795, 1213.00
1796, 1213.00
1797, 1212.00
1798, 1210.00
1799, 1211.00
1800, 1211.00
1801, 1212.00
1802, 1209.00
1803, 1210.00
1804, 1210.00
1805, 1209.00
1806, 1207.00
1807, 1209.00
1808, 1210.00
1809, 1208.00
1810, 1209.00
1811, 1209.00
1812, 1210.00
1813, 1207.00
1814, 1207.00
1815, 1208.00
1816, 1207.00
1817, 1206.00
1818, 1205.00
1819, 1206.00
1820, 1205.00
1821, 1204.00
1822, 1204.00
1823, 1204.00
1824, 1201.00
1825, 1203.00
1826, 1201.00
1827, 1201.00
1828, 1199.00
1829, 1201.00
1830, 1198.00
1831, 1197.00
1832, 1196.00
1833, 1196.00
1834, 1197.00
1835, 1194.00
1836, 1193.00
1837, 1191.00
1838, 1192.00
1839, 1190.00
1840, 1188.00
1841, 1186.00
1842, 1186.00
1843, 1185.00
1844, 1183.00
1845, 1184.00
1846, 1181.00
1847, 1180.00
1848, 1180.00
1849, 1179.00
1850, 1176.00
1851, 1175.00
1852, 1174.00
1853, 1171.00
1854, 1172.00
1855, 1169.00
1856, 1168.00
1857, 1168.00
1858, 1165.00
1859, 1164.00
1860, 1163.00
1861, 1164.00
1862, 1161.00
1863, 1162.00
1864, 1161.00
1865, 1159.00
1866, 1157.00
1867, 1157.00
1868, 1155.00
1869, 1155.00
1870, 1153.00
1871, 1152.00
1872, 1153.00
1873, 1151.00
1874, 1150.00
1875, 1148.00
1876, 1151.00
1877, 1149.00
1878, 1149.00
1879, 1148.00
1880, 1148.00
1881, 1147.00
1882, 1147.00
1883, 1147.00
1884, 1145.00
1885, 1145.00
1886, 1146.00
1887, 1146.00
1888, 1144.00
1889, 1143.00
1890, 1143.00
1891, 1145.00
1892, 1145.00
1893, 1142.00
1894, 1143.00
1895, 1143.00
1896, 1143.00
1897, 1144.00
1898, 1143.00
1899, 1142.00
1900, 1142.00
1901, 1142.00
1902, 1141.00
1903, 1142.00
1904, 1143.00
1905, 1141.00
1906, 1140.00
1907, 1140.00
1908, 1141.00
1909, 1140.00
1910, 1141.00
1911, 1140.00
1912, 1140.00
1913, 1138.00
1914, 1142.00
1915, 1140.00
1916, 1140.00
1917, 1140.00
1918, 1139.00
1919, 1141.00
1920, 1138.00
1921, 1141.00
1922, 1141.00
1923, 1141.00
1924, 1139.00
1925, 1138.00
1926, 1139.00
1927, 1141.00
1928, 1139.00
1929, 1140.00
1930, 1138.00
1931, 1139.00
1932, 1138.00
1933, 1142.00
1934, 1141.00
1935, 1141.00
1936, 1140.00
1937, 1141.00
1938, 1140.00
1939, 1141.00
1940, 1139.00
1941, 1141.00
1942, 1140.00
1943, 1141.00
1944, 1142.00
1945, 1142.00
1946, 1142.00
1947, 1142.00
1948, 1142.00
1949, 1142.00
1950, 1142.00
1951, 1142.00
1952, 1142.00
1953, 1141.00
1954, 1144.00
1955, 1142.00
1956, 1142.00
1957, 1143.00
1958, 1146.00
1959, 1144.00
1960, 1143.00
1961, 1144.00
1962, 1145.00
1963, 1144.00
1964, 1146.00
1965, 1144.00
1966, 1146.00
1967, 1145.00
1968, 1145.00
1969, 1146.00
1970, 1147.00
1971, 1149.00
1972, 1147.00
1973, 1146.00
1974, 1149.00
1975, 1149.00
1976, 1148.00
1977, 1149.00
1978, 1149.00
1979, 1149.00
1980, 1152.00
1981, 1151.00
1982, 1151.00
1983, 1149.00
1984, 1152.00
1985, 1151.00
1986, 1149.00
1987, 1152.00
1988, 1152.00
1989, 1152.00
1990, 1154.00
1991, 1154.00
1992, 1153.00
1993, 1153.00
1994, 1155.00
1995, 1153.00
1996, 1154.00
1997, 1155.00
1998, 1155.00
1999, 1156.00
2000, 1156.00
2001, 1155.00
2002, 1155.00
2003, 1157.00
2004, 1155.00
2005, 1157.00
2006, 1158.00
2007, 1159.00
2008, 1157.00
2009, 1160.00
2010, 1157.00
2011, 1158.00
2012, 1158.00
2013, 1160.00
2014, 1158.00
2015, 1161.00
2016, 1162.00
2017, 1162.00
2018, 1162.00
2019, 1161.00
2020, 1160.00
2021, 1163.00
2022, 1164.00
2023, 1163.00
2024, 1164.00
2025, 1163.00
2026, 1162.00
2027, 1165.00
2028, 1165.00
2029, 1165.00
2030, 1165.00
2031, 1165.00
2032, 1165.00
2033, 1168.00
2034, 1167.00
2035, 1166.00
2036, 1166.00
2037, 1169.00
2038, 1168.00
2039, 1168.00
2040, 1169.00
2041, 1169.00
2042, 1168.00
2043, 1171.00
2044, 1169.00
2045, 1171.00
2046, 1172.00
2047, 1172.00
2048, 1173.00
2049, 1175.00
2050, 1173.00
2051, 1173.00
2052, 1174.00
2053, 1176.00
2054, 1174.00
2055, 1176.00
2056, 1177.00
2057, 1177.00
2058, 1179.00
2059, 1178.00
2060, 1178.00
2061, 1181.00
2062, 1180.00
2063, 1179.00
2064, 1180.00
2065, 1180.00
2066, 1181.00
2067, 1183.00
2068, 1183.00
2069, 1183.00
2070, 1184.00
2071, 1185.00
2072, 1185.00
2073, 1185.00
2074, 1185.00
2075, 1185.00
2076, 1186.00
2077, 1187.00
2078, 1186.00
2079, 1188.00
2080, 1190.00
2081, 1189.00
2082, 1188.00
2083, 1191.00
2084, 1190.00
2085, 1190.00
2086, 1189.00
2087, 1192.00
2088, 1193.00
2089, 1193.00
2090, 1191.00
2091, 1193.00
2092, 1192.00
2093, 1193.00
2094, 1193.00
2095, 1194.00
2096, 1194.00
2097, 1194.00
2098, 1196.00
2099, 1195.00
2100, 1195.00
2101, 1195.00
2102, 1195.00
2103, 1196.00
2104, 1197.00
2105, 1198.00
2106, 1196.00
2107, 1198.00
2108, 1198.00
2109, 1201.00
2110, 1198.00
2111, 1199.00
2112, 1201.00
2113, 1198.00
2114, 1199.00
2115, 1200.00
2116, 1201.00
2117, 1200.00
2118, 1198.00
2119, 1200.00
2120, 1200.00
2121, 1201.00
2122, 1202.00
2123, 1201.00
2124, 1203.00
2125, 1201.00
2126, 1202.00
2127, 1204.00
2128, 1202.00
2129, 1204.00
2130, 1201.00
2131, 1202.00
2132, 1203.00
2133, 1206.00
2134, 1204.00
2135, 1205.00
2136, 1205.00
2137, 1206.00
2138, 1203.00
2139, 1205.00
2140, 1204.00
2141, 1205.00
2142, 1206.00
2143, 1205.00
2144, 1206.00
2145, 1205.00
2146, 1208.00
2147, 1207.00
2148, 1207.00
2149, 1204.00
2150, 1207.00
