FW version: 24
Log Version: 3.0.3

General Info:
       Command/Macro Performed,            Timestamp,             Device ID, COM Port, UART/I2C, Test Name, Host Major, Host Minor, Host Revision, Host Git Commit
            Single_measurement,  2023_06_28_11_56_09,       Insight2_F4_xxx,    USB-C,      USB,          ,          0,          1,             1,      4031237645

Show Spectrometer Status:
l0_version, f4_version, battery_perc, battery_mVolt, accelerometer_temp, accelerometer_x, accelerometer_y, accelerometer_z, compass_temp, compass_x, compass_y, compass_z, lamp_0, lamp_1, gain_0, gain_1
        17,         24,           47,          1903,               6592,           65000,             984,           18704,            0,     65529,     65530,     18739,   2047,   2047,      1,      1

Temperature Statistic Info:
NTC AVG [°C], NTC2 AVG [°C]
      40.084,        39.850

Statistic Info:
M1:  num,      min,      max,   median,      AVG,      STD,M2:  num,      min,      max,   median,      AVG,      STD
     301,   773.00,   903.00,   801.00,   816.74,  41.1005,     401,  1137.00,  1220.00,  1173.00,  1175.43,  27.1997,

Measurements:
Wavelength, Data Amplitude
1350, 793.00
1351, 792.00
1352, 792.00
1353, 792.00
1354, 791.00
1355, 790.00
1356, 790.00
1357, 790.00
1358, 790.00
1359, 789.00
1360, 789.00
1361, 788.00
1362, 789.00
1363, 787.00
1364, 787.00
1365, 786.00
1366, 785.00
1367, 785.00
1368, 784.00
1369, 784.00
1370, 784.00
1371, 783.00
1372, 782.00
1373, 782.00
1374, 782.00
1375, 781.00
1376, 780.00
1377, 780.00
1378, 779.00
1379, 779.00
1380, 779.00
1381, 779.00
1382, 778.00
1383, 777.00
1384, 778.00
1385, 777.00
1386, 776.00
1387, 776.00
1388, 776.00
1389, 776.00
1390, 776.00
1391, 776.00
1392, 776.00
1393, 775.00
1394, 775.00
1395, 776.00
1396, 775.00
1397, 774.00
1398, 775.00
1399, 774.00
1400, 775.00
1401, 774.00
1402, 774.00
1403, 773.00
1404, 774.00
1405, 774.00
1406, 774.00
1407, 774.00
1408, 774.00
1409, 774.00
1410, 774.00
1411, 774.00
1412, 774.00
1413, 774.00
1414, 775.00
1415, 774.00
1416, 774.00
1417, 773.00
1418, 774.00
1419, 773.00
1420, 773.00
1421, 773.00
1422, 774.00
1423, 775.00
1424, 773.00
1425, 774.00
1426, 774.00
1427, 775.00
1428, 774.00
1429, 775.00
1430, 775.00
1431, 774.00
1432, 775.00
1433, 776.00
1434, 775.00
1435, 776.00
1436, 776.00
1437, 776.00
1438, 776.00
1439, 776.00
1440, 777.00
1441, 776.00
1442, 777.00
1443, 777.00
1444, 777.00
1445, 778.00
1446, 777.00
1447, 778.00
1448, 778.00
1449, 778.00
1450, 779.00
1451, 779.00
1452, 780.00
1453, 780.00
1454, 780.00
1455, 780.00
1456, 780.00
1457, 781.00
1458, 782.00
1459, 782.00
1460, 782.00
1461, 782.00
1462, 783.00
1463, 783.00
1464, 782.00
1465, 784.00
1466, 784.00
1467, 785.00
1468, 785.00
1469, 784.00
1470, 786.00
1471, 787.00
1472, 786.00
1473, 787.00
1474, 787.00
1475, 788.00
1476, 789.00
1477, 790.00
1478, 790.00
1479, 792.00
1480, 791.00
1481, 791.00
1482, 791.00
1483, 793.00
1484, 793.00
1485, 793.00
1486, 794.00
1487, 794.00
1488, 794.00
1489, 795.00
1490, 796.00
1491, 797.00
1492, 797.00
1493, 798.00
1494, 799.00
1495, 799.00
1496, 800.00
1497, 801.00
1498, 800.00
1499, 801.00
1500, 801.00
1501, 800.00
1502, 802.00
1503, 803.00
1504, 804.00
1505, 805.00
1506, 804.00
1507, 806.00
1508, 806.00
1509, 807.00
1510, 807.00
1511, 808.00
1512, 808.00
1513, 809.00
1514, 810.00
1515, 812.00
1516, 812.00
1517, 813.00
1518, 813.00
1519, 814.00
1520, 814.00
1521, 815.00
1522, 815.00
1523, 815.00
1524, 816.00
1525, 817.00
1526, 818.00
1527, 818.00
1528, 820.00
1529, 820.00
1530, 821.00
1531, 821.00
1532, 822.00
1533, 822.00
1534, 823.00
1535, 824.00
1536, 824.00
1537, 825.00
1538, 825.00
1539, 826.00
1540, 828.00
1541, 828.00
1542, 829.00
1543, 829.00
1544, 830.00
1545, 830.00
1546, 831.00
1547, 831.00
1548, 832.00
1549, 833.00
1550, 834.00
1551, 834.00
1552, 834.00
1553, 836.00
1554, 837.00
1555, 837.00
1556, 838.00
1557, 838.00
1558, 838.00
1559, 839.00
1560, 840.00
1561, 842.00
1562, 842.00
1563, 843.00
1564, 843.00
1565, 844.00
1566, 845.00
1567, 845.00
1568, 846.00
1569, 846.00
1570, 847.00
1571, 848.00
1572, 849.00
1573, 849.00
1574, 850.00
1575, 851.00
1576, 852.00
1577, 853.00
1578, 853.00
1579, 854.00
1580, 854.00
1581, 856.00
1582, 856.00
1583, 856.00
1584, 857.00
1585, 857.00
1586, 858.00
1587, 859.00
1588, 859.00
1589, 860.00
1590, 861.00
1591, 862.00
1592, 862.00
1593, 862.00
1594, 864.00
1595, 864.00
1596, 865.00
1597, 866.00
1598, 865.00
1599, 866.00
1600, 867.00
1601, 868.00
1602, 869.00
1603, 869.00
1604, 871.00
1605, 871.00
1606, 872.00
1607, 872.00
1608, 873.00
1609, 873.00
1610, 874.00
1611, 875.00
1612, 877.00
1613, 876.00
1614, 878.00
1615, 879.00
1616, 879.00
1617, 881.00
1618, 880.00
1619, 883.00
1620, 882.00
1621, 883.00
1622, 884.00
1623, 885.00
1624, 886.00
1625, 888.00
1626, 888.00
1627, 889.00
1628, 889.00
1629, 890.00
1630, 891.00
1631, 890.00
1632, 892.00
1633, 893.00
1634, 893.00
1635, 894.00
1636, 895.00
1637, 897.00
1638, 896.00
1639, 897.00
1640, 897.00
1641, 897.00
1642, 898.00
1643, 898.00
1644, 899.00
1645, 900.00
1646, 900.00
1647, 901.00
1648, 902.00
1649, 902.00
1650, 903.00

1750, 1217.00
1751, 1217.00
1752, 1217.00
1753, 1218.00
1754, 1218.00
1755, 1218.00
1756, 1219.00
1757, 1220.00
1758, 1218.00
1759, 1217.00
1760, 1219.00
1761, 1219.00
1762, 1219.00
1763, 1219.00
1764, 1219.00
1765, 1218.00
1766, 1217.00
1767, 1217.00
1768, 1218.00
1769, 1218.00
1770, 1217.00
1771, 1216.00
1772, 1218.00
1773, 1220.00
1774, 1216.00
1775, 1219.00
1776, 1216.00
1777, 1218.00
1778, 1215.00
1779, 1214.00
1780, 1215.00
1781, 1216.00
1782, 1215.00
1783, 1212.00
1784, 1214.00
1785, 1213.00
1786, 1213.00
1787, 1214.00
1788, 1213.00
1789, 1213.00
1790, 1213.00
1791, 1212.00
1792, 1214.00
1793, 1212.00
1794, 1212.00
1795, 1212.00
1796, 1211.00
1797, 1210.00
1798, 1211.00
1799, 1210.00
1800, 1210.00
1801, 1209.00
1802, 1211.00
1803, 1211.00
1804, 1208.00
1805, 1208.00
1806, 1208.00
1807, 1208.00
1808, 1208.00
1809, 1207.00
1810, 1208.00
1811, 1209.00
1812, 1207.00
1813, 1206.00
1814, 1205.00
1815, 1206.00
1816, 1206.00
1817, 1206.00
1818, 1204.00
1819, 1202.00
1820, 1205.00
1821, 1204.00
1822, 1203.00
1823, 1204.00
1824, 1204.00
1825, 1201.00
1826, 1202.00
1827, 1199.00
1828, 1200.00
1829, 1198.00
1830, 1197.00
1831, 1198.00
1832, 1195.00
1833, 1195.00
1834, 1193.00
1835, 1192.00
1836, 1193.00
1837, 1190.00
1838, 1188.00
1839, 1190.00
1840, 1189.00
1841, 1186.00
1842, 1185.00
1843, 1183.00
1844, 1183.00
1845, 1181.00
1846, 1181.00
1847, 1178.00
1848, 1178.00
1849, 1177.00
1850, 1175.00
1851, 1177.00
1852, 1172.00
1853, 1172.00
1854, 1170.00
1855, 1170.00
1856, 1168.00
1857, 1166.00
1858, 1163.00
1859, 1165.00
1860, 1163.00
1861, 1160.00
1862, 1162.00
1863, 1160.00
1864, 1158.00
1865, 1157.00
1866, 1156.00
1867, 1156.00
1868, 1155.00
1869, 1155.00
1870, 1154.00
1871, 1151.00
1872, 1152.00
1873, 1151.00
1874, 1152.00
1875, 1151.00
1876, 1149.00
1877, 1149.00
1878, 1150.00
1879, 1147.00
1880, 1146.00
1881, 1147.00
1882, 1145.00
1883, 1146.00
1884, 1147.00
1885, 1144.00
1886, 1145.00
1887, 1144.00
1888, 1145.00
1889, 1143.00
1890, 1144.00
1891, 1144.00
1892, 1143.00
1893, 1143.00
1894, 1143.00
1895, 1142.00
1896, 1141.00
1897, 1142.00
1898, 1142.00
1899, 1141.00
1900, 1141.00
1901, 1142.00
1902, 1141.00
1903, 1142.00
1904, 1140.00
1905, 1139.00
1906, 1140.00
1907, 1142.00
1908, 1141.00
1909, 1137.00
1910, 1140.00
1911, 1141.00
1912, 1139.00
1913, 1139.00
1914, 1139.00
1915, 1140.00
1916, 1140.00
1917, 1141.00
1918, 1141.00
1919, 1138.00
1920, 1138.00
1921, 1139.00
1922, 1140.00
1923, 1138.00
1924, 1139.00
1925, 1139.00
1926, 1138.00
1927, 1138.00
1928, 1138.00
1929, 1140.00
1930, 1139.00
1931, 1139.00
1932, 1140.00
1933, 1139.00
1934, 1139.00
1935, 1139.00
1936, 1139.00
1937, 1140.00
1938, 1141.00
1939, 1139.00
1940, 1140.00
1941, 1140.00
1942, 1141.00
1943, 1141.00
1944, 1140.00
1945, 1140.00
1946, 1140.00
1947, 1140.00
1948, 1141.00
1949, 1141.00
1950, 1140.00
1951, 1143.00
1952, 1143.00
1953, 1141.00
1954, 1142.00
1955, 1141.00
1956, 1141.00
1957, 1143.00
1958, 1145.00
1959, 1143.00
1960, 1144.00
1961, 1144.00
1962, 1144.00
1963, 1145.00
1964, 1145.00
1965, 1143.00
1966, 1146.00
1967, 1143.00
1968, 1145.00
1969, 1147.00
1970, 1145.00
1971, 1146.00
1972, 1148.00
1973, 1148.00
1974, 1147.00
1975, 1145.00
1976, 1148.00
1977, 1146.00
1978, 1148.00
1979, 1148.00
1980, 1149.00
1981, 1149.00
1982, 1149.00
1983, 1151.00
1984, 1150.00
1985, 1148.00
1986, 1150.00
1987, 1151.00
1988, 1151.00
1989, 1152.00
1990, 1152.00
1991, 1152.00
1992, 1150.00
1993, 1152.00
1994, 1152.00
1995, 1155.00
1996, 1154.00
1997, 1154.00
1998, 1155.00
1999, 1154.00
2000, 1156.00
2001, 1156.00
2002, 1156.00
2003, 1155.00
2004, 1156.00
2005, 1154.00
2006, 1155.00
2007, 1158.00
2008, 1157.00
2009, 1157.00
2010, 1157.00
2011, 1159.00
2012, 1160.00
2013, 1159.00
2014, 1159.00
2015, 1162.00
2016, 1158.00
2017, 1160.00
2018, 1162.00
2019, 1161.00
2020, 1161.00
2021, 1162.00
2022, 1160.00
2023, 1161.00
2024, 1161.00
2025, 1163.00
2026, 1163.00
2027, 1163.00
2028, 1165.00
2029, 1164.00
2030, 1165.00
2031, 1166.00
2032, 1165.00
2033, 1166.00
2034, 1165.00
2035, 1166.00
2036, 1168.00
2037, 1167.00
2038, 1168.00
2039, 1168.00
2040, 1170.00
2041, 1167.00
2042, 1168.00
2043, 1170.00
2044, 1170.00
2045, 1172.00
2046, 1170.00
2047, 1173.00
2048, 1173.00
2049, 1173.00
2050, 1172.00
2051, 1173.00
2052, 1174.00
2053, 1172.00
2054, 1176.00
2055, 1175.00
2056, 1175.00
2057, 1177.00
2058, 1176.00
2059, 1178.00
2060, 1179.00
2061, 1179.00
2062, 1180.00
2063, 1180.00
2064, 1180.00
2065, 1180.00
2066, 1180.00
2067, 1181.00
2068, 1183.00
2069, 1183.00
2070, 1183.00
2071, 1184.00
2072, 1184.00
2073, 1185.00
2074, 1183.00
2075, 1185.00
2076, 1185.00
2077, 1187.00
2078, 1186.00
2079, 1188.00
2080, 1186.00
2081, 1188.00
2082, 1188.00
2083, 1188.00
2084, 1190.00
2085, 1189.00
2086, 1190.00
2087, 1190.00
2088, 1190.00
2089, 1191.00
2090, 1192.00
2091, 1192.00
2092, 1192.00
2093, 1192.00
2094, 1193.00
2095, 1193.00
2096, 1192.00
2097, 1193.00
2098, 1195.00
2099, 1194.00
2100, 1196.00
2101, 1196.00
2102, 1195.00
2103, 1196.00
2104, 1196.00
2105, 1196.00
2106, 1197.00
2107, 1198.00
2108, 1197.00
2109, 1197.00
2110, 1197.00
2111, 1199.00
2112, 1199.00
2113, 1199.00
2114, 1198.00
2115, 1199.00
2116, 1199.00
2117, 1198.00
2118, 1200.00
2119, 1200.00
2120, 1200.00
2121, 1201.00
2122, 1201.00
2123, 1199.00
2124, 1200.00
2125, 1200.00
2126, 1200.00
2127, 1201.00
2128, 1202.00
2129, 1203.00
2130, 1203.00
2131, 1202.00
2132, 1201.00
2133, 1202.00
2134, 1203.00
2135, 1204.00
2136, 1202.00
2137, 1205.00
2138, 1204.00
2139, 1205.00
2140, 1204.00
2141, 1204.00
2142, 1205.00
2143, 1205.00
2144, 1207.00
2145, 1204.00
2146, 1204.00
2147, 1207.00
2148, 1208.00
2149, 1207.00
2150, 1207.00
