FW version: 24
Log Version: 3.0.3

General Info:
       Command/Macro Performed,            Timestamp,             Device ID, COM Port, UART/I2C, Test Name, Host Major, Host Minor, Host Revision, Host Git Commit
            Single_measurement,  2023_06_28_12_11_36,       Insight2_F4_xxx,    USB-C,      USB,          ,          0,          1,             1,      4031237645

Show Spectrometer Status:
l0_version, f4_version, battery_perc, battery_mVolt, accelerometer_temp, accelerometer_x, accelerometer_y, accelerometer_z, compass_temp, compass_x, compass_y, compass_z, lamp_0, lamp_1, gain_0, gain_1
        17,         24,           48,          1907,               6560,           65200,            1064,           18720,            0,     65535,     65455,     18743,   2457,   2457,      1,      1

Temperature Statistic Info:
NTC AVG [°C], NTC2 AVG [°C]
      40.054,        39.763

Statistic Info:
M1:  num,      min,      max,   median,      AVG,      STD,M2:  num,      min,      max,   median,      AVG,      STD
     301,  1093.00,  1259.00,  1127.00,  1147.75,  51.5208,     401,  1553.00,  1655.00,  1597.00,  1599.62,  33.9666,

Measurements:
Wavelength, Data Amplitude
1350, 1120.00
1351, 1120.00
1352, 1119.00
1353, 1119.00
1354, 1117.00
1355, 1117.00
1356, 1117.00
1357, 1116.00
1358, 1115.00
1359, 1115.00
1360, 1114.00
1361, 1113.00
1362, 1113.00
1363, 1113.00
1364, 1112.00
1365, 1111.00
1366, 1111.00
1367, 1110.00
1368, 1109.00
1369, 1108.00
1370, 1107.00
1371, 1107.00
1372, 1107.00
1373, 1104.00
1374, 1104.00
1375, 1104.00
1376, 1103.00
1377, 1103.00
1378, 1102.00
1379, 1102.00
1380, 1101.00
1381, 1100.00
1382, 1101.00
1383, 1101.00
1384, 1099.00
1385, 1099.00
1386, 1098.00
1387, 1098.00
1388, 1098.00
1389, 1098.00
1390, 1096.00
1391, 1097.00
1392, 1096.00
1393, 1097.00
1394, 1096.00
1395, 1096.00
1396, 1097.00
1397, 1095.00
1398, 1095.00
1399, 1094.00
1400, 1095.00
1401, 1095.00
1402, 1095.00
1403, 1095.00
1404, 1095.00
1405, 1094.00
1406, 1095.00
1407, 1094.00
1408, 1094.00
1409, 1094.00
1410, 1094.00
1411, 1094.00
1412, 1095.00
1413, 1094.00
1414, 1093.00
1415, 1094.00
1416, 1094.00
1417, 1095.00
1418, 1093.00
1419, 1094.00
1420, 1094.00
1421, 1093.00
1422, 1094.00
1423, 1094.00
1424, 1095.00
1425, 1094.00
1426, 1094.00
1427, 1094.00
1428, 1093.00
1429, 1095.00
1430, 1095.00
1431, 1095.00
1432, 1095.00
1433, 1095.00
1434, 1096.00
1435, 1097.00
1436, 1096.00
1437, 1097.00
1438, 1097.00
1439, 1095.00
1440, 1097.00
1441, 1097.00
1442, 1097.00
1443, 1098.00
1444, 1098.00
1445, 1098.00
1446, 1099.00
1447, 1098.00
1448, 1099.00
1449, 1100.00
1450, 1100.00
1451, 1100.00
1452, 1100.00
1453, 1101.00
1454, 1102.00
1455, 1100.00
1456, 1103.00
1457, 1103.00
1458, 1104.00
1459, 1104.00
1460, 1105.00
1461, 1104.00
1462, 1105.00
1463, 1105.00
1464, 1106.00
1465, 1107.00
1466, 1107.00
1467, 1108.00
1468, 1107.00
1469, 1108.00
1470, 1109.00
1471, 1110.00
1472, 1110.00
1473, 1110.00
1474, 1111.00
1475, 1111.00
1476, 1113.00
1477, 1112.00
1478, 1113.00
1479, 1114.00
1480, 1115.00
1481, 1116.00
1482, 1116.00
1483, 1117.00
1484, 1117.00
1485, 1118.00
1486, 1118.00
1487, 1120.00
1488, 1120.00
1489, 1121.00
1490, 1123.00
1491, 1122.00
1492, 1123.00
1493, 1124.00
1494, 1126.00
1495, 1125.00
1496, 1126.00
1497, 1125.00
1498, 1127.00
1499, 1127.00
1500, 1127.00
1501, 1128.00
1502, 1130.00
1503, 1130.00
1504, 1131.00
1505, 1133.00
1506, 1132.00
1507, 1133.00
1508, 1134.00
1509, 1135.00
1510, 1135.00
1511, 1136.00
1512, 1137.00
1513, 1137.00
1514, 1139.00
1515, 1140.00
1516, 1140.00
1517, 1141.00
1518, 1141.00
1519, 1142.00
1520, 1143.00
1521, 1144.00
1522, 1145.00
1523, 1146.00
1524, 1146.00
1525, 1147.00
1526, 1148.00
1527, 1148.00
1528, 1151.00
1529, 1151.00
1530, 1152.00
1531, 1152.00
1532, 1152.00
1533, 1154.00
1534, 1155.00
1535, 1155.00
1536, 1157.00
1537, 1157.00
1538, 1158.00
1539, 1159.00
1540, 1160.00
1541, 1160.00
1542, 1161.00
1543, 1162.00
1544, 1163.00
1545, 1164.00
1546, 1165.00
1547, 1165.00
1548, 1166.00
1549, 1168.00
1550, 1169.00
1551, 1169.00
1552, 1170.00
1553, 1170.00
1554, 1171.00
1555, 1171.00
1556, 1173.00
1557, 1174.00
1558, 1175.00
1559, 1175.00
1560, 1177.00
1561, 1177.00
1562, 1179.00
1563, 1178.00
1564, 1180.00
1565, 1181.00
1566, 1182.00
1567, 1182.00
1568, 1183.00
1569, 1184.00
1570, 1185.00
1571, 1186.00
1572, 1188.00
1573, 1188.00
1574, 1189.00
1575, 1190.00
1576, 1191.00
1577, 1192.00
1578, 1192.00
1579, 1194.00
1580, 1194.00
1581, 1195.00
1582, 1196.00
1583, 1197.00
1584, 1198.00
1585, 1198.00
1586, 1199.00
1587, 1200.00
1588, 1201.00
1589, 1202.00
1590, 1203.00
1591, 1204.00
1592, 1204.00
1593, 1204.00
1594, 1205.00
1595, 1206.00
1596, 1208.00
1597, 1208.00
1598, 1209.00
1599, 1210.00
1600, 1211.00
1601, 1212.00
1602, 1212.00
1603, 1214.00
1604, 1214.00
1605, 1215.00
1606, 1216.00
1607, 1217.00
1608, 1217.00
1609, 1219.00
1610, 1220.00
1611, 1221.00
1612, 1222.00
1613, 1224.00
1614, 1224.00
1615, 1225.00
1616, 1226.00
1617, 1228.00
1618, 1228.00
1619, 1229.00
1620, 1231.00
1621, 1232.00
1622, 1233.00
1623, 1234.00
1624, 1235.00
1625, 1236.00
1626, 1238.00
1627, 1238.00
1628, 1239.00
1629, 1239.00
1630, 1241.00
1631, 1242.00
1632, 1242.00
1633, 1244.00
1634, 1245.00
1635, 1245.00
1636, 1247.00
1637, 1247.00
1638, 1248.00
1639, 1249.00
1640, 1250.00
1641, 1250.00
1642, 1251.00
1643, 1253.00
1644, 1253.00
1645, 1254.00
1646, 1255.00
1647, 1256.00
1648, 1257.00
1649, 1258.00
1650, 1259.00

1750, 1653.00
1751, 1653.00
1752, 1655.00
1753, 1654.00
1754, 1653.00
1755, 1653.00
1756, 1654.00
1757, 1653.00
1758, 1654.00
1759, 1654.00
1760, 1655.00
1761, 1654.00
1762, 1653.00
1763, 1654.00
1764, 1653.00
1765, 1655.00
1766, 1653.00
1767, 1653.00
1768, 1653.00
1769, 1653.00
1770, 1654.00
1771, 1650.00
1772, 1651.00
1773, 1651.00
1774, 1651.00
1775, 1651.00
1776, 1651.00
1777, 1650.00
1778, 1649.00
1779, 1651.00
1780, 1650.00
1781, 1649.00
1782, 1649.00
1783, 1649.00
1784, 1647.00
1785, 1649.00
1786, 1648.00
1787, 1649.00
1788, 1649.00
1789, 1649.00
1790, 1646.00
1791, 1647.00
1792, 1646.00
1793, 1646.00
1794, 1644.00
1795, 1643.00
1796, 1645.00
1797, 1644.00
1798, 1643.00
1799, 1643.00
1800, 1643.00
1801, 1643.00
1802, 1642.00
1803, 1642.00
1804, 1641.00
1805, 1642.00
1806, 1639.00
1807, 1640.00
1808, 1641.00
1809, 1641.00
1810, 1639.00
1811, 1640.00
1812, 1639.00
1813, 1638.00
1814, 1639.00
1815, 1638.00
1816, 1638.00
1817, 1639.00
1818, 1637.00
1819, 1637.00
1820, 1635.00
1821, 1634.00
1822, 1635.00
1823, 1634.00
1824, 1633.00
1825, 1633.00
1826, 1631.00
1827, 1630.00
1828, 1630.00
1829, 1629.00
1830, 1627.00
1831, 1628.00
1832, 1624.00
1833, 1625.00
1834, 1622.00
1835, 1621.00
1836, 1621.00
1837, 1619.00
1838, 1617.00
1839, 1617.00
1840, 1615.00
1841, 1613.00
1842, 1612.00
1843, 1610.00
1844, 1610.00
1845, 1608.00
1846, 1607.00
1847, 1605.00
1848, 1603.00
1849, 1601.00
1850, 1597.00
1851, 1599.00
1852, 1598.00
1853, 1595.00
1854, 1594.00
1855, 1591.00
1856, 1591.00
1857, 1590.00
1858, 1589.00
1859, 1585.00
1860, 1584.00
1861, 1582.00
1862, 1581.00
1863, 1581.00
1864, 1578.00
1865, 1578.00
1866, 1576.00
1867, 1576.00
1868, 1574.00
1869, 1574.00
1870, 1573.00
1871, 1573.00
1872, 1570.00
1873, 1570.00
1874, 1569.00
1875, 1567.00
1876, 1568.00
1877, 1567.00
1878, 1567.00
1879, 1565.00
1880, 1567.00
1881, 1562.00
1882, 1563.00
1883, 1560.00
1884, 1563.00
1885, 1562.00
1886, 1563.00
1887, 1561.00
1888, 1561.00
1889, 1561.00
1890, 1560.00
1891, 1560.00
1892, 1561.00
1893, 1560.00
1894, 1557.00
1895, 1558.00
1896, 1557.00
1897, 1558.00
1898, 1557.00
1899, 1559.00
1900, 1558.00
1901, 1556.00
1902, 1557.00
1903, 1558.00
1904, 1556.00
1905, 1557.00
1906, 1556.00
1907, 1555.00
1908, 1554.00
1909, 1555.00
1910, 1556.00
1911, 1554.00
1912, 1554.00
1913, 1557.00
1914, 1555.00
1915, 1553.00
1916, 1556.00
1917, 1555.00
1918, 1555.00
1919, 1554.00
1920, 1554.00
1921, 1554.00
1922, 1554.00
1923, 1554.00
1924, 1555.00
1925, 1554.00
1926, 1554.00
1927, 1555.00
1928, 1553.00
1929, 1554.00
1930, 1553.00
1931, 1555.00
1932, 1555.00
1933, 1554.00
1934, 1554.00
1935, 1554.00
1936, 1556.00
1937, 1553.00
1938, 1555.00
1939, 1555.00
1940, 1557.00
1941, 1556.00
1942, 1556.00
1943, 1555.00
1944, 1557.00
1945, 1555.00
1946, 1557.00
1947, 1557.00
1948, 1555.00
1949, 1556.00
1950, 1559.00
1951, 1555.00
1952, 1557.00
1953, 1556.00
1954, 1557.00
1955, 1559.00
1956, 1557.00
1957, 1557.00
1958, 1558.00
1959, 1560.00
1960, 1559.00
1961, 1560.00
1962, 1561.00
1963, 1562.00
1964, 1561.00
1965, 1560.00
1966, 1560.00
1967, 1563.00
1968, 1561.00
1969, 1563.00
1970, 1563.00
1971, 1561.00
1972, 1563.00
1973, 1564.00
1974, 1563.00
1975, 1564.00
1976, 1566.00
1977, 1564.00
1978, 1566.00
1979, 1566.00
1980, 1567.00
1981, 1565.00
1982, 1568.00
1983, 1568.00
1984, 1569.00
1985, 1569.00
1986, 1568.00
1987, 1570.00
1988, 1570.00
1989, 1569.00
1990, 1570.00
1991, 1571.00
1992, 1573.00
1993, 1572.00
1994, 1573.00
1995, 1571.00
1996, 1572.00
1997, 1573.00
1998, 1572.00
1999, 1574.00
2000, 1576.00
2001, 1574.00
2002, 1576.00
2003, 1573.00
2004, 1574.00
2005, 1577.00
2006, 1575.00
2007, 1577.00
2008, 1579.00
2009, 1578.00
2010, 1577.00
2011, 1578.00
2012, 1579.00
2013, 1580.00
2014, 1579.00
2015, 1579.00
2016, 1581.00
2017, 1582.00
2018, 1580.00
2019, 1581.00
2020, 1580.00
2021, 1582.00
2022, 1582.00
2023, 1582.00
2024, 1582.00
2025, 1585.00
2026, 1584.00
2027, 1585.00
2028, 1583.00
2029, 1584.00
2030, 1585.00
2031, 1586.00
2032, 1586.00
2033, 1587.00
2034, 1585.00
2035, 1589.00
2036, 1588.00
2037, 1589.00
2038, 1590.00
2039, 1590.00
2040, 1590.00
2041, 1591.00
2042, 1591.00
2043, 1592.00
2044, 1592.00
2045, 1593.00
2046, 1595.00
2047, 1593.00
2048, 1595.00
2049, 1595.00
2050, 1596.00
2051, 1595.00
2052, 1595.00
2053, 1598.00
2054, 1598.00
2055, 1599.00
2056, 1602.00
2057, 1601.00
2058, 1600.00
2059, 1601.00
2060, 1601.00
2061, 1603.00
2062, 1604.00
2063, 1604.00
2064, 1604.00
2065, 1605.00
2066, 1608.00
2067, 1606.00
2068, 1608.00
2069, 1608.00
2070, 1610.00
2071, 1609.00
2072, 1609.00
2073, 1611.00
2074, 1610.00
2075, 1612.00
2076, 1612.00
2077, 1612.00
2078, 1611.00
2079, 1614.00
2080, 1614.00
2081, 1617.00
2082, 1617.00
2083, 1617.00
2084, 1617.00
2085, 1618.00
2086, 1619.00
2087, 1616.00
2088, 1618.00
2089, 1619.00
2090, 1621.00
2091, 1620.00
2092, 1620.00
2093, 1621.00
2094, 1621.00
2095, 1622.00
2096, 1624.00
2097, 1622.00
2098, 1623.00
2099, 1622.00
2100, 1625.00
2101, 1622.00
2102, 1625.00
2103, 1623.00
2104, 1626.00
2105, 1627.00
2106, 1627.00
2107, 1626.00
2108, 1627.00
2109, 1625.00
2110, 1626.00
2111, 1629.00
2112, 1626.00
2113, 1629.00
2114, 1630.00
2115, 1628.00
2116, 1630.00
2117, 1629.00
2118, 1630.00
2119, 1629.00
2120, 1629.00
2121, 1630.00
2122, 1631.00
2123, 1631.00
2124, 1631.00
2125, 1631.00
2126, 1633.00
2127, 1630.00
2128, 1632.00
2129, 1631.00
2130, 1633.00
2131, 1633.00
2132, 1635.00
2133, 1632.00
2134, 1634.00
2135, 1634.00
2136, 1634.00
2137, 1634.00
2138, 1635.00
2139, 1634.00
2140, 1634.00
2141, 1637.00
2142, 1634.00
2143, 1637.00
2144, 1635.00
2145, 1638.00
2146, 1637.00
2147, 1637.00
2148, 1635.00
2149, 1638.00
2150, 1638.00
