FW version: 24
Log Version: 3.0.3

General Info:
       Command/Macro Performed,            Timestamp,             Device ID, COM Port, UART/I2C, Test Name, Host Major, Host Minor, Host Revision, Host Git Commit
            Single_measurement,  2023_06_28_12_11_05,       Insight2_F4_xxx,    USB-C,      USB,          ,          0,          1,             1,      4031237645

Show Spectrometer Status:
l0_version, f4_version, battery_perc, battery_mVolt, accelerometer_temp, accelerometer_x, accelerometer_y, accelerometer_z, compass_temp, compass_x, compass_y, compass_z, lamp_0, lamp_1, gain_0, gain_1
        17,         24,           48,          1904,               6576,           65228,            1112,           18732,            0,     65500,     65534,     18748,   3276,   3276,      0,      0

Temperature Statistic Info:
NTC AVG [°C], NTC2 AVG [°C]
      39.879,        39.587

Statistic Info:
M1:  num,      min,      max,   median,      AVG,      STD,M2:  num,      min,      max,   median,      AVG,      STD
     301,   654.00,   746.00,   674.00,   684.62,  28.6190,     401,   862.00,   919.00,   885.00,   886.60,  18.5084,

Measurements:
Wavelength, Data Amplitude
1350, 671.00
1351, 671.00
1352, 670.00
1353, 670.00
1354, 670.00
1355, 669.00
1356, 669.00
1357, 669.00
1358, 668.00
1359, 668.00
1360, 668.00
1361, 668.00
1362, 667.00
1363, 666.00
1364, 666.00
1365, 666.00
1366, 665.00
1367, 665.00
1368, 665.00
1369, 664.00
1370, 664.00
1371, 663.00
1372, 663.00
1373, 662.00
1374, 662.00
1375, 662.00
1376, 661.00
1377, 661.00
1378, 660.00
1379, 660.00
1380, 660.00
1381, 659.00
1382, 659.00
1383, 659.00
1384, 659.00
1385, 659.00
1386, 658.00
1387, 658.00
1388, 658.00
1389, 657.00
1390, 657.00
1391, 657.00
1392, 657.00
1393, 657.00
1394, 656.00
1395, 656.00
1396, 656.00
1397, 656.00
1398, 656.00
1399, 656.00
1400, 656.00
1401, 656.00
1402, 656.00
1403, 655.00
1404, 656.00
1405, 656.00
1406, 655.00
1407, 655.00
1408, 655.00
1409, 655.00
1410, 655.00
1411, 655.00
1412, 654.00
1413, 654.00
1414, 655.00
1415, 655.00
1416, 655.00
1417, 654.00
1418, 654.00
1419, 655.00
1420, 655.00
1421, 654.00
1422, 655.00
1423, 654.00
1424, 654.00
1425, 654.00
1426, 655.00
1427, 654.00
1428, 655.00
1429, 655.00
1430, 655.00
1431, 655.00
1432, 655.00
1433, 656.00
1434, 655.00
1435, 655.00
1436, 656.00
1437, 656.00
1438, 656.00
1439, 656.00
1440, 656.00
1441, 656.00
1442, 656.00
1443, 657.00
1444, 656.00
1445, 656.00
1446, 657.00
1447, 657.00
1448, 657.00
1449, 657.00
1450, 658.00
1451, 658.00
1452, 658.00
1453, 658.00
1454, 658.00
1455, 659.00
1456, 659.00
1457, 659.00
1458, 659.00
1459, 660.00
1460, 660.00
1461, 660.00
1462, 660.00
1463, 661.00
1464, 661.00
1465, 661.00
1466, 661.00
1467, 662.00
1468, 662.00
1469, 662.00
1470, 663.00
1471, 663.00
1472, 663.00
1473, 663.00
1474, 664.00
1475, 664.00
1476, 664.00
1477, 665.00
1478, 664.00
1479, 665.00
1480, 666.00
1481, 666.00
1482, 666.00
1483, 667.00
1484, 667.00
1485, 667.00
1486, 668.00
1487, 668.00
1488, 669.00
1489, 669.00
1490, 669.00
1491, 670.00
1492, 670.00
1493, 670.00
1494, 672.00
1495, 672.00
1496, 672.00
1497, 672.00
1498, 672.00
1499, 672.00
1500, 674.00
1501, 674.00
1502, 674.00
1503, 674.00
1504, 675.00
1505, 675.00
1506, 675.00
1507, 676.00
1508, 676.00
1509, 677.00
1510, 677.00
1511, 677.00
1512, 678.00
1513, 679.00
1514, 678.00
1515, 679.00
1516, 680.00
1517, 680.00
1518, 680.00
1519, 681.00
1520, 681.00
1521, 682.00
1522, 682.00
1523, 683.00
1524, 683.00
1525, 684.00
1526, 684.00
1527, 684.00
1528, 685.00
1529, 686.00
1530, 686.00
1531, 686.00
1532, 686.00
1533, 688.00
1534, 688.00
1535, 688.00
1536, 689.00
1537, 689.00
1538, 690.00
1539, 690.00
1540, 691.00
1541, 691.00
1542, 691.00
1543, 692.00
1544, 692.00
1545, 693.00
1546, 694.00
1547, 694.00
1548, 695.00
1549, 695.00
1550, 695.00
1551, 696.00
1552, 696.00
1553, 697.00
1554, 697.00
1555, 698.00
1556, 698.00
1557, 699.00
1558, 699.00
1559, 699.00
1560, 700.00
1561, 701.00
1562, 702.00
1563, 702.00
1564, 702.00
1565, 703.00
1566, 704.00
1567, 704.00
1568, 705.00
1569, 706.00
1570, 705.00
1571, 706.00
1572, 707.00
1573, 707.00
1574, 708.00
1575, 708.00
1576, 709.00
1577, 710.00
1578, 710.00
1579, 710.00
1580, 711.00
1581, 711.00
1582, 712.00
1583, 712.00
1584, 712.00
1585, 713.00
1586, 713.00
1587, 714.00
1588, 714.00
1589, 715.00
1590, 716.00
1591, 716.00
1592, 716.00
1593, 717.00
1594, 717.00
1595, 717.00
1596, 718.00
1597, 718.00
1598, 719.00
1599, 720.00
1600, 720.00
1601, 720.00
1602, 721.00
1603, 721.00
1604, 722.00
1605, 722.00
1606, 723.00
1607, 723.00
1608, 724.00
1609, 724.00
1610, 725.00
1611, 726.00
1612, 726.00
1613, 727.00
1614, 727.00
1615, 728.00
1616, 729.00
1617, 729.00
1618, 730.00
1619, 730.00
1620, 731.00
1621, 731.00
1622, 732.00
1623, 732.00
1624, 733.00
1625, 734.00
1626, 734.00
1627, 735.00
1628, 736.00
1629, 736.00
1630, 737.00
1631, 737.00
1632, 738.00
1633, 738.00
1634, 738.00
1635, 739.00
1636, 739.00
1637, 740.00
1638, 740.00
1639, 741.00
1640, 741.00
1641, 742.00
1642, 742.00
1643, 743.00
1644, 743.00
1645, 744.00
1646, 744.00
1647, 745.00
1648, 745.00
1649, 746.00
1650, 746.00

1750, 918.00
1751, 918.00
1752, 917.00
1753, 918.00
1754, 918.00
1755, 919.00
1756, 918.00
1757, 918.00
1758, 917.00
1759, 918.00
1760, 917.00
1761, 918.00
1762, 917.00
1763, 917.00
1764, 918.00
1765, 917.00
1766, 917.00
1767, 917.00
1768, 917.00
1769, 918.00
1770, 917.00
1771, 916.00
1772, 917.00
1773, 917.00
1774, 916.00
1775, 917.00
1776, 917.00
1777, 916.00
1778, 916.00
1779, 916.00
1780, 915.00
1781, 915.00
1782, 915.00
1783, 914.00
1784, 915.00
1785, 914.00
1786, 913.00
1787, 913.00
1788, 914.00
1789, 913.00
1790, 913.00
1791, 913.00
1792, 913.00
1793, 913.00
1794, 913.00
1795, 912.00
1796, 912.00
1797, 912.00
1798, 911.00
1799, 911.00
1800, 911.00
1801, 911.00
1802, 911.00
1803, 911.00
1804, 910.00
1805, 910.00
1806, 911.00
1807, 910.00
1808, 910.00
1809, 909.00
1810, 910.00
1811, 909.00
1812, 909.00
1813, 909.00
1814, 909.00
1815, 908.00
1816, 908.00
1817, 908.00
1818, 908.00
1819, 908.00
1820, 907.00
1821, 907.00
1822, 906.00
1823, 905.00
1824, 906.00
1825, 905.00
1826, 904.00
1827, 905.00
1828, 904.00
1829, 903.00
1830, 903.00
1831, 902.00
1832, 902.00
1833, 901.00
1834, 900.00
1835, 899.00
1836, 899.00
1837, 898.00
1838, 898.00
1839, 897.00
1840, 896.00
1841, 895.00
1842, 894.00
1843, 894.00
1844, 892.00
1845, 891.00
1846, 891.00
1847, 890.00
1848, 889.00
1849, 888.00
1850, 887.00
1851, 886.00
1852, 885.00
1853, 885.00
1854, 884.00
1855, 883.00
1856, 882.00
1857, 882.00
1858, 881.00
1859, 880.00
1860, 879.00
1861, 879.00
1862, 877.00
1863, 877.00
1864, 876.00
1865, 875.00
1866, 874.00
1867, 874.00
1868, 873.00
1869, 872.00
1870, 872.00
1871, 872.00
1872, 872.00
1873, 871.00
1874, 871.00
1875, 871.00
1876, 869.00
1877, 869.00
1878, 869.00
1879, 869.00
1880, 868.00
1881, 868.00
1882, 867.00
1883, 868.00
1884, 867.00
1885, 866.00
1886, 866.00
1887, 867.00
1888, 865.00
1889, 866.00
1890, 865.00
1891, 865.00
1892, 865.00
1893, 865.00
1894, 865.00
1895, 865.00
1896, 865.00
1897, 864.00
1898, 865.00
1899, 863.00
1900, 864.00
1901, 864.00
1902, 864.00
1903, 863.00
1904, 864.00
1905, 864.00
1906, 863.00
1907, 864.00
1908, 863.00
1909, 863.00
1910, 862.00
1911, 863.00
1912, 863.00
1913, 862.00
1914, 863.00
1915, 862.00
1916, 863.00
1917, 862.00
1918, 862.00
1919, 862.00
1920, 862.00
1921, 862.00
1922, 862.00
1923, 862.00
1924, 862.00
1925, 863.00
1926, 862.00
1927, 862.00
1928, 862.00
1929, 862.00
1930, 862.00
1931, 862.00
1932, 862.00
1933, 862.00
1934, 863.00
1935, 863.00
1936, 862.00
1937, 863.00
1938, 862.00
1939, 862.00
1940, 862.00
1941, 863.00
1942, 862.00
1943, 863.00
1944, 863.00
1945, 864.00
1946, 863.00
1947, 863.00
1948, 863.00
1949, 863.00
1950, 863.00
1951, 864.00
1952, 863.00
1953, 864.00
1954, 864.00
1955, 864.00
1956, 864.00
1957, 865.00
1958, 865.00
1959, 865.00
1960, 865.00
1961, 865.00
1962, 865.00
1963, 865.00
1964, 866.00
1965, 866.00
1966, 865.00
1967, 866.00
1968, 867.00
1969, 866.00
1970, 867.00
1971, 866.00
1972, 867.00
1973, 867.00
1974, 867.00
1975, 867.00
1976, 868.00
1977, 868.00
1978, 868.00
1979, 868.00
1980, 868.00
1981, 868.00
1982, 869.00
1983, 869.00
1984, 869.00
1985, 870.00
1986, 870.00
1987, 870.00
1988, 871.00
1989, 871.00
1990, 870.00
1991, 870.00
1992, 871.00
1993, 871.00
1994, 872.00
1995, 871.00
1996, 872.00
1997, 872.00
1998, 872.00
1999, 872.00
2000, 872.00
2001, 873.00
2002, 873.00
2003, 872.00
2004, 874.00
2005, 874.00
2006, 873.00
2007, 874.00
2008, 874.00
2009, 874.00
2010, 874.00
2011, 875.00
2012, 875.00
2013, 876.00
2014, 875.00
2015, 876.00
2016, 876.00
2017, 876.00
2018, 877.00
2019, 876.00
2020, 876.00
2021, 877.00
2022, 877.00
2023, 877.00
2024, 877.00
2025, 877.00
2026, 878.00
2027, 878.00
2028, 878.00
2029, 880.00
2030, 879.00
2031, 879.00
2032, 879.00
2033, 879.00
2034, 879.00
2035, 879.00
2036, 881.00
2037, 881.00
2038, 880.00
2039, 881.00
2040, 881.00
2041, 881.00
2042, 882.00
2043, 882.00
2044, 883.00
2045, 883.00
2046, 883.00
2047, 884.00
2048, 884.00
2049, 884.00
2050, 884.00
2051, 885.00
2052, 885.00
2053, 886.00
2054, 885.00
2055, 886.00
2056, 885.00
2057, 887.00
2058, 886.00
2059, 887.00
2060, 887.00
2061, 888.00
2062, 888.00
2063, 889.00
2064, 889.00
2065, 890.00
2066, 890.00
2067, 890.00
2068, 890.00
2069, 890.00
2070, 890.00
2071, 891.00
2072, 891.00
2073, 891.00
2074, 892.00
2075, 892.00
2076, 893.00
2077, 893.00
2078, 893.00
2079, 894.00
2080, 893.00
2081, 894.00
2082, 894.00
2083, 894.00
2084, 895.00
2085, 895.00
2086, 895.00
2087, 895.00
2088, 895.00
2089, 896.00
2090, 897.00
2091, 896.00
2092, 897.00
2093, 896.00
2094, 897.00
2095, 897.00
2096, 898.00
2097, 897.00
2098, 897.00
2099, 897.00
2100, 898.00
2101, 898.00
2102, 898.00
2103, 899.00
2104, 899.00
2105, 899.00
2106, 900.00
2107, 899.00
2108, 899.00
2109, 900.00
2110, 900.00
2111, 900.00
2112, 900.00
2113, 900.00
2114, 901.00
2115, 901.00
2116, 901.00
2117, 901.00
2118, 901.00
2119, 901.00
2120, 901.00
2121, 901.00
2122, 902.00
2123, 902.00
2124, 902.00
2125, 902.00
2126, 902.00
2127, 902.00
2128, 902.00
2129, 903.00
2130, 903.00
2131, 903.00
2132, 902.00
2133, 903.00
2134, 903.00
2135, 903.00
2136, 903.00
2137, 904.00
2138, 904.00
2139, 904.00
2140, 904.00
2141, 904.00
2142, 904.00
2143, 905.00
2144, 904.00
2145, 904.00
2146, 904.00
2147, 905.00
2148, 905.00
2149, 904.00
2150, 904.00
