FW version: 24
Log Version: 3.0.3

General Info:
       Command/Macro Performed,            Timestamp,             Device ID, COM Port, UART/I2C, Test Name, Host Major, Host Minor, Host Revision, Host Git Commit
            Single_measurement,  2023_06_28_12_11_25,       Insight2_F4_xxx,    USB-C,      USB,          ,          0,          1,             1,      4031237645

Show Spectrometer Status:
l0_version, f4_version, battery_perc, battery_mVolt, accelerometer_temp, accelerometer_x, accelerometer_y, accelerometer_z, compass_temp, compass_x, compass_y, compass_z, lamp_0, lamp_1, gain_0, gain_1
        17,         24,           48,          1908,               6560,           65232,            1060,           18756,            0,     65489,     65454,     18766,   2047,   2047,      1,      1

Temperature Statistic Info:
NTC AVG [°C], NTC2 AVG [°C]
      39.966,        39.675

Statistic Info:
M1:  num,      min,      max,   median,      AVG,      STD,M2:  num,      min,      max,   median,      AVG,      STD
     301,   754.00,   871.00,   781.00,   794.49,  36.9998,     401,  1127.00,  1204.00,  1163.00,  1163.90,  24.8807,

Measurements:
Wavelength, Data Amplitude
1350, 771.00
1351, 772.00
1352, 771.00
1353, 771.00
1354, 770.00
1355, 771.00
1356, 770.00
1357, 770.00
1358, 769.00
1359, 770.00
1360, 769.00
1361, 769.00
1362, 769.00
1363, 767.00
1364, 767.00
1365, 767.00
1366, 766.00
1367, 766.00
1368, 765.00
1369, 765.00
1370, 765.00
1371, 763.00
1372, 763.00
1373, 761.00
1374, 763.00
1375, 762.00
1376, 761.00
1377, 761.00
1378, 760.00
1379, 760.00
1380, 760.00
1381, 759.00
1382, 759.00
1383, 759.00
1384, 759.00
1385, 759.00
1386, 759.00
1387, 757.00
1388, 757.00
1389, 758.00
1390, 758.00
1391, 757.00
1392, 757.00
1393, 758.00
1394, 756.00
1395, 757.00
1396, 757.00
1397, 757.00
1398, 756.00
1399, 756.00
1400, 757.00
1401, 756.00
1402, 756.00
1403, 755.00
1404, 756.00
1405, 756.00
1406, 755.00
1407, 756.00
1408, 756.00
1409, 755.00
1410, 755.00
1411, 756.00
1412, 756.00
1413, 756.00
1414, 756.00
1415, 756.00
1416, 754.00
1417, 755.00
1418, 756.00
1419, 756.00
1420, 755.00
1421, 756.00
1422, 756.00
1423, 755.00
1424, 756.00
1425, 755.00
1426, 755.00
1427, 757.00
1428, 756.00
1429, 757.00
1430, 756.00
1431, 756.00
1432, 757.00
1433, 756.00
1434, 757.00
1435, 756.00
1436, 757.00
1437, 757.00
1438, 757.00
1439, 758.00
1440, 759.00
1441, 759.00
1442, 758.00
1443, 758.00
1444, 759.00
1445, 760.00
1446, 759.00
1447, 760.00
1448, 759.00
1449, 761.00
1450, 761.00
1451, 761.00
1452, 761.00
1453, 761.00
1454, 761.00
1455, 762.00
1456, 763.00
1457, 762.00
1458, 762.00
1459, 763.00
1460, 763.00
1461, 764.00
1462, 764.00
1463, 763.00
1464, 765.00
1465, 765.00
1466, 766.00
1467, 765.00
1468, 766.00
1469, 767.00
1470, 766.00
1471, 767.00
1472, 767.00
1473, 769.00
1474, 769.00
1475, 769.00
1476, 770.00
1477, 770.00
1478, 771.00
1479, 770.00
1480, 771.00
1481, 773.00
1482, 774.00
1483, 773.00
1484, 773.00
1485, 773.00
1486, 774.00
1487, 775.00
1488, 775.00
1489, 776.00
1490, 776.00
1491, 777.00
1492, 778.00
1493, 777.00
1494, 779.00
1495, 778.00
1496, 779.00
1497, 779.00
1498, 780.00
1499, 781.00
1500, 781.00
1501, 781.00
1502, 782.00
1503, 783.00
1504, 784.00
1505, 784.00
1506, 786.00
1507, 785.00
1508, 785.00
1509, 785.00
1510, 786.00
1511, 787.00
1512, 788.00
1513, 788.00
1514, 789.00
1515, 789.00
1516, 790.00
1517, 792.00
1518, 792.00
1519, 791.00
1520, 792.00
1521, 793.00
1522, 793.00
1523, 794.00
1524, 794.00
1525, 796.00
1526, 795.00
1527, 796.00
1528, 797.00
1529, 798.00
1530, 799.00
1531, 800.00
1532, 800.00
1533, 800.00
1534, 801.00
1535, 802.00
1536, 802.00
1537, 802.00
1538, 804.00
1539, 804.00
1540, 804.00
1541, 804.00
1542, 805.00
1543, 805.00
1544, 807.00
1545, 807.00
1546, 808.00
1547, 808.00
1548, 809.00
1549, 810.00
1550, 811.00
1551, 811.00
1552, 812.00
1553, 812.00
1554, 812.00
1555, 813.00
1556, 813.00
1557, 815.00
1558, 814.00
1559, 816.00
1560, 816.00
1561, 817.00
1562, 818.00
1563, 817.00
1564, 818.00
1565, 820.00
1566, 820.00
1567, 820.00
1568, 821.00
1569, 822.00
1570, 821.00
1571, 823.00
1572, 824.00
1573, 825.00
1574, 825.00
1575, 826.00
1576, 826.00
1577, 826.00
1578, 827.00
1579, 827.00
1580, 829.00
1581, 830.00
1582, 830.00
1583, 830.00
1584, 831.00
1585, 832.00
1586, 831.00
1587, 832.00
1588, 833.00
1589, 833.00
1590, 834.00
1591, 836.00
1592, 836.00
1593, 836.00
1594, 836.00
1595, 837.00
1596, 838.00
1597, 838.00
1598, 838.00
1599, 840.00
1600, 840.00
1601, 840.00
1602, 840.00
1603, 842.00
1604, 842.00
1605, 843.00
1606, 845.00
1607, 845.00
1608, 845.00
1609, 846.00
1610, 847.00
1611, 847.00
1612, 848.00
1613, 849.00
1614, 850.00
1615, 851.00
1616, 850.00
1617, 851.00
1618, 852.00
1619, 852.00
1620, 853.00
1621, 855.00
1622, 855.00
1623, 856.00
1624, 856.00
1625, 858.00
1626, 858.00
1627, 859.00
1628, 859.00
1629, 860.00
1630, 860.00
1631, 861.00
1632, 862.00
1633, 863.00
1634, 863.00
1635, 864.00
1636, 864.00
1637, 865.00
1638, 866.00
1639, 866.00
1640, 866.00
1641, 867.00
1642, 867.00
1643, 868.00
1644, 868.00
1645, 868.00
1646, 869.00
1647, 870.00
1648, 870.00
1649, 871.00
1650, 871.00

1750, 1203.00
1751, 1203.00
1752, 1201.00
1753, 1202.00
1754, 1201.00
1755, 1202.00
1756, 1202.00
1757, 1204.00
1758, 1203.00
1759, 1203.00
1760, 1203.00
1761, 1203.00
1762, 1203.00
1763, 1200.00
1764, 1203.00
1765, 1203.00
1766, 1202.00
1767, 1203.00
1768, 1203.00
1769, 1202.00
1770, 1201.00
1771, 1201.00
1772, 1200.00
1773, 1202.00
1774, 1201.00
1775, 1201.00
1776, 1200.00
1777, 1199.00
1778, 1201.00
1779, 1201.00
1780, 1202.00
1781, 1200.00
1782, 1199.00
1783, 1199.00
1784, 1199.00
1785, 1199.00
1786, 1197.00
1787, 1200.00
1788, 1197.00
1789, 1196.00
1790, 1198.00
1791, 1197.00
1792, 1197.00
1793, 1197.00
1794, 1196.00
1795, 1196.00
1796, 1195.00
1797, 1196.00
1798, 1194.00
1799, 1194.00
1800, 1195.00
1801, 1193.00
1802, 1194.00
1803, 1194.00
1804, 1195.00
1805, 1194.00
1806, 1194.00
1807, 1194.00
1808, 1193.00
1809, 1193.00
1810, 1192.00
1811, 1194.00
1812, 1193.00
1813, 1192.00
1814, 1190.00
1815, 1192.00
1816, 1190.00
1817, 1191.00
1818, 1190.00
1819, 1190.00
1820, 1189.00
1821, 1189.00
1822, 1188.00
1823, 1186.00
1824, 1188.00
1825, 1186.00
1826, 1185.00
1827, 1185.00
1828, 1183.00
1829, 1185.00
1830, 1185.00
1831, 1183.00
1832, 1184.00
1833, 1181.00
1834, 1180.00
1835, 1178.00
1836, 1179.00
1837, 1177.00
1838, 1176.00
1839, 1177.00
1840, 1177.00
1841, 1174.00
1842, 1173.00
1843, 1173.00
1844, 1171.00
1845, 1169.00
1846, 1168.00
1847, 1170.00
1848, 1166.00
1849, 1166.00
1850, 1163.00
1851, 1162.00
1852, 1161.00
1853, 1159.00
1854, 1158.00
1855, 1159.00
1856, 1157.00
1857, 1155.00
1858, 1153.00
1859, 1153.00
1860, 1152.00
1861, 1152.00
1862, 1149.00
1863, 1149.00
1864, 1147.00
1865, 1147.00
1866, 1147.00
1867, 1145.00
1868, 1144.00
1869, 1145.00
1870, 1145.00
1871, 1143.00
1872, 1141.00
1873, 1140.00
1874, 1140.00
1875, 1139.00
1876, 1140.00
1877, 1139.00
1878, 1138.00
1879, 1139.00
1880, 1137.00
1881, 1139.00
1882, 1137.00
1883, 1136.00
1884, 1137.00
1885, 1137.00
1886, 1138.00
1887, 1136.00
1888, 1137.00
1889, 1134.00
1890, 1135.00
1891, 1133.00
1892, 1133.00
1893, 1135.00
1894, 1134.00
1895, 1134.00
1896, 1132.00
1897, 1134.00
1898, 1132.00
1899, 1132.00
1900, 1134.00
1901, 1133.00
1902, 1134.00
1903, 1132.00
1904, 1132.00
1905, 1133.00
1906, 1132.00
1907, 1130.00
1908, 1133.00
1909, 1131.00
1910, 1132.00
1911, 1131.00
1912, 1131.00
1913, 1129.00
1914, 1130.00
1915, 1131.00
1916, 1131.00
1917, 1132.00
1918, 1132.00
1919, 1130.00
1920, 1129.00
1921, 1127.00
1922, 1128.00
1923, 1131.00
1924, 1130.00
1925, 1129.00
1926, 1130.00
1927, 1130.00
1928, 1131.00
1929, 1132.00
1930, 1131.00
1931, 1131.00
1932, 1130.00
1933, 1131.00
1934, 1130.00
1935, 1130.00
1936, 1128.00
1937, 1132.00
1938, 1131.00
1939, 1131.00
1940, 1132.00
1941, 1132.00
1942, 1131.00
1943, 1131.00
1944, 1132.00
1945, 1131.00
1946, 1132.00
1947, 1131.00
1948, 1133.00
1949, 1131.00
1950, 1133.00
1951, 1131.00
1952, 1131.00
1953, 1132.00
1954, 1132.00
1955, 1132.00
1956, 1132.00
1957, 1135.00
1958, 1134.00
1959, 1134.00
1960, 1134.00
1961, 1133.00
1962, 1137.00
1963, 1135.00
1964, 1136.00
1965, 1135.00
1966, 1136.00
1967, 1137.00
1968, 1137.00
1969, 1136.00
1970, 1135.00
1971, 1137.00
1972, 1137.00
1973, 1138.00
1974, 1138.00
1975, 1138.00
1976, 1140.00
1977, 1138.00
1978, 1139.00
1979, 1139.00
1980, 1138.00
1981, 1140.00
1982, 1140.00
1983, 1141.00
1984, 1141.00
1985, 1142.00
1986, 1141.00
1987, 1140.00
1988, 1142.00
1989, 1142.00
1990, 1143.00
1991, 1143.00
1992, 1143.00
1993, 1145.00
1994, 1142.00
1995, 1144.00
1996, 1145.00
1997, 1143.00
1998, 1146.00
1999, 1145.00
2000, 1145.00
2001, 1146.00
2002, 1146.00
2003, 1146.00
2004, 1146.00
2005, 1147.00
2006, 1147.00
2007, 1146.00
2008, 1147.00
2009, 1147.00
2010, 1147.00
2011, 1146.00
2012, 1149.00
2013, 1149.00
2014, 1149.00
2015, 1148.00
2016, 1151.00
2017, 1151.00
2018, 1150.00
2019, 1149.00
2020, 1153.00
2021, 1152.00
2022, 1152.00
2023, 1153.00
2024, 1153.00
2025, 1153.00
2026, 1152.00
2027, 1152.00
2028, 1153.00
2029, 1154.00
2030, 1154.00
2031, 1157.00
2032, 1156.00
2033, 1157.00
2034, 1155.00
2035, 1156.00
2036, 1157.00
2037, 1159.00
2038, 1157.00
2039, 1157.00
2040, 1159.00
2041, 1159.00
2042, 1157.00
2043, 1159.00
2044, 1159.00
2045, 1160.00
2046, 1160.00
2047, 1162.00
2048, 1161.00
2049, 1161.00
2050, 1164.00
2051, 1163.00
2052, 1162.00
2053, 1163.00
2054, 1163.00
2055, 1167.00
2056, 1165.00
2057, 1166.00
2058, 1167.00
2059, 1167.00
2060, 1168.00
2061, 1168.00
2062, 1167.00
2063, 1170.00
2064, 1167.00
2065, 1167.00
2066, 1169.00
2067, 1169.00
2068, 1170.00
2069, 1171.00
2070, 1170.00
2071, 1172.00
2072, 1171.00
2073, 1172.00
2074, 1172.00
2075, 1175.00
2076, 1174.00
2077, 1174.00
2078, 1175.00
2079, 1176.00
2080, 1176.00
2081, 1176.00
2082, 1177.00
2083, 1177.00
2084, 1178.00
2085, 1176.00
2086, 1178.00
2087, 1179.00
2088, 1180.00
2089, 1178.00
2090, 1178.00
2091, 1181.00
2092, 1181.00
2093, 1179.00
2094, 1181.00
2095, 1181.00
2096, 1181.00
2097, 1181.00
2098, 1181.00
2099, 1183.00
2100, 1182.00
2101, 1184.00
2102, 1183.00
2103, 1182.00
2104, 1185.00
2105, 1185.00
2106, 1182.00
2107, 1183.00
2108, 1184.00
2109, 1186.00
2110, 1187.00
2111, 1184.00
2112, 1186.00
2113, 1187.00
2114, 1187.00
2115, 1186.00
2116, 1188.00
2117, 1186.00
2118, 1186.00
2119, 1187.00
2120, 1184.00
2121, 1185.00
2122, 1189.00
2123, 1186.00
2124, 1188.00
2125, 1189.00
2126, 1189.00
2127, 1188.00
2128, 1189.00
2129, 1188.00
2130, 1190.00
2131, 1190.00
2132, 1189.00
2133, 1190.00
2134, 1189.00
2135, 1191.00
2136, 1190.00
2137, 1192.00
2138, 1191.00
2139, 1191.00
2140, 1190.00
2141, 1192.00
2142, 1192.00
2143, 1192.00
2144, 1190.00
2145, 1193.00
2146, 1192.00
2147, 1191.00
2148, 1190.00
2149, 1193.00
2150, 1193.00
