FW version: 24
Log Version: 3.0.3

General Info:
       Command/Macro Performed,            Timestamp,             Device ID, COM Port, UART/I2C, Test Name, Host Major, Host Minor, Host Revision, Host Git Commit
            Single_measurement,  2023_06_28_12_11_16,       Insight2_F4_xxx,    USB-C,      USB,          ,          0,          1,             1,      4031237645

Show Spectrometer Status:
l0_version, f4_version, battery_perc, battery_mVolt, accelerometer_temp, accelerometer_x, accelerometer_y, accelerometer_z, compass_temp, compass_x, compass_y, compass_z, lamp_0, lamp_1, gain_0, gain_1
        17,         24,           48,          1906,               6560,           65224,            1044,           18896,            0,     65502,     65471,     18902,   2047,   2047,      1,      1

Temperature Statistic Info:
NTC AVG [°C], NTC2 AVG [°C]
      39.937,        39.617

Statistic Info:
M1:  num,      min,      max,   median,      AVG,      STD,M2:  num,      min,      max,   median,      AVG,      STD
     301,   754.00,   871.00,   781.00,   794.21,  37.0785,     401,  1128.00,  1204.00,  1162.00,  1163.36,  24.8496,

Measurements:
Wavelength, Data Amplitude
1350, 771.00
1351, 771.00
1352, 772.00
1353, 771.00
1354, 770.00
1355, 770.00
1356, 770.00
1357, 770.00
1358, 769.00
1359, 769.00
1360, 768.00
1361, 768.00
1362, 768.00
1363, 767.00
1364, 766.00
1365, 766.00
1366, 765.00
1367, 766.00
1368, 764.00
1369, 763.00
1370, 764.00
1371, 763.00
1372, 763.00
1373, 763.00
1374, 762.00
1375, 761.00
1376, 762.00
1377, 760.00
1378, 760.00
1379, 760.00
1380, 759.00
1381, 760.00
1382, 759.00
1383, 758.00
1384, 758.00
1385, 757.00
1386, 758.00
1387, 758.00
1388, 758.00
1389, 758.00
1390, 758.00
1391, 757.00
1392, 757.00
1393, 756.00
1394, 756.00
1395, 756.00
1396, 755.00
1397, 756.00
1398, 757.00
1399, 755.00
1400, 755.00
1401, 756.00
1402, 756.00
1403, 756.00
1404, 756.00
1405, 756.00
1406, 755.00
1407, 756.00
1408, 756.00
1409, 756.00
1410, 755.00
1411, 755.00
1412, 756.00
1413, 755.00
1414, 754.00
1415, 755.00
1416, 756.00
1417, 755.00
1418, 756.00
1419, 755.00
1420, 755.00
1421, 756.00
1422, 755.00
1423, 755.00
1424, 755.00
1425, 756.00
1426, 756.00
1427, 755.00
1428, 755.00
1429, 756.00
1430, 756.00
1431, 757.00
1432, 757.00
1433, 757.00
1434, 757.00
1435, 757.00
1436, 757.00
1437, 758.00
1438, 758.00
1439, 758.00
1440, 757.00
1441, 759.00
1442, 757.00
1443, 758.00
1444, 758.00
1445, 758.00
1446, 759.00
1447, 759.00
1448, 760.00
1449, 760.00
1450, 759.00
1451, 761.00
1452, 760.00
1453, 759.00
1454, 761.00
1455, 762.00
1456, 761.00
1457, 763.00
1458, 762.00
1459, 762.00
1460, 763.00
1461, 762.00
1462, 763.00
1463, 764.00
1464, 764.00
1465, 764.00
1466, 765.00
1467, 765.00
1468, 766.00
1469, 766.00
1470, 766.00
1471, 767.00
1472, 768.00
1473, 767.00
1474, 768.00
1475, 768.00
1476, 770.00
1477, 770.00
1478, 771.00
1479, 770.00
1480, 771.00
1481, 771.00
1482, 772.00
1483, 773.00
1484, 773.00
1485, 773.00
1486, 774.00
1487, 774.00
1488, 776.00
1489, 776.00
1490, 776.00
1491, 776.00
1492, 777.00
1493, 778.00
1494, 778.00
1495, 779.00
1496, 779.00
1497, 779.00
1498, 780.00
1499, 780.00
1500, 782.00
1501, 781.00
1502, 782.00
1503, 783.00
1504, 783.00
1505, 784.00
1506, 784.00
1507, 784.00
1508, 785.00
1509, 786.00
1510, 787.00
1511, 787.00
1512, 787.00
1513, 788.00
1514, 789.00
1515, 789.00
1516, 790.00
1517, 791.00
1518, 791.00
1519, 792.00
1520, 792.00
1521, 792.00
1522, 793.00
1523, 794.00
1524, 794.00
1525, 795.00
1526, 795.00
1527, 796.00
1528, 796.00
1529, 798.00
1530, 798.00
1531, 797.00
1532, 800.00
1533, 799.00
1534, 801.00
1535, 802.00
1536, 802.00
1537, 803.00
1538, 803.00
1539, 804.00
1540, 804.00
1541, 804.00
1542, 805.00
1543, 806.00
1544, 807.00
1545, 808.00
1546, 808.00
1547, 807.00
1548, 809.00
1549, 810.00
1550, 810.00
1551, 811.00
1552, 811.00
1553, 812.00
1554, 811.00
1555, 813.00
1556, 814.00
1557, 814.00
1558, 815.00
1559, 815.00
1560, 815.00
1561, 816.00
1562, 816.00
1563, 818.00
1564, 818.00
1565, 820.00
1566, 820.00
1567, 821.00
1568, 821.00
1569, 821.00
1570, 822.00
1571, 822.00
1572, 823.00
1573, 824.00
1574, 824.00
1575, 826.00
1576, 826.00
1577, 826.00
1578, 827.00
1579, 827.00
1580, 828.00
1581, 829.00
1582, 829.00
1583, 830.00
1584, 830.00
1585, 831.00
1586, 832.00
1587, 832.00
1588, 833.00
1589, 833.00
1590, 834.00
1591, 834.00
1592, 834.00
1593, 836.00
1594, 836.00
1595, 836.00
1596, 837.00
1597, 838.00
1598, 839.00
1599, 840.00
1600, 839.00
1601, 840.00
1602, 841.00
1603, 842.00
1604, 842.00
1605, 842.00
1606, 843.00
1607, 844.00
1608, 845.00
1609, 846.00
1610, 846.00
1611, 848.00
1612, 848.00
1613, 848.00
1614, 849.00
1615, 850.00
1616, 851.00
1617, 851.00
1618, 853.00
1619, 853.00
1620, 854.00
1621, 854.00
1622, 855.00
1623, 855.00
1624, 856.00
1625, 857.00
1626, 857.00
1627, 858.00
1628, 859.00
1629, 861.00
1630, 860.00
1631, 861.00
1632, 863.00
1633, 863.00
1634, 863.00
1635, 864.00
1636, 865.00
1637, 865.00
1638, 865.00
1639, 865.00
1640, 867.00
1641, 866.00
1642, 867.00
1643, 868.00
1644, 868.00
1645, 868.00
1646, 870.00
1647, 870.00
1648, 871.00
1649, 871.00
1650, 871.00

1750, 1201.00
1751, 1204.00
1752, 1200.00
1753, 1201.00
1754, 1202.00
1755, 1200.00
1756, 1201.00
1757, 1202.00
1758, 1203.00
1759, 1201.00
1760, 1201.00
1761, 1201.00
1762, 1203.00
1763, 1201.00
1764, 1203.00
1765, 1202.00
1766, 1203.00
1767, 1201.00
1768, 1201.00
1769, 1202.00
1770, 1202.00
1771, 1200.00
1772, 1200.00
1773, 1202.00
1774, 1201.00
1775, 1199.00
1776, 1200.00
1777, 1197.00
1778, 1200.00
1779, 1199.00
1780, 1200.00
1781, 1199.00
1782, 1200.00
1783, 1195.00
1784, 1198.00
1785, 1196.00
1786, 1200.00
1787, 1197.00
1788, 1198.00
1789, 1197.00
1790, 1197.00
1791, 1196.00
1792, 1197.00
1793, 1195.00
1794, 1197.00
1795, 1195.00
1796, 1193.00
1797, 1194.00
1798, 1196.00
1799, 1195.00
1800, 1195.00
1801, 1194.00
1802, 1193.00
1803, 1193.00
1804, 1194.00
1805, 1192.00
1806, 1194.00
1807, 1191.00
1808, 1191.00
1809, 1192.00
1810, 1192.00
1811, 1192.00
1812, 1190.00
1813, 1192.00
1814, 1191.00
1815, 1190.00
1816, 1191.00
1817, 1190.00
1818, 1190.00
1819, 1190.00
1820, 1189.00
1821, 1189.00
1822, 1188.00
1823, 1188.00
1824, 1186.00
1825, 1185.00
1826, 1186.00
1827, 1184.00
1828, 1184.00
1829, 1184.00
1830, 1183.00
1831, 1182.00
1832, 1180.00
1833, 1181.00
1834, 1181.00
1835, 1180.00
1836, 1179.00
1837, 1177.00
1838, 1174.00
1839, 1175.00
1840, 1174.00
1841, 1175.00
1842, 1173.00
1843, 1171.00
1844, 1170.00
1845, 1169.00
1846, 1166.00
1847, 1165.00
1848, 1165.00
1849, 1163.00
1850, 1163.00
1851, 1162.00
1852, 1161.00
1853, 1159.00
1854, 1157.00
1855, 1158.00
1856, 1156.00
1857, 1154.00
1858, 1153.00
1859, 1153.00
1860, 1151.00
1861, 1151.00
1862, 1151.00
1863, 1151.00
1864, 1149.00
1865, 1146.00
1866, 1147.00
1867, 1147.00
1868, 1147.00
1869, 1145.00
1870, 1143.00
1871, 1142.00
1872, 1139.00
1873, 1139.00
1874, 1142.00
1875, 1139.00
1876, 1140.00
1877, 1140.00
1878, 1137.00
1879, 1138.00
1880, 1138.00
1881, 1138.00
1882, 1137.00
1883, 1136.00
1884, 1135.00
1885, 1137.00
1886, 1136.00
1887, 1133.00
1888, 1135.00
1889, 1134.00
1890, 1136.00
1891, 1134.00
1892, 1133.00
1893, 1134.00
1894, 1133.00
1895, 1132.00
1896, 1134.00
1897, 1134.00
1898, 1134.00
1899, 1133.00
1900, 1132.00
1901, 1133.00
1902, 1130.00
1903, 1131.00
1904, 1132.00
1905, 1131.00
1906, 1131.00
1907, 1131.00
1908, 1129.00
1909, 1132.00
1910, 1131.00
1911, 1131.00
1912, 1130.00
1913, 1131.00
1914, 1129.00
1915, 1131.00
1916, 1131.00
1917, 1131.00
1918, 1129.00
1919, 1129.00
1920, 1130.00
1921, 1130.00
1922, 1131.00
1923, 1131.00
1924, 1130.00
1925, 1129.00
1926, 1131.00
1927, 1129.00
1928, 1128.00
1929, 1131.00
1930, 1128.00
1931, 1129.00
1932, 1129.00
1933, 1129.00
1934, 1130.00
1935, 1131.00
1936, 1130.00
1937, 1129.00
1938, 1129.00
1939, 1130.00
1940, 1131.00
1941, 1130.00
1942, 1130.00
1943, 1131.00
1944, 1130.00
1945, 1131.00
1946, 1131.00
1947, 1130.00
1948, 1131.00
1949, 1131.00
1950, 1131.00
1951, 1134.00
1952, 1135.00
1953, 1133.00
1954, 1133.00
1955, 1131.00
1956, 1135.00
1957, 1133.00
1958, 1134.00
1959, 1133.00
1960, 1135.00
1961, 1134.00
1962, 1134.00
1963, 1134.00
1964, 1133.00
1965, 1135.00
1966, 1135.00
1967, 1135.00
1968, 1135.00
1969, 1137.00
1970, 1136.00
1971, 1136.00
1972, 1136.00
1973, 1137.00
1974, 1138.00
1975, 1138.00
1976, 1137.00
1977, 1139.00
1978, 1140.00
1979, 1138.00
1980, 1139.00
1981, 1137.00
1982, 1140.00
1983, 1139.00
1984, 1140.00
1985, 1141.00
1986, 1140.00
1987, 1140.00
1988, 1141.00
1989, 1142.00
1990, 1141.00
1991, 1141.00
1992, 1142.00
1993, 1143.00
1994, 1144.00
1995, 1144.00
1996, 1142.00
1997, 1144.00
1998, 1145.00
1999, 1145.00
2000, 1143.00
2001, 1144.00
2002, 1144.00
2003, 1145.00
2004, 1147.00
2005, 1145.00
2006, 1147.00
2007, 1147.00
2008, 1147.00
2009, 1146.00
2010, 1148.00
2011, 1149.00
2012, 1150.00
2013, 1147.00
2014, 1150.00
2015, 1149.00
2016, 1148.00
2017, 1147.00
2018, 1151.00
2019, 1147.00
2020, 1152.00
2021, 1150.00
2022, 1151.00
2023, 1151.00
2024, 1153.00
2025, 1154.00
2026, 1154.00
2027, 1152.00
2028, 1154.00
2029, 1152.00
2030, 1153.00
2031, 1153.00
2032, 1153.00
2033, 1156.00
2034, 1155.00
2035, 1154.00
2036, 1158.00
2037, 1157.00
2038, 1156.00
2039, 1156.00
2040, 1158.00
2041, 1158.00
2042, 1158.00
2043, 1157.00
2044, 1156.00
2045, 1161.00
2046, 1162.00
2047, 1160.00
2048, 1161.00
2049, 1161.00
2050, 1161.00
2051, 1161.00
2052, 1164.00
2053, 1164.00
2054, 1164.00
2055, 1163.00
2056, 1164.00
2057, 1165.00
2058, 1165.00
2059, 1165.00
2060, 1167.00
2061, 1167.00
2062, 1168.00
2063, 1167.00
2064, 1169.00
2065, 1169.00
2066, 1168.00
2067, 1169.00
2068, 1170.00
2069, 1171.00
2070, 1171.00
2071, 1171.00
2072, 1172.00
2073, 1172.00
2074, 1174.00
2075, 1174.00
2076, 1173.00
2077, 1172.00
2078, 1173.00
2079, 1175.00
2080, 1176.00
2081, 1176.00
2082, 1177.00
2083, 1176.00
2084, 1177.00
2085, 1177.00
2086, 1177.00
2087, 1178.00
2088, 1180.00
2089, 1178.00
2090, 1178.00
2091, 1178.00
2092, 1178.00
2093, 1179.00
2094, 1182.00
2095, 1181.00
2096, 1182.00
2097, 1182.00
2098, 1183.00
2099, 1182.00
2100, 1181.00
2101, 1182.00
2102, 1184.00
2103, 1183.00
2104, 1184.00
2105, 1182.00
2106, 1184.00
2107, 1184.00
2108, 1185.00
2109, 1185.00
2110, 1184.00
2111, 1184.00
2112, 1184.00
2113, 1184.00
2114, 1186.00
2115, 1187.00
2116, 1187.00
2117, 1186.00
2118, 1187.00
2119, 1187.00
2120, 1187.00
2121, 1187.00
2122, 1187.00
2123, 1188.00
2124, 1188.00
2125, 1189.00
2126, 1190.00
2127, 1187.00
2128, 1190.00
2129, 1189.00
2130, 1188.00
2131, 1189.00
2132, 1187.00
2133, 1191.00
2134, 1188.00
2135, 1190.00
2136, 1189.00
2137, 1190.00
2138, 1191.00
2139, 1190.00
2140, 1191.00
2141, 1191.00
2142, 1191.00
2143, 1190.00
2144, 1191.00
2145, 1191.00
2146, 1191.00
2147, 1191.00
2148, 1192.00
2149, 1193.00
2150, 1192.00
