FW version: 24
Log Version: 3.0.3

General Info:
       Command/Macro Performed,            Timestamp,             Device ID, COM Port, UART/I2C, Test Name, Host Major, Host Minor, Host Revision, Host Git Commit
            Single_measurement,  2023_06_28_12_12_14,       Insight2_F4_xxx,    USB-C,      USB,          ,          0,          1,             1,      4031237645

Show Spectrometer Status:
l0_version, f4_version, battery_perc, battery_mVolt, accelerometer_temp, accelerometer_x, accelerometer_y, accelerometer_z, compass_temp, compass_x, compass_y, compass_z, lamp_0, lamp_1, gain_0, gain_1
        17,         24,           48,          1905,               6592,           65180,            1056,           18768,            0,     65500,     65453,     18801,   3276,   3276,      1,      1

Temperature Statistic Info:
NTC AVG [°C], NTC2 AVG [°C]
      40.381,        40.054

Statistic Info:
M1:  num,      min,      max,   median,      AVG,      STD,M2:  num,      min,      max,   median,      AVG,      STD
     301,  1894.00,  2161.00,  1949.00,  1982.44,  82.8966,     401,  2493.00,  2657.00,  2562.00,  2565.42,  53.5563,

Measurements:
Wavelength, Data Amplitude
1350, 1943.00
1351, 1941.00
1352, 1942.00
1353, 1941.00
1354, 1940.00
1355, 1938.00
1356, 1938.00
1357, 1935.00
1358, 1936.00
1359, 1933.00
1360, 1933.00
1361, 1932.00
1362, 1931.00
1363, 1930.00
1364, 1928.00
1365, 1927.00
1366, 1925.00
1367, 1926.00
1368, 1923.00
1369, 1922.00
1370, 1921.00
1371, 1919.00
1372, 1918.00
1373, 1917.00
1374, 1916.00
1375, 1914.00
1376, 1914.00
1377, 1913.00
1378, 1911.00
1379, 1911.00
1380, 1910.00
1381, 1910.00
1382, 1908.00
1383, 1907.00
1384, 1906.00
1385, 1904.00
1386, 1905.00
1387, 1904.00
1388, 1903.00
1389, 1903.00
1390, 1903.00
1391, 1903.00
1392, 1901.00
1393, 1901.00
1394, 1900.00
1395, 1899.00
1396, 1900.00
1397, 1899.00
1398, 1899.00
1399, 1898.00
1400, 1899.00
1401, 1898.00
1402, 1898.00
1403, 1898.00
1404, 1898.00
1405, 1897.00
1406, 1897.00
1407, 1897.00
1408, 1897.00
1409, 1896.00
1410, 1896.00
1411, 1896.00
1412, 1897.00
1413, 1897.00
1414, 1896.00
1415, 1897.00
1416, 1895.00
1417, 1895.00
1418, 1895.00
1419, 1895.00
1420, 1895.00
1421, 1894.00
1422, 1895.00
1423, 1896.00
1424, 1896.00
1425, 1896.00
1426, 1895.00
1427, 1896.00
1428, 1895.00
1429, 1897.00
1430, 1896.00
1431, 1897.00
1432, 1898.00
1433, 1897.00
1434, 1898.00
1435, 1897.00
1436, 1899.00
1437, 1899.00
1438, 1899.00
1439, 1900.00
1440, 1900.00
1441, 1901.00
1442, 1900.00
1443, 1902.00
1444, 1902.00
1445, 1902.00
1446, 1903.00
1447, 1904.00
1448, 1903.00
1449, 1903.00
1450, 1903.00
1451, 1905.00
1452, 1906.00
1453, 1906.00
1454, 1907.00
1455, 1906.00
1456, 1908.00
1457, 1909.00
1458, 1910.00
1459, 1909.00
1460, 1911.00
1461, 1913.00
1462, 1911.00
1463, 1913.00
1464, 1914.00
1465, 1914.00
1466, 1915.00
1467, 1916.00
1468, 1916.00
1469, 1918.00
1470, 1919.00
1471, 1919.00
1472, 1920.00
1473, 1921.00
1474, 1923.00
1475, 1923.00
1476, 1923.00
1477, 1927.00
1478, 1927.00
1479, 1928.00
1480, 1927.00
1481, 1929.00
1482, 1930.00
1483, 1931.00
1484, 1933.00
1485, 1933.00
1486, 1934.00
1487, 1935.00
1488, 1936.00
1489, 1938.00
1490, 1939.00
1491, 1939.00
1492, 1941.00
1493, 1941.00
1494, 1944.00
1495, 1944.00
1496, 1945.00
1497, 1947.00
1498, 1948.00
1499, 1948.00
1500, 1949.00
1501, 1950.00
1502, 1952.00
1503, 1953.00
1504, 1954.00
1505, 1956.00
1506, 1955.00
1507, 1958.00
1508, 1959.00
1509, 1959.00
1510, 1961.00
1511, 1962.00
1512, 1963.00
1513, 1965.00
1514, 1966.00
1515, 1967.00
1516, 1969.00
1517, 1970.00
1518, 1971.00
1519, 1973.00
1520, 1974.00
1521, 1976.00
1522, 1976.00
1523, 1978.00
1524, 1978.00
1525, 1979.00
1526, 1981.00
1527, 1982.00
1528, 1982.00
1529, 1985.00
1530, 1987.00
1531, 1988.00
1532, 1990.00
1533, 1989.00
1534, 1992.00
1535, 1993.00
1536, 1994.00
1537, 1995.00
1538, 1997.00
1539, 1998.00
1540, 2000.00
1541, 2002.00
1542, 2003.00
1543, 2005.00
1544, 2004.00
1545, 2007.00
1546, 2008.00
1547, 2009.00
1548, 2011.00
1549, 2011.00
1550, 2013.00
1551, 2015.00
1552, 2015.00
1553, 2016.00
1554, 2019.00
1555, 2021.00
1556, 2022.00
1557, 2024.00
1558, 2025.00
1559, 2027.00
1560, 2027.00
1561, 2030.00
1562, 2032.00
1563, 2032.00
1564, 2035.00
1565, 2035.00
1566, 2037.00
1567, 2039.00
1568, 2039.00
1569, 2042.00
1570, 2043.00
1571, 2044.00
1572, 2047.00
1573, 2048.00
1574, 2049.00
1575, 2051.00
1576, 2053.00
1577, 2054.00
1578, 2056.00
1579, 2057.00
1580, 2058.00
1581, 2060.00
1582, 2061.00
1583, 2062.00
1584, 2063.00
1585, 2064.00
1586, 2066.00
1587, 2067.00
1588, 2068.00
1589, 2070.00
1590, 2071.00
1591, 2073.00
1592, 2073.00
1593, 2074.00
1594, 2076.00
1595, 2078.00
1596, 2079.00
1597, 2080.00
1598, 2083.00
1599, 2083.00
1600, 2085.00
1601, 2086.00
1602, 2087.00
1603, 2089.00
1604, 2090.00
1605, 2093.00
1606, 2093.00
1607, 2095.00
1608, 2097.00
1609, 2097.00
1610, 2099.00
1611, 2101.00
1612, 2102.00
1613, 2104.00
1614, 2106.00
1615, 2107.00
1616, 2109.00
1617, 2112.00
1618, 2113.00
1619, 2116.00
1620, 2116.00
1621, 2118.00
1622, 2119.00
1623, 2121.00
1624, 2123.00
1625, 2124.00
1626, 2127.00
1627, 2128.00
1628, 2129.00
1629, 2131.00
1630, 2133.00
1631, 2134.00
1632, 2135.00
1633, 2138.00
1634, 2139.00
1635, 2140.00
1636, 2141.00
1637, 2143.00
1638, 2144.00
1639, 2146.00
1640, 2146.00
1641, 2147.00
1642, 2149.00
1643, 2151.00
1644, 2152.00
1645, 2154.00
1646, 2156.00
1647, 2156.00
1648, 2158.00
1649, 2159.00
1650, 2161.00

1750, 2655.00
1751, 2657.00
1752, 2654.00
1753, 2655.00
1754, 2655.00
1755, 2655.00
1756, 2655.00
1757, 2655.00
1758, 2656.00
1759, 2655.00
1760, 2654.00
1761, 2656.00
1762, 2655.00
1763, 2655.00
1764, 2654.00
1765, 2654.00
1766, 2655.00
1767, 2653.00
1768, 2653.00
1769, 2653.00
1770, 2654.00
1771, 2652.00
1772, 2650.00
1773, 2650.00
1774, 2650.00
1775, 2653.00
1776, 2648.00
1777, 2649.00
1778, 2648.00
1779, 2649.00
1780, 2648.00
1781, 2647.00
1782, 2647.00
1783, 2646.00
1784, 2648.00
1785, 2645.00
1786, 2641.00
1787, 2645.00
1788, 2642.00
1789, 2643.00
1790, 2644.00
1791, 2641.00
1792, 2641.00
1793, 2639.00
1794, 2640.00
1795, 2639.00
1796, 2639.00
1797, 2637.00
1798, 2639.00
1799, 2637.00
1800, 2637.00
1801, 2635.00
1802, 2636.00
1803, 2633.00
1804, 2636.00
1805, 2634.00
1806, 2635.00
1807, 2634.00
1808, 2634.00
1809, 2633.00
1810, 2632.00
1811, 2631.00
1812, 2630.00
1813, 2629.00
1814, 2630.00
1815, 2629.00
1816, 2627.00
1817, 2626.00
1818, 2625.00
1819, 2623.00
1820, 2624.00
1821, 2621.00
1822, 2624.00
1823, 2619.00
1824, 2617.00
1825, 2619.00
1826, 2618.00
1827, 2617.00
1828, 2613.00
1829, 2613.00
1830, 2610.00
1831, 2609.00
1832, 2607.00
1833, 2605.00
1834, 2603.00
1835, 2602.00
1836, 2601.00
1837, 2599.00
1838, 2597.00
1839, 2595.00
1840, 2593.00
1841, 2589.00
1842, 2586.00
1843, 2585.00
1844, 2582.00
1845, 2578.00
1846, 2577.00
1847, 2575.00
1848, 2572.00
1849, 2568.00
1850, 2567.00
1851, 2564.00
1852, 2562.00
1853, 2559.00
1854, 2556.00
1855, 2554.00
1856, 2553.00
1857, 2549.00
1858, 2547.00
1859, 2545.00
1860, 2543.00
1861, 2538.00
1862, 2538.00
1863, 2535.00
1864, 2535.00
1865, 2534.00
1866, 2530.00
1867, 2527.00
1868, 2527.00
1869, 2523.00
1870, 2523.00
1871, 2522.00
1872, 2521.00
1873, 2518.00
1874, 2520.00
1875, 2516.00
1876, 2517.00
1877, 2514.00
1878, 2511.00
1879, 2511.00
1880, 2510.00
1881, 2511.00
1882, 2510.00
1883, 2509.00
1884, 2509.00
1885, 2507.00
1886, 2507.00
1887, 2504.00
1888, 2507.00
1889, 2505.00
1890, 2504.00
1891, 2503.00
1892, 2502.00
1893, 2504.00
1894, 2503.00
1895, 2502.00
1896, 2503.00
1897, 2500.00
1898, 2501.00
1899, 2499.00
1900, 2501.00
1901, 2500.00
1902, 2499.00
1903, 2499.00
1904, 2500.00
1905, 2498.00
1906, 2497.00
1907, 2497.00
1908, 2497.00
1909, 2499.00
1910, 2498.00
1911, 2496.00
1912, 2497.00
1913, 2496.00
1914, 2495.00
1915, 2494.00
1916, 2496.00
1917, 2495.00
1918, 2495.00
1919, 2493.00
1920, 2494.00
1921, 2495.00
1922, 2495.00
1923, 2495.00
1924, 2495.00
1925, 2493.00
1926, 2495.00
1927, 2494.00
1928, 2493.00
1929, 2494.00
1930, 2495.00
1931, 2494.00
1932, 2493.00
1933, 2495.00
1934, 2495.00
1935, 2494.00
1936, 2496.00
1937, 2495.00
1938, 2496.00
1939, 2495.00
1940, 2495.00
1941, 2496.00
1942, 2497.00
1943, 2497.00
1944, 2495.00
1945, 2497.00
1946, 2498.00
1947, 2498.00
1948, 2500.00
1949, 2499.00
1950, 2497.00
1951, 2497.00
1952, 2499.00
1953, 2501.00
1954, 2498.00
1955, 2500.00
1956, 2501.00
1957, 2500.00
1958, 2501.00
1959, 2503.00
1960, 2502.00
1961, 2501.00
1962, 2502.00
1963, 2504.00
1964, 2503.00
1965, 2505.00
1966, 2506.00
1967, 2505.00
1968, 2505.00
1969, 2507.00
1970, 2509.00
1971, 2508.00
1972, 2510.00
1973, 2507.00
1974, 2510.00
1975, 2511.00
1976, 2509.00
1977, 2510.00
1978, 2512.00
1979, 2513.00
1980, 2514.00
1981, 2514.00
1982, 2515.00
1983, 2514.00
1984, 2516.00
1985, 2517.00
1986, 2516.00
1987, 2515.00
1988, 2518.00
1989, 2517.00
1990, 2521.00
1991, 2521.00
1992, 2518.00
1993, 2520.00
1994, 2521.00
1995, 2520.00
1996, 2523.00
1997, 2523.00
1998, 2525.00
1999, 2523.00
2000, 2525.00
2001, 2528.00
2002, 2525.00
2003, 2527.00
2004, 2529.00
2005, 2528.00
2006, 2527.00
2007, 2529.00
2008, 2531.00
2009, 2531.00
2010, 2531.00
2011, 2531.00
2012, 2534.00
2013, 2533.00
2014, 2534.00
2015, 2534.00
2016, 2536.00
2017, 2535.00
2018, 2536.00
2019, 2536.00
2020, 2536.00
2021, 2538.00
2022, 2537.00
2023, 2537.00
2024, 2539.00
2025, 2540.00
2026, 2542.00
2027, 2540.00
2028, 2541.00
2029, 2542.00
2030, 2544.00
2031, 2544.00
2032, 2545.00
2033, 2545.00
2034, 2547.00
2035, 2546.00
2036, 2547.00
2037, 2546.00
2038, 2550.00
2039, 2548.00
2040, 2551.00
2041, 2551.00
2042, 2554.00
2043, 2551.00
2044, 2554.00
2045, 2556.00
2046, 2558.00
2047, 2556.00
2048, 2555.00
2049, 2556.00
2050, 2557.00
2051, 2559.00
2052, 2562.00
2053, 2561.00
2054, 2565.00
2055, 2563.00
2056, 2565.00
2057, 2565.00
2058, 2567.00
2059, 2567.00
2060, 2568.00
2061, 2571.00
2062, 2570.00
2063, 2572.00
2064, 2572.00
2065, 2572.00
2066, 2574.00
2067, 2573.00
2068, 2577.00
2069, 2576.00
2070, 2577.00
2071, 2578.00
2072, 2581.00
2073, 2581.00
2074, 2580.00
2075, 2582.00
2076, 2583.00
2077, 2584.00
2078, 2585.00
2079, 2586.00
2080, 2586.00
2081, 2587.00
2082, 2589.00
2083, 2589.00
2084, 2588.00
2085, 2588.00
2086, 2592.00
2087, 2593.00
2088, 2593.00
2089, 2593.00
2090, 2594.00
2091, 2594.00
2092, 2596.00
2093, 2597.00
2094, 2596.00
2095, 2597.00
2096, 2596.00
2097, 2599.00
2098, 2598.00
2099, 2599.00
2100, 2601.00
2101, 2600.00
2102, 2601.00
2103, 2601.00
2104, 2604.00
2105, 2601.00
2106, 2602.00
2107, 2603.00
2108, 2602.00
2109, 2605.00
2110, 2604.00
2111, 2605.00
2112, 2605.00
2113, 2605.00
2114, 2606.00
2115, 2607.00
2116, 2609.00
2117, 2607.00
2118, 2608.00
2119, 2608.00
2120, 2609.00
2121, 2609.00
2122, 2609.00
2123, 2610.00
2124, 2609.00
2125, 2611.00
2126, 2611.00
2127, 2610.00
2128, 2613.00
2129, 2613.00
2130, 2612.00
2131, 2611.00
2132, 2612.00
2133, 2614.00
2134, 2614.00
2135, 2614.00
2136, 2614.00
2137, 2614.00
2138, 2616.00
2139, 2615.00
2140, 2618.00
2141, 2617.00
2142, 2616.00
2143, 2617.00
2144, 2616.00
2145, 2619.00
2146, 2617.00
2147, 2619.00
2148, 2617.00
2149, 2619.00
2150, 2619.00
