FW version: 24
Log Version: 3.0.3

General Info:
       Command/Macro Performed,            Timestamp,             Device ID, COM Port, UART/I2C, Test Name, Host Major, Host Minor, Host Revision, Host Git Commit
            Single_measurement,  2023_07_18_10_59_40,       Insight2_F4_xxx,    USB-C,      USB,          ,          0,          1,             1,      4031237645

Show Spectrometer Status:
l0_version, f4_version, battery_perc, battery_mVolt, accelerometer_temp, accelerometer_x, accelerometer_y, accelerometer_z, compass_temp, compass_x, compass_y, compass_z, lamp_0, lamp_1, gain_0, gain_1
        17,         24,           73,          1988,               6176,           65228,            1372,           18732,            0,     65502,     65533,     18943,   2047,   2047,      1,      1

Temperature Statistic Info:
NTC AVG [°C], NTC2 AVG [°C]
      38.681,        38.420

Statistic Info:
M1:  num,      min,      max,   median,      AVG,      STD,M2:  num,      min,      max,   median,      AVG,      STD
     301,   942.00,  1096.00,   975.00,   993.24,  48.6092,     401,  1367.00,  1462.00,  1407.00,  1410.17,  30.8562,

Measurements:
Wavelength, Data Amplitude
1350, 966.00
1351, 966.00
1352, 966.00
1353, 964.00
1354, 964.00
1355, 965.00
1356, 964.00
1357, 962.00
1358, 962.00
1359, 962.00
1360, 962.00
1361, 961.00
1362, 960.00
1363, 959.00
1364, 959.00
1365, 958.00
1366, 957.00
1367, 958.00
1368, 955.00
1369, 955.00
1370, 956.00
1371, 955.00
1372, 954.00
1373, 953.00
1374, 952.00
1375, 952.00
1376, 952.00
1377, 950.00
1378, 950.00
1379, 950.00
1380, 948.00
1381, 949.00
1382, 948.00
1383, 948.00
1384, 947.00
1385, 948.00
1386, 947.00
1387, 947.00
1388, 946.00
1389, 945.00
1390, 945.00
1391, 946.00
1392, 946.00
1393, 945.00
1394, 943.00
1395, 944.00
1396, 945.00
1397, 944.00
1398, 944.00
1399, 943.00
1400, 943.00
1401, 942.00
1402, 943.00
1403, 944.00
1404, 943.00
1405, 944.00
1406, 943.00
1407, 943.00
1408, 942.00
1409, 942.00
1410, 942.00
1411, 943.00
1412, 942.00
1413, 943.00
1414, 942.00
1415, 943.00
1416, 943.00
1417, 942.00
1418, 942.00
1419, 942.00
1420, 943.00
1421, 942.00
1422, 943.00
1423, 943.00
1424, 942.00
1425, 943.00
1426, 942.00
1427, 944.00
1428, 943.00
1429, 943.00
1430, 944.00
1431, 943.00
1432, 945.00
1433, 943.00
1434, 944.00
1435, 944.00
1436, 944.00
1437, 944.00
1438, 946.00
1439, 945.00
1440, 946.00
1441, 946.00
1442, 946.00
1443, 946.00
1444, 947.00
1445, 947.00
1446, 947.00
1447, 947.00
1448, 947.00
1449, 948.00
1450, 948.00
1451, 948.00
1452, 949.00
1453, 950.00
1454, 950.00
1455, 950.00
1456, 950.00
1457, 951.00
1458, 950.00
1459, 952.00
1460, 951.00
1461, 952.00
1462, 953.00
1463, 954.00
1464, 953.00
1465, 953.00
1466, 954.00
1467, 955.00
1468, 955.00
1469, 955.00
1470, 957.00
1471, 956.00
1472, 957.00
1473, 958.00
1474, 959.00
1475, 959.00
1476, 960.00
1477, 961.00
1478, 960.00
1479, 962.00
1480, 962.00
1481, 962.00
1482, 963.00
1483, 965.00
1484, 964.00
1485, 965.00
1486, 965.00
1487, 966.00
1488, 967.00
1489, 967.00
1490, 968.00
1491, 970.00
1492, 969.00
1493, 970.00
1494, 971.00
1495, 971.00
1496, 972.00
1497, 973.00
1498, 974.00
1499, 974.00
1500, 975.00
1501, 975.00
1502, 975.00
1503, 978.00
1504, 978.00
1505, 978.00
1506, 979.00
1507, 980.00
1508, 981.00
1509, 981.00
1510, 982.00
1511, 982.00
1512, 983.00
1513, 983.00
1514, 984.00
1515, 985.00
1516, 986.00
1517, 987.00
1518, 987.00
1519, 988.00
1520, 988.00
1521, 990.00
1522, 991.00
1523, 991.00
1524, 991.00
1525, 992.00
1526, 993.00
1527, 995.00
1528, 995.00
1529, 996.00
1530, 996.00
1531, 997.00
1532, 998.00
1533, 999.00
1534, 1000.00
1535, 1001.00
1536, 1001.00
1537, 1003.00
1538, 1004.00
1539, 1004.00
1540, 1005.00
1541, 1006.00
1542, 1006.00
1543, 1007.00
1544, 1008.00
1545, 1009.00
1546, 1010.00
1547, 1011.00
1548, 1010.00
1549, 1011.00
1550, 1013.00
1551, 1013.00
1552, 1015.00
1553, 1015.00
1554, 1016.00
1555, 1017.00
1556, 1017.00
1557, 1019.00
1558, 1020.00
1559, 1020.00
1560, 1021.00
1561, 1021.00
1562, 1022.00
1563, 1025.00
1564, 1024.00
1565, 1025.00
1566, 1026.00
1567, 1027.00
1568, 1027.00
1569, 1029.00
1570, 1029.00
1571, 1030.00
1572, 1030.00
1573, 1032.00
1574, 1033.00
1575, 1034.00
1576, 1034.00
1577, 1036.00
1578, 1036.00
1579, 1037.00
1580, 1037.00
1581, 1038.00
1582, 1040.00
1583, 1040.00
1584, 1041.00
1585, 1043.00
1586, 1042.00
1587, 1043.00
1588, 1043.00
1589, 1044.00
1590, 1046.00
1591, 1047.00
1592, 1048.00
1593, 1047.00
1594, 1048.00
1595, 1049.00
1596, 1050.00
1597, 1051.00
1598, 1051.00
1599, 1053.00
1600, 1053.00
1601, 1054.00
1602, 1055.00
1603, 1056.00
1604, 1057.00
1605, 1057.00
1606, 1058.00
1607, 1060.00
1608, 1059.00
1609, 1062.00
1610, 1062.00
1611, 1063.00
1612, 1064.00
1613, 1066.00
1614, 1066.00
1615, 1067.00
1616, 1067.00
1617, 1069.00
1618, 1069.00
1619, 1071.00
1620, 1072.00
1621, 1073.00
1622, 1073.00
1623, 1074.00
1624, 1075.00
1625, 1077.00
1626, 1078.00
1627, 1078.00
1628, 1079.00
1629, 1080.00
1630, 1080.00
1631, 1081.00
1632, 1083.00
1633, 1084.00
1634, 1083.00
1635, 1085.00
1636, 1086.00
1637, 1086.00
1638, 1088.00
1639, 1088.00
1640, 1088.00
1641, 1089.00
1642, 1091.00
1643, 1090.00
1644, 1091.00
1645, 1092.00
1646, 1093.00
1647, 1093.00
1648, 1093.00
1649, 1094.00
1650, 1096.00

1750, 1461.00
1751, 1461.00
1752, 1462.00
1753, 1461.00
1754, 1461.00
1755, 1461.00
1756, 1461.00
1757, 1461.00
1758, 1459.00
1759, 1459.00
1760, 1461.00
1761, 1459.00
1762, 1459.00
1763, 1461.00
1764, 1460.00
1765, 1461.00
1766, 1460.00
1767, 1459.00
1768, 1459.00
1769, 1458.00
1770, 1459.00
1771, 1459.00
1772, 1458.00
1773, 1457.00
1774, 1458.00
1775, 1459.00
1776, 1457.00
1777, 1457.00
1778, 1458.00
1779, 1459.00
1780, 1457.00
1781, 1455.00
1782, 1456.00
1783, 1456.00
1784, 1455.00
1785, 1456.00
1786, 1456.00
1787, 1454.00
1788, 1454.00
1789, 1454.00
1790, 1454.00
1791, 1455.00
1792, 1453.00
1793, 1452.00
1794, 1454.00
1795, 1454.00
1796, 1452.00
1797, 1452.00
1798, 1449.00
1799, 1449.00
1800, 1451.00
1801, 1451.00
1802, 1451.00
1803, 1449.00
1804, 1450.00
1805, 1449.00
1806, 1448.00
1807, 1447.00
1808, 1448.00
1809, 1449.00
1810, 1447.00
1811, 1447.00
1812, 1448.00
1813, 1448.00
1814, 1449.00
1815, 1446.00
1816, 1445.00
1817, 1444.00
1818, 1445.00
1819, 1444.00
1820, 1444.00
1821, 1443.00
1822, 1443.00
1823, 1442.00
1824, 1441.00
1825, 1440.00
1826, 1441.00
1827, 1438.00
1828, 1438.00
1829, 1437.00
1830, 1436.00
1831, 1436.00
1832, 1434.00
1833, 1434.00
1834, 1431.00
1835, 1430.00
1836, 1429.00
1837, 1430.00
1838, 1428.00
1839, 1425.00
1840, 1425.00
1841, 1424.00
1842, 1421.00
1843, 1420.00
1844, 1419.00
1845, 1418.00
1846, 1418.00
1847, 1415.00
1848, 1414.00
1849, 1411.00
1850, 1410.00
1851, 1407.00
1852, 1407.00
1853, 1406.00
1854, 1404.00
1855, 1403.00
1856, 1402.00
1857, 1399.00
1858, 1400.00
1859, 1397.00
1860, 1398.00
1861, 1396.00
1862, 1392.00
1863, 1393.00
1864, 1391.00
1865, 1391.00
1866, 1390.00
1867, 1387.00
1868, 1387.00
1869, 1389.00
1870, 1385.00
1871, 1386.00
1872, 1386.00
1873, 1383.00
1874, 1383.00
1875, 1383.00
1876, 1381.00
1877, 1379.00
1878, 1381.00
1879, 1381.00
1880, 1379.00
1881, 1379.00
1882, 1379.00
1883, 1378.00
1884, 1377.00
1885, 1376.00
1886, 1378.00
1887, 1377.00
1888, 1376.00
1889, 1376.00
1890, 1374.00
1891, 1376.00
1892, 1375.00
1893, 1373.00
1894, 1375.00
1895, 1373.00
1896, 1375.00
1897, 1373.00
1898, 1371.00
1899, 1373.00
1900, 1373.00
1901, 1370.00
1902, 1373.00
1903, 1371.00
1904, 1370.00
1905, 1371.00
1906, 1373.00
1907, 1370.00
1908, 1371.00
1909, 1371.00
1910, 1370.00
1911, 1372.00
1912, 1370.00
1913, 1370.00
1914, 1369.00
1915, 1371.00
1916, 1369.00
1917, 1371.00
1918, 1368.00
1919, 1371.00
1920, 1371.00
1921, 1369.00
1922, 1369.00
1923, 1369.00
1924, 1369.00
1925, 1371.00
1926, 1370.00
1927, 1367.00
1928, 1369.00
1929, 1369.00
1930, 1369.00
1931, 1369.00
1932, 1368.00
1933, 1369.00
1934, 1369.00
1935, 1369.00
1936, 1371.00
1937, 1368.00
1938, 1369.00
1939, 1370.00
1940, 1370.00
1941, 1370.00
1942, 1370.00
1943, 1371.00
1944, 1371.00
1945, 1370.00
1946, 1372.00
1947, 1373.00
1948, 1371.00
1949, 1371.00
1950, 1372.00
1951, 1372.00
1952, 1371.00
1953, 1373.00
1954, 1373.00
1955, 1373.00
1956, 1373.00
1957, 1372.00
1958, 1376.00
1959, 1374.00
1960, 1374.00
1961, 1372.00
1962, 1375.00
1963, 1375.00
1964, 1374.00
1965, 1377.00
1966, 1376.00
1967, 1375.00
1968, 1375.00
1969, 1377.00
1970, 1378.00
1971, 1377.00
1972, 1377.00
1973, 1377.00
1974, 1378.00
1975, 1379.00
1976, 1381.00
1977, 1379.00
1978, 1379.00
1979, 1379.00
1980, 1381.00
1981, 1379.00
1982, 1380.00
1983, 1379.00
1984, 1382.00
1985, 1382.00
1986, 1382.00
1987, 1383.00
1988, 1383.00
1989, 1382.00
1990, 1383.00
1991, 1384.00
1992, 1383.00
1993, 1384.00
1994, 1383.00
1995, 1385.00
1996, 1386.00
1997, 1383.00
1998, 1385.00
1999, 1389.00
2000, 1386.00
2001, 1387.00
2002, 1387.00
2003, 1389.00
2004, 1388.00
2005, 1387.00
2006, 1388.00
2007, 1389.00
2008, 1389.00
2009, 1388.00
2010, 1390.00
2011, 1390.00
2012, 1389.00
2013, 1389.00
2014, 1391.00
2015, 1394.00
2016, 1391.00
2017, 1393.00
2018, 1393.00
2019, 1394.00
2020, 1393.00
2021, 1393.00
2022, 1392.00
2023, 1394.00
2024, 1394.00
2025, 1394.00
2026, 1395.00
2027, 1396.00
2028, 1397.00
2029, 1397.00
2030, 1398.00
2031, 1397.00
2032, 1399.00
2033, 1395.00
2034, 1400.00
2035, 1399.00
2036, 1399.00
2037, 1399.00
2038, 1400.00
2039, 1399.00
2040, 1402.00
2041, 1403.00
2042, 1403.00
2043, 1401.00
2044, 1404.00
2045, 1402.00
2046, 1405.00
2047, 1404.00
2048, 1405.00
2049, 1406.00
2050, 1404.00
2051, 1407.00
2052, 1408.00
2053, 1408.00
2054, 1408.00
2055, 1409.00
2056, 1410.00
2057, 1410.00
2058, 1411.00
2059, 1412.00
2060, 1412.00
2061, 1411.00
2062, 1414.00
2063, 1413.00
2064, 1415.00
2065, 1414.00
2066, 1415.00
2067, 1416.00
2068, 1418.00
2069, 1417.00
2070, 1416.00
2071, 1418.00
2072, 1418.00
2073, 1419.00
2074, 1418.00
2075, 1421.00
2076, 1420.00
2077, 1421.00
2078, 1421.00
2079, 1422.00
2080, 1422.00
2081, 1423.00
2082, 1423.00
2083, 1425.00
2084, 1425.00
2085, 1424.00
2086, 1424.00
2087, 1427.00
2088, 1426.00
2089, 1427.00
2090, 1427.00
2091, 1428.00
2092, 1428.00
2093, 1429.00
2094, 1429.00
2095, 1428.00
2096, 1430.00
2097, 1431.00
2098, 1429.00
2099, 1431.00
2100, 1430.00
2101, 1431.00
2102, 1431.00
2103, 1431.00
2104, 1433.00
2105, 1433.00
2106, 1432.00
2107, 1434.00
2108, 1432.00
2109, 1434.00
2110, 1437.00
2111, 1434.00
2112, 1433.00
2113, 1435.00
2114, 1435.00
2115, 1435.00
2116, 1437.00
2117, 1436.00
2118, 1435.00
2119, 1437.00
2120, 1437.00
2121, 1437.00
2122, 1435.00
2123, 1438.00
2124, 1438.00
2125, 1438.00
2126, 1437.00
2127, 1439.00
2128, 1440.00
2129, 1439.00
2130, 1439.00
2131, 1440.00
2132, 1440.00
2133, 1441.00
2134, 1438.00
2135, 1441.00
2136, 1440.00
2137, 1441.00
2138, 1442.00
2139, 1441.00
2140, 1441.00
2141, 1443.00
2142, 1442.00
2143, 1442.00
2144, 1440.00
2145, 1443.00
2146, 1443.00
2147, 1442.00
2148, 1441.00
2149, 1442.00
2150, 1445.00
