FW version: 24
Log Version: 3.0.3

General Info:
       Command/Macro Performed,            Timestamp,             Device ID, COM Port, UART/I2C, Test Name, Host Major, Host Minor, Host Revision, Host Git Commit
            Single_measurement,  2023_07_18_10_59_25,       Insight2_F4_xxx,    USB-C,      USB,          ,          0,          1,             1,      4031237645

Show Spectrometer Status:
l0_version, f4_version, battery_perc, battery_mVolt, accelerometer_temp, accelerometer_x, accelerometer_y, accelerometer_z, compass_temp, compass_x, compass_y, compass_z, lamp_0, lamp_1, gain_0, gain_1
        17,         24,           73,          1987,               6176,           65248,            1352,           18832,            0,     65535,     65513,     18935,   3276,   3276,      0,      0

Temperature Statistic Info:
NTC AVG [°C], NTC2 AVG [°C]
      38.652,        38.362

Statistic Info:
M1:  num,      min,      max,   median,      AVG,      STD,M2:  num,      min,      max,   median,      AVG,      STD
     301,   817.00,   938.00,   842.00,   857.19,  37.3681,     401,  1046.00,  1118.00,  1074.00,  1076.87,  23.1650,

Measurements:
Wavelength, Data Amplitude
1350, 841.00
1351, 841.00
1352, 841.00
1353, 840.00
1354, 840.00
1355, 840.00
1356, 839.00
1357, 839.00
1358, 838.00
1359, 837.00
1360, 837.00
1361, 836.00
1362, 836.00
1363, 835.00
1364, 834.00
1365, 834.00
1366, 833.00
1367, 833.00
1368, 832.00
1369, 832.00
1370, 831.00
1371, 830.00
1372, 830.00
1373, 829.00
1374, 828.00
1375, 828.00
1376, 827.00
1377, 826.00
1378, 826.00
1379, 826.00
1380, 825.00
1381, 825.00
1382, 824.00
1383, 824.00
1384, 824.00
1385, 823.00
1386, 823.00
1387, 823.00
1388, 823.00
1389, 822.00
1390, 821.00
1391, 821.00
1392, 821.00
1393, 821.00
1394, 821.00
1395, 820.00
1396, 821.00
1397, 821.00
1398, 820.00
1399, 820.00
1400, 820.00
1401, 820.00
1402, 820.00
1403, 819.00
1404, 819.00
1405, 819.00
1406, 818.00
1407, 819.00
1408, 818.00
1409, 818.00
1410, 819.00
1411, 819.00
1412, 818.00
1413, 818.00
1414, 818.00
1415, 818.00
1416, 818.00
1417, 818.00
1418, 818.00
1419, 818.00
1420, 817.00
1421, 817.00
1422, 818.00
1423, 818.00
1424, 818.00
1425, 818.00
1426, 818.00
1427, 819.00
1428, 818.00
1429, 818.00
1430, 819.00
1431, 818.00
1432, 819.00
1433, 819.00
1434, 819.00
1435, 819.00
1436, 819.00
1437, 819.00
1438, 819.00
1439, 820.00
1440, 820.00
1441, 820.00
1442, 820.00
1443, 821.00
1444, 820.00
1445, 821.00
1446, 821.00
1447, 821.00
1448, 822.00
1449, 821.00
1450, 822.00
1451, 822.00
1452, 822.00
1453, 823.00
1454, 823.00
1455, 823.00
1456, 823.00
1457, 823.00
1458, 824.00
1459, 824.00
1460, 825.00
1461, 825.00
1462, 825.00
1463, 825.00
1464, 826.00
1465, 826.00
1466, 826.00
1467, 827.00
1468, 827.00
1469, 827.00
1470, 828.00
1471, 828.00
1472, 829.00
1473, 828.00
1474, 829.00
1475, 830.00
1476, 830.00
1477, 830.00
1478, 831.00
1479, 832.00
1480, 832.00
1481, 833.00
1482, 833.00
1483, 833.00
1484, 834.00
1485, 835.00
1486, 835.00
1487, 835.00
1488, 836.00
1489, 837.00
1490, 837.00
1491, 837.00
1492, 837.00
1493, 838.00
1494, 838.00
1495, 839.00
1496, 840.00
1497, 839.00
1498, 841.00
1499, 841.00
1500, 842.00
1501, 842.00
1502, 842.00
1503, 843.00
1504, 844.00
1505, 844.00
1506, 845.00
1507, 845.00
1508, 846.00
1509, 846.00
1510, 847.00
1511, 847.00
1512, 848.00
1513, 848.00
1514, 849.00
1515, 849.00
1516, 850.00
1517, 850.00
1518, 851.00
1519, 852.00
1520, 852.00
1521, 852.00
1522, 853.00
1523, 854.00
1524, 854.00
1525, 855.00
1526, 856.00
1527, 856.00
1528, 857.00
1529, 858.00
1530, 858.00
1531, 858.00
1532, 859.00
1533, 860.00
1534, 861.00
1535, 861.00
1536, 862.00
1537, 862.00
1538, 863.00
1539, 864.00
1540, 865.00
1541, 865.00
1542, 866.00
1543, 866.00
1544, 866.00
1545, 867.00
1546, 869.00
1547, 870.00
1548, 870.00
1549, 870.00
1550, 871.00
1551, 872.00
1552, 872.00
1553, 873.00
1554, 873.00
1555, 875.00
1556, 875.00
1557, 875.00
1558, 876.00
1559, 877.00
1560, 878.00
1561, 878.00
1562, 879.00
1563, 880.00
1564, 881.00
1565, 881.00
1566, 882.00
1567, 883.00
1568, 883.00
1569, 884.00
1570, 885.00
1571, 885.00
1572, 886.00
1573, 887.00
1574, 887.00
1575, 888.00
1576, 889.00
1577, 889.00
1578, 890.00
1579, 891.00
1580, 891.00
1581, 892.00
1582, 893.00
1583, 893.00
1584, 894.00
1585, 894.00
1586, 895.00
1587, 895.00
1588, 896.00
1589, 896.00
1590, 897.00
1591, 898.00
1592, 899.00
1593, 899.00
1594, 900.00
1595, 900.00
1596, 900.00
1597, 901.00
1598, 901.00
1599, 903.00
1600, 903.00
1601, 904.00
1602, 905.00
1603, 905.00
1604, 906.00
1605, 907.00
1606, 907.00
1607, 908.00
1608, 909.00
1609, 909.00
1610, 910.00
1611, 910.00
1612, 912.00
1613, 912.00
1614, 913.00
1615, 914.00
1616, 915.00
1617, 916.00
1618, 916.00
1619, 917.00
1620, 918.00
1621, 919.00
1622, 919.00
1623, 920.00
1624, 921.00
1625, 922.00
1626, 922.00
1627, 923.00
1628, 924.00
1629, 925.00
1630, 925.00
1631, 926.00
1632, 926.00
1633, 927.00
1634, 928.00
1635, 928.00
1636, 929.00
1637, 930.00
1638, 930.00
1639, 931.00
1640, 931.00
1641, 932.00
1642, 933.00
1643, 933.00
1644, 934.00
1645, 934.00
1646, 935.00
1647, 936.00
1648, 936.00
1649, 937.00
1650, 938.00

1750, 1117.00
1751, 1118.00
1752, 1118.00
1753, 1118.00
1754, 1117.00
1755, 1117.00
1756, 1118.00
1757, 1118.00
1758, 1117.00
1759, 1118.00
1760, 1117.00
1761, 1118.00
1762, 1117.00
1763, 1117.00
1764, 1117.00
1765, 1117.00
1766, 1117.00
1767, 1116.00
1768, 1117.00
1769, 1116.00
1770, 1116.00
1771, 1116.00
1772, 1116.00
1773, 1115.00
1774, 1116.00
1775, 1115.00
1776, 1115.00
1777, 1115.00
1778, 1114.00
1779, 1114.00
1780, 1114.00
1781, 1115.00
1782, 1113.00
1783, 1113.00
1784, 1114.00
1785, 1113.00
1786, 1112.00
1787, 1113.00
1788, 1112.00
1789, 1112.00
1790, 1112.00
1791, 1112.00
1792, 1111.00
1793, 1111.00
1794, 1111.00
1795, 1111.00
1796, 1110.00
1797, 1111.00
1798, 1109.00
1799, 1110.00
1800, 1109.00
1801, 1109.00
1802, 1108.00
1803, 1108.00
1804, 1108.00
1805, 1108.00
1806, 1108.00
1807, 1108.00
1808, 1107.00
1809, 1107.00
1810, 1106.00
1811, 1106.00
1812, 1106.00
1813, 1106.00
1814, 1106.00
1815, 1105.00
1816, 1105.00
1817, 1105.00
1818, 1105.00
1819, 1104.00
1820, 1103.00
1821, 1102.00
1822, 1103.00
1823, 1102.00
1824, 1101.00
1825, 1101.00
1826, 1100.00
1827, 1099.00
1828, 1099.00
1829, 1098.00
1830, 1097.00
1831, 1096.00
1832, 1096.00
1833, 1096.00
1834, 1094.00
1835, 1094.00
1836, 1093.00
1837, 1092.00
1838, 1091.00
1839, 1091.00
1840, 1089.00
1841, 1088.00
1842, 1087.00
1843, 1085.00
1844, 1085.00
1845, 1084.00
1846, 1083.00
1847, 1082.00
1848, 1081.00
1849, 1079.00
1850, 1078.00
1851, 1078.00
1852, 1076.00
1853, 1075.00
1854, 1074.00
1855, 1073.00
1856, 1072.00
1857, 1071.00
1858, 1070.00
1859, 1069.00
1860, 1068.00
1861, 1066.00
1862, 1066.00
1863, 1066.00
1864, 1064.00
1865, 1064.00
1866, 1063.00
1867, 1062.00
1868, 1062.00
1869, 1061.00
1870, 1060.00
1871, 1060.00
1872, 1059.00
1873, 1058.00
1874, 1057.00
1875, 1058.00
1876, 1056.00
1877, 1056.00
1878, 1055.00
1879, 1056.00
1880, 1055.00
1881, 1056.00
1882, 1053.00
1883, 1053.00
1884, 1053.00
1885, 1053.00
1886, 1052.00
1887, 1052.00
1888, 1051.00
1889, 1051.00
1890, 1052.00
1891, 1051.00
1892, 1051.00
1893, 1051.00
1894, 1051.00
1895, 1051.00
1896, 1050.00
1897, 1050.00
1898, 1050.00
1899, 1050.00
1900, 1049.00
1901, 1049.00
1902, 1049.00
1903, 1049.00
1904, 1048.00
1905, 1049.00
1906, 1049.00
1907, 1049.00
1908, 1048.00
1909, 1048.00
1910, 1048.00
1911, 1049.00
1912, 1048.00
1913, 1048.00
1914, 1048.00
1915, 1047.00
1916, 1048.00
1917, 1047.00
1918, 1048.00
1919, 1047.00
1920, 1047.00
1921, 1047.00
1922, 1048.00
1923, 1047.00
1924, 1048.00
1925, 1047.00
1926, 1047.00
1927, 1048.00
1928, 1047.00
1929, 1046.00
1930, 1048.00
1931, 1047.00
1932, 1047.00
1933, 1047.00
1934, 1047.00
1935, 1048.00
1936, 1047.00
1937, 1048.00
1938, 1048.00
1939, 1048.00
1940, 1047.00
1941, 1047.00
1942, 1047.00
1943, 1048.00
1944, 1048.00
1945, 1047.00
1946, 1048.00
1947, 1048.00
1948, 1048.00
1949, 1048.00
1950, 1049.00
1951, 1048.00
1952, 1048.00
1953, 1049.00
1954, 1048.00
1955, 1049.00
1956, 1049.00
1957, 1050.00
1958, 1050.00
1959, 1049.00
1960, 1050.00
1961, 1050.00
1962, 1050.00
1963, 1050.00
1964, 1051.00
1965, 1051.00
1966, 1051.00
1967, 1051.00
1968, 1051.00
1969, 1052.00
1970, 1051.00
1971, 1051.00
1972, 1052.00
1973, 1052.00
1974, 1053.00
1975, 1052.00
1976, 1053.00
1977, 1053.00
1978, 1054.00
1979, 1054.00
1980, 1053.00
1981, 1054.00
1982, 1054.00
1983, 1055.00
1984, 1055.00
1985, 1056.00
1986, 1056.00
1987, 1056.00
1988, 1056.00
1989, 1055.00
1990, 1057.00
1991, 1057.00
1992, 1057.00
1993, 1058.00
1994, 1058.00
1995, 1058.00
1996, 1058.00
1997, 1058.00
1998, 1059.00
1999, 1059.00
2000, 1058.00
2001, 1059.00
2002, 1059.00
2003, 1060.00
2004, 1061.00
2005, 1060.00
2006, 1060.00
2007, 1060.00
2008, 1061.00
2009, 1062.00
2010, 1061.00
2011, 1061.00
2012, 1062.00
2013, 1061.00
2014, 1063.00
2015, 1062.00
2016, 1063.00
2017, 1063.00
2018, 1064.00
2019, 1064.00
2020, 1064.00
2021, 1064.00
2022, 1064.00
2023, 1065.00
2024, 1065.00
2025, 1065.00
2026, 1065.00
2027, 1065.00
2028, 1067.00
2029, 1066.00
2030, 1066.00
2031, 1066.00
2032, 1067.00
2033, 1067.00
2034, 1067.00
2035, 1068.00
2036, 1067.00
2037, 1068.00
2038, 1069.00
2039, 1069.00
2040, 1069.00
2041, 1070.00
2042, 1070.00
2043, 1070.00
2044, 1071.00
2045, 1070.00
2046, 1071.00
2047, 1072.00
2048, 1072.00
2049, 1072.00
2050, 1072.00
2051, 1073.00
2052, 1074.00
2053, 1073.00
2054, 1074.00
2055, 1075.00
2056, 1074.00
2057, 1075.00
2058, 1076.00
2059, 1075.00
2060, 1076.00
2061, 1077.00
2062, 1077.00
2063, 1078.00
2064, 1077.00
2065, 1078.00
2066, 1078.00
2067, 1080.00
2068, 1080.00
2069, 1079.00
2070, 1080.00
2071, 1080.00
2072, 1080.00
2073, 1082.00
2074, 1082.00
2075, 1081.00
2076, 1082.00
2077, 1083.00
2078, 1083.00
2079, 1083.00
2080, 1084.00
2081, 1085.00
2082, 1085.00
2083, 1085.00
2084, 1085.00
2085, 1085.00
2086, 1086.00
2087, 1086.00
2088, 1087.00
2089, 1086.00
2090, 1087.00
2091, 1088.00
2092, 1088.00
2093, 1088.00
2094, 1088.00
2095, 1088.00
2096, 1089.00
2097, 1089.00
2098, 1089.00
2099, 1089.00
2100, 1090.00
2101, 1089.00
2102, 1090.00
2103, 1090.00
2104, 1091.00
2105, 1091.00
2106, 1092.00
2107, 1091.00
2108, 1091.00
2109, 1091.00
2110, 1093.00
2111, 1092.00
2112, 1092.00
2113, 1092.00
2114, 1093.00
2115, 1093.00
2116, 1093.00
2117, 1092.00
2118, 1093.00
2119, 1093.00
2120, 1093.00
2121, 1094.00
2122, 1094.00
2123, 1094.00
2124, 1094.00
2125, 1094.00
2126, 1094.00
2127, 1095.00
2128, 1095.00
2129, 1096.00
2130, 1095.00
2131, 1095.00
2132, 1095.00
2133, 1095.00
2134, 1096.00
2135, 1096.00
2136, 1097.00
2137, 1096.00
2138, 1097.00
2139, 1097.00
2140, 1096.00
2141, 1097.00
2142, 1097.00
2143, 1098.00
2144, 1097.00
2145, 1098.00
2146, 1097.00
2147, 1099.00
2148, 1097.00
2149, 1098.00
2150, 1098.00
