FW version: 24
Log Version: 3.0.3

General Info:
       Command/Macro Performed,            Timestamp,             Device ID, COM Port, UART/I2C, Test Name, Host Major, Host Minor, Host Revision, Host Git Commit
            Single_measurement,  2023_07_11_11_18_11,       Insight2_F4_xxx,    USB-C,      USB,          ,          0,          1,             1,      4031237645

Show Spectrometer Status:
l0_version, f4_version, battery_perc, battery_mVolt, accelerometer_temp, accelerometer_x, accelerometer_y, accelerometer_z, compass_temp, compass_x, compass_y, compass_z, lamp_0, lamp_1, gain_0, gain_1
        17,         24,           49,          1906,               6848,           65124,             792,           18868,            0,     65399,     65337,     18942,   2457,   2457,      1,      1

Temperature Statistic Info:
NTC AVG [°C], NTC2 AVG [°C]
      41.536,        41.177

Statistic Info:
M1:  num,      min,      max,   median,      AVG,      STD,M2:  num,      min,      max,   median,      AVG,      STD
     301,   956.00,  1094.00,   986.00,  1001.56,  42.8105,     401,  1376.00,  1461.00,  1414.00,  1415.48,  27.9489,

Measurements:
Wavelength, Data Amplitude
1350, 975.00
1351, 977.00
1352, 975.00
1353, 975.00
1354, 975.00
1355, 974.00
1356, 974.00
1357, 973.00
1358, 974.00
1359, 972.00
1360, 973.00
1361, 972.00
1362, 971.00
1363, 970.00
1364, 970.00
1365, 968.00
1366, 969.00
1367, 968.00
1368, 968.00
1369, 967.00
1370, 967.00
1371, 965.00
1372, 965.00
1373, 965.00
1374, 965.00
1375, 964.00
1376, 964.00
1377, 964.00
1378, 962.00
1379, 962.00
1380, 961.00
1381, 962.00
1382, 961.00
1383, 961.00
1384, 961.00
1385, 960.00
1386, 960.00
1387, 959.00
1388, 959.00
1389, 959.00
1390, 958.00
1391, 958.00
1392, 959.00
1393, 959.00
1394, 957.00
1395, 958.00
1396, 957.00
1397, 958.00
1398, 958.00
1399, 957.00
1400, 958.00
1401, 957.00
1402, 957.00
1403, 957.00
1404, 957.00
1405, 957.00
1406, 956.00
1407, 957.00
1408, 956.00
1409, 958.00
1410, 957.00
1411, 957.00
1412, 957.00
1413, 956.00
1414, 957.00
1415, 956.00
1416, 957.00
1417, 957.00
1418, 957.00
1419, 957.00
1420, 957.00
1421, 956.00
1422, 958.00
1423, 957.00
1424, 957.00
1425, 957.00
1426, 957.00
1427, 957.00
1428, 957.00
1429, 958.00
1430, 957.00
1431, 956.00
1432, 958.00
1433, 958.00
1434, 958.00
1435, 959.00
1436, 959.00
1437, 959.00
1438, 959.00
1439, 959.00
1440, 960.00
1441, 959.00
1442, 960.00
1443, 960.00
1444, 961.00
1445, 961.00
1446, 961.00
1447, 962.00
1448, 963.00
1449, 962.00
1450, 962.00
1451, 962.00
1452, 962.00
1453, 964.00
1454, 964.00
1455, 965.00
1456, 964.00
1457, 964.00
1458, 965.00
1459, 965.00
1460, 966.00
1461, 967.00
1462, 966.00
1463, 966.00
1464, 967.00
1465, 967.00
1466, 968.00
1467, 968.00
1468, 968.00
1469, 969.00
1470, 970.00
1471, 970.00
1472, 971.00
1473, 972.00
1474, 971.00
1475, 973.00
1476, 972.00
1477, 974.00
1478, 974.00
1479, 975.00
1480, 975.00
1481, 975.00
1482, 975.00
1483, 977.00
1484, 977.00
1485, 979.00
1486, 978.00
1487, 978.00
1488, 980.00
1489, 979.00
1490, 981.00
1491, 980.00
1492, 982.00
1493, 981.00
1494, 983.00
1495, 984.00
1496, 984.00
1497, 984.00
1498, 986.00
1499, 985.00
1500, 987.00
1501, 986.00
1502, 988.00
1503, 987.00
1504, 988.00
1505, 989.00
1506, 989.00
1507, 990.00
1508, 991.00
1509, 992.00
1510, 992.00
1511, 993.00
1512, 994.00
1513, 994.00
1514, 995.00
1515, 995.00
1516, 996.00
1517, 996.00
1518, 997.00
1519, 999.00
1520, 998.00
1521, 999.00
1522, 999.00
1523, 1001.00
1524, 1001.00
1525, 1002.00
1526, 1002.00
1527, 1002.00
1528, 1004.00
1529, 1005.00
1530, 1006.00
1531, 1007.00
1532, 1007.00
1533, 1007.00
1534, 1007.00
1535, 1009.00
1536, 1009.00
1537, 1009.00
1538, 1012.00
1539, 1011.00
1540, 1013.00
1541, 1013.00
1542, 1014.00
1543, 1014.00
1544, 1015.00
1545, 1017.00
1546, 1017.00
1547, 1017.00
1548, 1018.00
1549, 1018.00
1550, 1019.00
1551, 1019.00
1552, 1021.00
1553, 1021.00
1554, 1023.00
1555, 1022.00
1556, 1024.00
1557, 1024.00
1558, 1025.00
1559, 1026.00
1560, 1026.00
1561, 1028.00
1562, 1028.00
1563, 1028.00
1564, 1029.00
1565, 1030.00
1566, 1031.00
1567, 1031.00
1568, 1032.00
1569, 1033.00
1570, 1034.00
1571, 1035.00
1572, 1035.00
1573, 1036.00
1574, 1036.00
1575, 1038.00
1576, 1039.00
1577, 1038.00
1578, 1040.00
1579, 1040.00
1580, 1041.00
1581, 1040.00
1582, 1042.00
1583, 1042.00
1584, 1042.00
1585, 1044.00
1586, 1044.00
1587, 1045.00
1588, 1045.00
1589, 1047.00
1590, 1047.00
1591, 1048.00
1592, 1048.00
1593, 1049.00
1594, 1050.00
1595, 1050.00
1596, 1051.00
1597, 1052.00
1598, 1052.00
1599, 1052.00
1600, 1055.00
1601, 1055.00
1602, 1055.00
1603, 1055.00
1604, 1057.00
1605, 1058.00
1606, 1058.00
1607, 1059.00
1608, 1060.00
1609, 1061.00
1610, 1061.00
1611, 1062.00
1612, 1063.00
1613, 1064.00
1614, 1064.00
1615, 1065.00
1616, 1066.00
1617, 1066.00
1618, 1068.00
1619, 1068.00
1620, 1070.00
1621, 1071.00
1622, 1072.00
1623, 1071.00
1624, 1074.00
1625, 1074.00
1626, 1076.00
1627, 1075.00
1628, 1076.00
1629, 1078.00
1630, 1079.00
1631, 1078.00
1632, 1080.00
1633, 1080.00
1634, 1081.00
1635, 1082.00
1636, 1082.00
1637, 1083.00
1638, 1084.00
1639, 1084.00
1640, 1087.00
1641, 1087.00
1642, 1087.00
1643, 1088.00
1644, 1089.00
1645, 1090.00
1646, 1091.00
1647, 1091.00
1648, 1092.00
1649, 1092.00
1650, 1094.00

1750, 1459.00
1751, 1460.00
1752, 1461.00
1753, 1459.00
1754, 1461.00
1755, 1460.00
1756, 1461.00
1757, 1459.00
1758, 1459.00
1759, 1457.00
1760, 1459.00
1761, 1459.00
1762, 1461.00
1763, 1457.00
1764, 1458.00
1765, 1457.00
1766, 1460.00
1767, 1459.00
1768, 1458.00
1769, 1458.00
1770, 1458.00
1771, 1458.00
1772, 1459.00
1773, 1457.00
1774, 1457.00
1775, 1456.00
1776, 1457.00
1777, 1457.00
1778, 1457.00
1779, 1456.00
1780, 1454.00
1781, 1456.00
1782, 1453.00
1783, 1454.00
1784, 1454.00
1785, 1455.00
1786, 1453.00
1787, 1454.00
1788, 1451.00
1789, 1453.00
1790, 1454.00
1791, 1452.00
1792, 1454.00
1793, 1453.00
1794, 1448.00
1795, 1452.00
1796, 1451.00
1797, 1451.00
1798, 1449.00
1799, 1451.00
1800, 1451.00
1801, 1450.00
1802, 1451.00
1803, 1451.00
1804, 1448.00
1805, 1447.00
1806, 1448.00
1807, 1449.00
1808, 1447.00
1809, 1447.00
1810, 1446.00
1811, 1447.00
1812, 1447.00
1813, 1446.00
1814, 1448.00
1815, 1445.00
1816, 1446.00
1817, 1445.00
1818, 1444.00
1819, 1444.00
1820, 1443.00
1821, 1445.00
1822, 1443.00
1823, 1442.00
1824, 1442.00
1825, 1441.00
1826, 1439.00
1827, 1439.00
1828, 1440.00
1829, 1441.00
1830, 1437.00
1831, 1436.00
1832, 1437.00
1833, 1435.00
1834, 1434.00
1835, 1433.00
1836, 1430.00
1837, 1430.00
1838, 1430.00
1839, 1428.00
1840, 1428.00
1841, 1426.00
1842, 1425.00
1843, 1423.00
1844, 1422.00
1845, 1421.00
1846, 1420.00
1847, 1416.00
1848, 1417.00
1849, 1416.00
1850, 1414.00
1851, 1412.00
1852, 1412.00
1853, 1411.00
1854, 1409.00
1855, 1407.00
1856, 1406.00
1857, 1407.00
1858, 1404.00
1859, 1405.00
1860, 1403.00
1861, 1400.00
1862, 1399.00
1863, 1398.00
1864, 1395.00
1865, 1396.00
1866, 1396.00
1867, 1394.00
1868, 1393.00
1869, 1391.00
1870, 1392.00
1871, 1391.00
1872, 1392.00
1873, 1390.00
1874, 1390.00
1875, 1387.00
1876, 1385.00
1877, 1388.00
1878, 1388.00
1879, 1386.00
1880, 1385.00
1881, 1384.00
1882, 1386.00
1883, 1385.00
1884, 1383.00
1885, 1384.00
1886, 1383.00
1887, 1382.00
1888, 1381.00
1889, 1382.00
1890, 1382.00
1891, 1381.00
1892, 1381.00
1893, 1380.00
1894, 1381.00
1895, 1379.00
1896, 1381.00
1897, 1381.00
1898, 1381.00
1899, 1379.00
1900, 1379.00
1901, 1379.00
1902, 1380.00
1903, 1380.00
1904, 1379.00
1905, 1379.00
1906, 1379.00
1907, 1378.00
1908, 1381.00
1909, 1379.00
1910, 1380.00
1911, 1377.00
1912, 1379.00
1913, 1378.00
1914, 1378.00
1915, 1377.00
1916, 1378.00
1917, 1380.00
1918, 1378.00
1919, 1379.00
1920, 1378.00
1921, 1378.00
1922, 1377.00
1923, 1379.00
1924, 1379.00
1925, 1378.00
1926, 1376.00
1927, 1379.00
1928, 1379.00
1929, 1378.00
1930, 1378.00
1931, 1377.00
1932, 1377.00
1933, 1378.00
1934, 1378.00
1935, 1377.00
1936, 1378.00
1937, 1379.00
1938, 1378.00
1939, 1379.00
1940, 1379.00
1941, 1378.00
1942, 1379.00
1943, 1380.00
1944, 1379.00
1945, 1380.00
1946, 1380.00
1947, 1380.00
1948, 1380.00
1949, 1381.00
1950, 1381.00
1951, 1377.00
1952, 1379.00
1953, 1381.00
1954, 1381.00
1955, 1382.00
1956, 1380.00
1957, 1380.00
1958, 1380.00
1959, 1382.00
1960, 1383.00
1961, 1384.00
1962, 1383.00
1963, 1385.00
1964, 1384.00
1965, 1385.00
1966, 1385.00
1967, 1383.00
1968, 1385.00
1969, 1385.00
1970, 1386.00
1971, 1385.00
1972, 1385.00
1973, 1385.00
1974, 1386.00
1975, 1388.00
1976, 1387.00
1977, 1388.00
1978, 1387.00
1979, 1387.00
1980, 1387.00
1981, 1389.00
1982, 1388.00
1983, 1391.00
1984, 1390.00
1985, 1390.00
1986, 1390.00
1987, 1391.00
1988, 1391.00
1989, 1391.00
1990, 1393.00
1991, 1392.00
1992, 1391.00
1993, 1391.00
1994, 1393.00
1995, 1393.00
1996, 1395.00
1997, 1393.00
1998, 1394.00
1999, 1396.00
2000, 1395.00
2001, 1395.00
2002, 1396.00
2003, 1397.00
2004, 1396.00
2005, 1396.00
2006, 1397.00
2007, 1397.00
2008, 1396.00
2009, 1398.00
2010, 1397.00
2011, 1399.00
2012, 1397.00
2013, 1401.00
2014, 1401.00
2015, 1400.00
2016, 1401.00
2017, 1402.00
2018, 1400.00
2019, 1401.00
2020, 1402.00
2021, 1402.00
2022, 1401.00
2023, 1402.00
2024, 1404.00
2025, 1404.00
2026, 1404.00
2027, 1403.00
2028, 1405.00
2029, 1407.00
2030, 1404.00
2031, 1406.00
2032, 1406.00
2033, 1406.00
2034, 1405.00
2035, 1406.00
2036, 1408.00
2037, 1407.00
2038, 1410.00
2039, 1409.00
2040, 1409.00
2041, 1410.00
2042, 1410.00
2043, 1412.00
2044, 1411.00
2045, 1409.00
2046, 1412.00
2047, 1413.00
2048, 1412.00
2049, 1413.00
2050, 1413.00
2051, 1414.00
2052, 1416.00
2053, 1415.00
2054, 1415.00
2055, 1416.00
2056, 1417.00
2057, 1419.00
2058, 1420.00
2059, 1418.00
2060, 1420.00
2061, 1418.00
2062, 1421.00
2063, 1420.00
2064, 1420.00
2065, 1424.00
2066, 1423.00
2067, 1421.00
2068, 1424.00
2069, 1423.00
2070, 1424.00
2071, 1425.00
2072, 1425.00
2073, 1426.00
2074, 1427.00
2075, 1428.00
2076, 1428.00
2077, 1429.00
2078, 1430.00
2079, 1427.00
2080, 1429.00
2081, 1430.00
2082, 1430.00
2083, 1431.00
2084, 1431.00
2085, 1431.00
2086, 1431.00
2087, 1431.00
2088, 1431.00
2089, 1432.00
2090, 1433.00
2091, 1433.00
2092, 1436.00
2093, 1435.00
2094, 1433.00
2095, 1433.00
2096, 1433.00
2097, 1435.00
2098, 1436.00
2099, 1437.00
2100, 1437.00
2101, 1439.00
2102, 1436.00
2103, 1439.00
2104, 1438.00
2105, 1438.00
2106, 1437.00
2107, 1440.00
2108, 1439.00
2109, 1439.00
2110, 1440.00
2111, 1439.00
2112, 1437.00
2113, 1440.00
2114, 1440.00
2115, 1439.00
2116, 1440.00
2117, 1441.00
2118, 1441.00
2119, 1443.00
2120, 1442.00
2121, 1440.00
2122, 1441.00
2123, 1444.00
2124, 1443.00
2125, 1443.00
2126, 1442.00
2127, 1442.00
2128, 1444.00
2129, 1444.00
2130, 1446.00
2131, 1443.00
2132, 1446.00
2133, 1445.00
2134, 1444.00
2135, 1446.00
2136, 1446.00
2137, 1445.00
2138, 1447.00
2139, 1446.00
2140, 1445.00
2141, 1446.00
2142, 1446.00
2143, 1445.00
2144, 1446.00
2145, 1445.00
2146, 1448.00
2147, 1448.00
2148, 1448.00
2149, 1448.00
2150, 1447.00
