FW version: 24
Log Version: 3.0.3

General Info:
       Command/Macro Performed,            Timestamp,             Device ID, COM Port, UART/I2C, Test Name, Host Major, Host Minor, Host Revision, Host Git Commit
            Single_measurement,  2023_07_11_11_18_19,       Insight2_F4_xxx,    USB-C,      USB,          ,          0,          1,             1,      4031237645

Show Spectrometer Status:
l0_version, f4_version, battery_perc, battery_mVolt, accelerometer_temp, accelerometer_x, accelerometer_y, accelerometer_z, compass_temp, compass_x, compass_y, compass_z, lamp_0, lamp_1, gain_0, gain_1
        17,         24,           49,          1906,               6848,           65120,             800,           18892,            0,     65397,     65322,     18942,   2457,   2457,      1,      1

Temperature Statistic Info:
NTC AVG [°C], NTC2 AVG [°C]
      41.596,        41.267

Statistic Info:
M1:  num,      min,      max,   median,      AVG,      STD,M2:  num,      min,      max,   median,      AVG,      STD
     301,   955.00,  1093.00,   985.00,  1000.84,  42.7282,     401,  1375.00,  1461.00,  1414.00,  1414.99,  27.9746,

Measurements:
Wavelength, Data Amplitude
1350, 976.00
1351, 976.00
1352, 974.00
1353, 975.00
1354, 974.00
1355, 974.00
1356, 973.00
1357, 972.00
1358, 972.00
1359, 971.00
1360, 972.00
1361, 971.00
1362, 971.00
1363, 970.00
1364, 968.00
1365, 969.00
1366, 969.00
1367, 967.00
1368, 967.00
1369, 966.00
1370, 965.00
1371, 966.00
1372, 965.00
1373, 965.00
1374, 964.00
1375, 963.00
1376, 963.00
1377, 963.00
1378, 962.00
1379, 961.00
1380, 962.00
1381, 961.00
1382, 959.00
1383, 959.00
1384, 960.00
1385, 959.00
1386, 959.00
1387, 958.00
1388, 958.00
1389, 958.00
1390, 958.00
1391, 958.00
1392, 958.00
1393, 957.00
1394, 957.00
1395, 957.00
1396, 958.00
1397, 958.00
1398, 957.00
1399, 956.00
1400, 956.00
1401, 957.00
1402, 957.00
1403, 957.00
1404, 957.00
1405, 956.00
1406, 956.00
1407, 957.00
1408, 955.00
1409, 956.00
1410, 957.00
1411, 956.00
1412, 956.00
1413, 955.00
1414, 955.00
1415, 956.00
1416, 956.00
1417, 956.00
1418, 956.00
1419, 956.00
1420, 957.00
1421, 957.00
1422, 956.00
1423, 956.00
1424, 956.00
1425, 957.00
1426, 956.00
1427, 957.00
1428, 957.00
1429, 956.00
1430, 958.00
1431, 957.00
1432, 957.00
1433, 958.00
1434, 957.00
1435, 958.00
1436, 958.00
1437, 958.00
1438, 958.00
1439, 958.00
1440, 959.00
1441, 959.00
1442, 959.00
1443, 960.00
1444, 959.00
1445, 960.00
1446, 960.00
1447, 962.00
1448, 962.00
1449, 962.00
1450, 961.00
1451, 962.00
1452, 961.00
1453, 963.00
1454, 962.00
1455, 964.00
1456, 964.00
1457, 964.00
1458, 964.00
1459, 964.00
1460, 965.00
1461, 966.00
1462, 966.00
1463, 966.00
1464, 967.00
1465, 967.00
1466, 967.00
1467, 968.00
1468, 969.00
1469, 970.00
1470, 970.00
1471, 970.00
1472, 970.00
1473, 970.00
1474, 971.00
1475, 971.00
1476, 972.00
1477, 971.00
1478, 973.00
1479, 974.00
1480, 974.00
1481, 975.00
1482, 977.00
1483, 975.00
1484, 977.00
1485, 977.00
1486, 978.00
1487, 978.00
1488, 979.00
1489, 979.00
1490, 979.00
1491, 981.00
1492, 981.00
1493, 981.00
1494, 982.00
1495, 983.00
1496, 983.00
1497, 983.00
1498, 984.00
1499, 985.00
1500, 985.00
1501, 986.00
1502, 987.00
1503, 987.00
1504, 988.00
1505, 988.00
1506, 989.00
1507, 990.00
1508, 991.00
1509, 991.00
1510, 991.00
1511, 993.00
1512, 992.00
1513, 994.00
1514, 994.00
1515, 995.00
1516, 995.00
1517, 996.00
1518, 997.00
1519, 997.00
1520, 998.00
1521, 998.00
1522, 999.00
1523, 1001.00
1524, 1000.00
1525, 1001.00
1526, 1003.00
1527, 1002.00
1528, 1003.00
1529, 1004.00
1530, 1005.00
1531, 1005.00
1532, 1006.00
1533, 1007.00
1534, 1007.00
1535, 1009.00
1536, 1008.00
1537, 1010.00
1538, 1010.00
1539, 1011.00
1540, 1010.00
1541, 1012.00
1542, 1012.00
1543, 1014.00
1544, 1014.00
1545, 1015.00
1546, 1015.00
1547, 1016.00
1548, 1018.00
1549, 1017.00
1550, 1018.00
1551, 1019.00
1552, 1019.00
1553, 1020.00
1554, 1020.00
1555, 1022.00
1556, 1022.00
1557, 1024.00
1558, 1024.00
1559, 1025.00
1560, 1025.00
1561, 1027.00
1562, 1028.00
1563, 1028.00
1564, 1028.00
1565, 1030.00
1566, 1030.00
1567, 1031.00
1568, 1032.00
1569, 1032.00
1570, 1034.00
1571, 1034.00
1572, 1034.00
1573, 1036.00
1574, 1035.00
1575, 1037.00
1576, 1037.00
1577, 1038.00
1578, 1038.00
1579, 1039.00
1580, 1039.00
1581, 1039.00
1582, 1041.00
1583, 1041.00
1584, 1043.00
1585, 1043.00
1586, 1043.00
1587, 1043.00
1588, 1046.00
1589, 1045.00
1590, 1046.00
1591, 1047.00
1592, 1048.00
1593, 1048.00
1594, 1049.00
1595, 1049.00
1596, 1050.00
1597, 1051.00
1598, 1051.00
1599, 1053.00
1600, 1053.00
1601, 1053.00
1602, 1054.00
1603, 1055.00
1604, 1056.00
1605, 1056.00
1606, 1057.00
1607, 1057.00
1608, 1058.00
1609, 1059.00
1610, 1060.00
1611, 1062.00
1612, 1063.00
1613, 1063.00
1614, 1064.00
1615, 1065.00
1616, 1066.00
1617, 1066.00
1618, 1066.00
1619, 1068.00
1620, 1068.00
1621, 1070.00
1622, 1070.00
1623, 1072.00
1624, 1071.00
1625, 1074.00
1626, 1075.00
1627, 1076.00
1628, 1077.00
1629, 1077.00
1630, 1077.00
1631, 1079.00
1632, 1079.00
1633, 1080.00
1634, 1081.00
1635, 1081.00
1636, 1081.00
1637, 1084.00
1638, 1083.00
1639, 1084.00
1640, 1084.00
1641, 1086.00
1642, 1087.00
1643, 1087.00
1644, 1088.00
1645, 1089.00
1646, 1089.00
1647, 1089.00
1648, 1090.00
1649, 1092.00
1650, 1093.00

1750, 1458.00
1751, 1459.00
1752, 1458.00
1753, 1460.00
1754, 1458.00
1755, 1458.00
1756, 1460.00
1757, 1458.00
1758, 1459.00
1759, 1458.00
1760, 1461.00
1761, 1458.00
1762, 1458.00
1763, 1457.00
1764, 1458.00
1765, 1456.00
1766, 1458.00
1767, 1456.00
1768, 1458.00
1769, 1459.00
1770, 1458.00
1771, 1458.00
1772, 1457.00
1773, 1458.00
1774, 1457.00
1775, 1458.00
1776, 1457.00
1777, 1455.00
1778, 1455.00
1779, 1455.00
1780, 1453.00
1781, 1454.00
1782, 1454.00
1783, 1455.00
1784, 1454.00
1785, 1454.00
1786, 1455.00
1787, 1457.00
1788, 1452.00
1789, 1451.00
1790, 1453.00
1791, 1453.00
1792, 1454.00
1793, 1450.00
1794, 1454.00
1795, 1450.00
1796, 1451.00
1797, 1450.00
1798, 1451.00
1799, 1451.00
1800, 1449.00
1801, 1450.00
1802, 1449.00
1803, 1449.00
1804, 1450.00
1805, 1450.00
1806, 1449.00
1807, 1446.00
1808, 1448.00
1809, 1447.00
1810, 1448.00
1811, 1448.00
1812, 1448.00
1813, 1446.00
1814, 1443.00
1815, 1444.00
1816, 1446.00
1817, 1445.00
1818, 1443.00
1819, 1443.00
1820, 1442.00
1821, 1442.00
1822, 1443.00
1823, 1441.00
1824, 1441.00
1825, 1441.00
1826, 1440.00
1827, 1439.00
1828, 1439.00
1829, 1439.00
1830, 1437.00
1831, 1435.00
1832, 1435.00
1833, 1433.00
1834, 1433.00
1835, 1430.00
1836, 1431.00
1837, 1430.00
1838, 1429.00
1839, 1425.00
1840, 1426.00
1841, 1426.00
1842, 1426.00
1843, 1423.00
1844, 1422.00
1845, 1420.00
1846, 1421.00
1847, 1415.00
1848, 1416.00
1849, 1415.00
1850, 1414.00
1851, 1414.00
1852, 1411.00
1853, 1410.00
1854, 1408.00
1855, 1407.00
1856, 1406.00
1857, 1407.00
1858, 1404.00
1859, 1404.00
1860, 1402.00
1861, 1397.00
1862, 1400.00
1863, 1397.00
1864, 1397.00
1865, 1397.00
1866, 1394.00
1867, 1392.00
1868, 1393.00
1869, 1392.00
1870, 1391.00
1871, 1391.00
1872, 1388.00
1873, 1390.00
1874, 1388.00
1875, 1387.00
1876, 1389.00
1877, 1387.00
1878, 1385.00
1879, 1387.00
1880, 1386.00
1881, 1385.00
1882, 1384.00
1883, 1383.00
1884, 1385.00
1885, 1385.00
1886, 1383.00
1887, 1383.00
1888, 1382.00
1889, 1383.00
1890, 1380.00
1891, 1381.00
1892, 1381.00
1893, 1379.00
1894, 1381.00
1895, 1382.00
1896, 1381.00
1897, 1380.00
1898, 1378.00
1899, 1378.00
1900, 1379.00
1901, 1378.00
1902, 1379.00
1903, 1379.00
1904, 1382.00
1905, 1378.00
1906, 1377.00
1907, 1377.00
1908, 1378.00
1909, 1378.00
1910, 1379.00
1911, 1376.00
1912, 1377.00
1913, 1377.00
1914, 1377.00
1915, 1377.00
1916, 1375.00
1917, 1376.00
1918, 1377.00
1919, 1378.00
1920, 1378.00
1921, 1376.00
1922, 1378.00
1923, 1377.00
1924, 1379.00
1925, 1378.00
1926, 1376.00
1927, 1377.00
1928, 1377.00
1929, 1376.00
1930, 1376.00
1931, 1378.00
1932, 1377.00
1933, 1379.00
1934, 1376.00
1935, 1378.00
1936, 1376.00
1937, 1378.00
1938, 1378.00
1939, 1378.00
1940, 1378.00
1941, 1378.00
1942, 1378.00
1943, 1380.00
1944, 1381.00
1945, 1378.00
1946, 1379.00
1947, 1379.00
1948, 1378.00
1949, 1380.00
1950, 1380.00
1951, 1379.00
1952, 1380.00
1953, 1379.00
1954, 1379.00
1955, 1380.00
1956, 1380.00
1957, 1383.00
1958, 1381.00
1959, 1381.00
1960, 1382.00
1961, 1382.00
1962, 1384.00
1963, 1383.00
1964, 1383.00
1965, 1384.00
1966, 1382.00
1967, 1384.00
1968, 1384.00
1969, 1384.00
1970, 1384.00
1971, 1385.00
1972, 1385.00
1973, 1387.00
1974, 1387.00
1975, 1387.00
1976, 1386.00
1977, 1387.00
1978, 1387.00
1979, 1387.00
1980, 1387.00
1981, 1387.00
1982, 1390.00
1983, 1390.00
1984, 1388.00
1985, 1390.00
1986, 1390.00
1987, 1392.00
1988, 1390.00
1989, 1392.00
1990, 1393.00
1991, 1393.00
1992, 1393.00
1993, 1394.00
1994, 1393.00
1995, 1393.00
1996, 1395.00
1997, 1393.00
1998, 1394.00
1999, 1396.00
2000, 1397.00
2001, 1395.00
2002, 1396.00
2003, 1396.00
2004, 1396.00
2005, 1396.00
2006, 1397.00
2007, 1397.00
2008, 1396.00
2009, 1397.00
2010, 1398.00
2011, 1397.00
2012, 1398.00
2013, 1399.00
2014, 1398.00
2015, 1399.00
2016, 1398.00
2017, 1399.00
2018, 1399.00
2019, 1402.00
2020, 1400.00
2021, 1401.00
2022, 1404.00
2023, 1403.00
2024, 1402.00
2025, 1402.00
2026, 1402.00
2027, 1402.00
2028, 1404.00
2029, 1404.00
2030, 1404.00
2031, 1405.00
2032, 1404.00
2033, 1406.00
2034, 1407.00
2035, 1407.00
2036, 1407.00
2037, 1408.00
2038, 1408.00
2039, 1409.00
2040, 1407.00
2041, 1408.00
2042, 1410.00
2043, 1410.00
2044, 1412.00
2045, 1412.00
2046, 1413.00
2047, 1412.00
2048, 1411.00
2049, 1412.00
2050, 1413.00
2051, 1414.00
2052, 1413.00
2053, 1415.00
2054, 1414.00
2055, 1415.00
2056, 1417.00
2057, 1417.00
2058, 1417.00
2059, 1419.00
2060, 1419.00
2061, 1418.00
2062, 1419.00
2063, 1419.00
2064, 1420.00
2065, 1421.00
2066, 1421.00
2067, 1421.00
2068, 1421.00
2069, 1425.00
2070, 1426.00
2071, 1424.00
2072, 1425.00
2073, 1425.00
2074, 1425.00
2075, 1427.00
2076, 1428.00
2077, 1428.00
2078, 1429.00
2079, 1428.00
2080, 1428.00
2081, 1428.00
2082, 1430.00
2083, 1431.00
2084, 1430.00
2085, 1430.00
2086, 1430.00
2087, 1431.00
2088, 1431.00
2089, 1430.00
2090, 1431.00
2091, 1433.00
2092, 1433.00
2093, 1434.00
2094, 1435.00
2095, 1435.00
2096, 1435.00
2097, 1435.00
2098, 1436.00
2099, 1436.00
2100, 1438.00
2101, 1435.00
2102, 1437.00
2103, 1438.00
2104, 1438.00
2105, 1439.00
2106, 1439.00
2107, 1440.00
2108, 1437.00
2109, 1438.00
2110, 1440.00
2111, 1439.00
2112, 1439.00
2113, 1440.00
2114, 1439.00
2115, 1440.00
2116, 1440.00
2117, 1441.00
2118, 1442.00
2119, 1440.00
2120, 1440.00
2121, 1441.00
2122, 1442.00
2123, 1443.00
2124, 1441.00
2125, 1442.00
2126, 1443.00
2127, 1443.00
2128, 1445.00
2129, 1444.00
2130, 1443.00
2131, 1442.00
2132, 1444.00
2133, 1444.00
2134, 1442.00
2135, 1445.00
2136, 1445.00
2137, 1443.00
2138, 1445.00
2139, 1445.00
2140, 1447.00
2141, 1444.00
2142, 1445.00
2143, 1447.00
2144, 1445.00
2145, 1445.00
2146, 1445.00
2147, 1447.00
2148, 1448.00
2149, 1447.00
2150, 1448.00
