FW version: 24
Log Version: 3.0.3

General Info:
       Command/Macro Performed,            Timestamp,             Device ID, COM Port, UART/I2C, Test Name, Host Major, Host Minor, Host Revision, Host Git Commit
            Single_measurement,  2023_07_11_11_18_58,       Insight2_F4_xxx,    USB-C,      USB,          ,          0,          1,             1,      4031237645

Show Spectrometer Status:
l0_version, f4_version, battery_perc, battery_mVolt, accelerometer_temp, accelerometer_x, accelerometer_y, accelerometer_z, compass_temp, compass_x, compass_y, compass_z, lamp_0, lamp_1, gain_0, gain_1
        17,         24,           49,          1905,               6896,           65132,             804,           18748,            0,     65404,     65324,     18815,   3276,   3276,      1,      1

Temperature Statistic Info:
NTC AVG [°C], NTC2 AVG [°C]
      41.892,        41.536

Statistic Info:
M1:  num,      min,      max,   median,      AVG,      STD,M2:  num,      min,      max,   median,      AVG,      STD
     301,  1653.00,  1873.00,  1700.00,  1726.32,  68.1680,     401,  2206.00,  2340.00,  2263.00,  2265.73,  43.9180,

Measurements:
Wavelength, Data Amplitude
1350, 1692.00
1351, 1691.00
1352, 1689.00
1353, 1690.00
1354, 1687.00
1355, 1687.00
1356, 1688.00
1357, 1687.00
1358, 1686.00
1359, 1685.00
1360, 1685.00
1361, 1683.00
1362, 1682.00
1363, 1681.00
1364, 1680.00
1365, 1678.00
1366, 1678.00
1367, 1677.00
1368, 1676.00
1369, 1674.00
1370, 1674.00
1371, 1672.00
1372, 1672.00
1373, 1670.00
1374, 1670.00
1375, 1669.00
1376, 1668.00
1377, 1667.00
1378, 1665.00
1379, 1665.00
1380, 1665.00
1381, 1665.00
1382, 1664.00
1383, 1664.00
1384, 1661.00
1385, 1661.00
1386, 1661.00
1387, 1661.00
1388, 1660.00
1389, 1660.00
1390, 1660.00
1391, 1659.00
1392, 1658.00
1393, 1658.00
1394, 1658.00
1395, 1657.00
1396, 1658.00
1397, 1658.00
1398, 1657.00
1399, 1655.00
1400, 1656.00
1401, 1656.00
1402, 1656.00
1403, 1655.00
1404, 1656.00
1405, 1656.00
1406, 1655.00
1407, 1655.00
1408, 1655.00
1409, 1655.00
1410, 1655.00
1411, 1655.00
1412, 1655.00
1413, 1655.00
1414, 1654.00
1415, 1655.00
1416, 1655.00
1417, 1655.00
1418, 1654.00
1419, 1653.00
1420, 1654.00
1421, 1655.00
1422, 1655.00
1423, 1654.00
1424, 1655.00
1425, 1656.00
1426, 1655.00
1427, 1656.00
1428, 1655.00
1429, 1656.00
1430, 1656.00
1431, 1655.00
1432, 1657.00
1433, 1657.00
1434, 1657.00
1435, 1658.00
1436, 1658.00
1437, 1657.00
1438, 1659.00
1439, 1660.00
1440, 1659.00
1441, 1660.00
1442, 1659.00
1443, 1661.00
1444, 1661.00
1445, 1661.00
1446, 1661.00
1447, 1662.00
1448, 1663.00
1449, 1663.00
1450, 1663.00
1451, 1663.00
1452, 1664.00
1453, 1664.00
1454, 1664.00
1455, 1666.00
1456, 1665.00
1457, 1667.00
1458, 1666.00
1459, 1667.00
1460, 1667.00
1461, 1668.00
1462, 1669.00
1463, 1670.00
1464, 1671.00
1465, 1672.00
1466, 1672.00
1467, 1673.00
1468, 1673.00
1469, 1674.00
1470, 1675.00
1471, 1676.00
1472, 1677.00
1473, 1677.00
1474, 1677.00
1475, 1678.00
1476, 1679.00
1477, 1680.00
1478, 1681.00
1479, 1681.00
1480, 1683.00
1481, 1683.00
1482, 1685.00
1483, 1686.00
1484, 1687.00
1485, 1687.00
1486, 1688.00
1487, 1689.00
1488, 1689.00
1489, 1691.00
1490, 1690.00
1491, 1692.00
1492, 1693.00
1493, 1694.00
1494, 1694.00
1495, 1696.00
1496, 1697.00
1497, 1699.00
1498, 1699.00
1499, 1699.00
1500, 1700.00
1501, 1700.00
1502, 1703.00
1503, 1703.00
1504, 1704.00
1505, 1705.00
1506, 1705.00
1507, 1707.00
1508, 1709.00
1509, 1709.00
1510, 1710.00
1511, 1711.00
1512, 1713.00
1513, 1712.00
1514, 1714.00
1515, 1714.00
1516, 1716.00
1517, 1715.00
1518, 1717.00
1519, 1719.00
1520, 1720.00
1521, 1721.00
1522, 1721.00
1523, 1723.00
1524, 1724.00
1525, 1725.00
1526, 1725.00
1527, 1727.00
1528, 1728.00
1529, 1729.00
1530, 1731.00
1531, 1732.00
1532, 1733.00
1533, 1733.00
1534, 1735.00
1535, 1736.00
1536, 1737.00
1537, 1738.00
1538, 1739.00
1539, 1741.00
1540, 1741.00
1541, 1743.00
1542, 1744.00
1543, 1745.00
1544, 1745.00
1545, 1747.00
1546, 1749.00
1547, 1749.00
1548, 1751.00
1549, 1752.00
1550, 1752.00
1551, 1753.00
1552, 1755.00
1553, 1755.00
1554, 1757.00
1555, 1759.00
1556, 1759.00
1557, 1761.00
1558, 1763.00
1559, 1763.00
1560, 1765.00
1561, 1766.00
1562, 1767.00
1563, 1768.00
1564, 1769.00
1565, 1771.00
1566, 1772.00
1567, 1774.00
1568, 1775.00
1569, 1776.00
1570, 1777.00
1571, 1779.00
1572, 1781.00
1573, 1780.00
1574, 1782.00
1575, 1783.00
1576, 1784.00
1577, 1785.00
1578, 1787.00
1579, 1787.00
1580, 1789.00
1581, 1789.00
1582, 1791.00
1583, 1791.00
1584, 1792.00
1585, 1793.00
1586, 1794.00
1587, 1796.00
1588, 1796.00
1589, 1799.00
1590, 1799.00
1591, 1800.00
1592, 1802.00
1593, 1802.00
1594, 1803.00
1595, 1803.00
1596, 1806.00
1597, 1806.00
1598, 1808.00
1599, 1809.00
1600, 1809.00
1601, 1812.00
1602, 1812.00
1603, 1814.00
1604, 1814.00
1605, 1816.00
1606, 1817.00
1607, 1818.00
1608, 1820.00
1609, 1821.00
1610, 1823.00
1611, 1824.00
1612, 1824.00
1613, 1826.00
1614, 1827.00
1615, 1828.00
1616, 1830.00
1617, 1832.00
1618, 1833.00
1619, 1835.00
1620, 1836.00
1621, 1837.00
1622, 1838.00
1623, 1839.00
1624, 1841.00
1625, 1842.00
1626, 1844.00
1627, 1845.00
1628, 1847.00
1629, 1848.00
1630, 1850.00
1631, 1851.00
1632, 1852.00
1633, 1853.00
1634, 1854.00
1635, 1855.00
1636, 1857.00
1637, 1858.00
1638, 1859.00
1639, 1860.00
1640, 1861.00
1641, 1861.00
1642, 1863.00
1643, 1865.00
1644, 1866.00
1645, 1866.00
1646, 1868.00
1647, 1869.00
1648, 1871.00
1649, 1872.00
1650, 1873.00

1750, 2339.00
1751, 2339.00
1752, 2339.00
1753, 2338.00
1754, 2339.00
1755, 2338.00
1756, 2338.00
1757, 2339.00
1758, 2339.00
1759, 2337.00
1760, 2340.00
1761, 2338.00
1762, 2337.00
1763, 2337.00
1764, 2339.00
1765, 2336.00
1766, 2337.00
1767, 2338.00
1768, 2338.00
1769, 2336.00
1770, 2335.00
1771, 2337.00
1772, 2334.00
1773, 2334.00
1774, 2336.00
1775, 2333.00
1776, 2335.00
1777, 2334.00
1778, 2333.00
1779, 2332.00
1780, 2331.00
1781, 2331.00
1782, 2333.00
1783, 2329.00
1784, 2328.00
1785, 2328.00
1786, 2330.00
1787, 2330.00
1788, 2329.00
1789, 2329.00
1790, 2328.00
1791, 2327.00
1792, 2324.00
1793, 2324.00
1794, 2324.00
1795, 2324.00
1796, 2325.00
1797, 2325.00
1798, 2323.00
1799, 2325.00
1800, 2323.00
1801, 2322.00
1802, 2322.00
1803, 2319.00
1804, 2321.00
1805, 2320.00
1806, 2319.00
1807, 2320.00
1808, 2319.00
1809, 2318.00
1810, 2319.00
1811, 2318.00
1812, 2317.00
1813, 2317.00
1814, 2317.00
1815, 2316.00
1816, 2315.00
1817, 2314.00
1818, 2312.00
1819, 2312.00
1820, 2312.00
1821, 2310.00
1822, 2310.00
1823, 2310.00
1824, 2309.00
1825, 2305.00
1826, 2306.00
1827, 2305.00
1828, 2305.00
1829, 2303.00
1830, 2302.00
1831, 2301.00
1832, 2296.00
1833, 2296.00
1834, 2295.00
1835, 2295.00
1836, 2290.00
1837, 2289.00
1838, 2288.00
1839, 2287.00
1840, 2287.00
1841, 2283.00
1842, 2281.00
1843, 2279.00
1844, 2277.00
1845, 2277.00
1846, 2273.00
1847, 2273.00
1848, 2270.00
1849, 2263.00
1850, 2265.00
1851, 2263.00
1852, 2260.00
1853, 2261.00
1854, 2255.00
1855, 2254.00
1856, 2253.00
1857, 2249.00
1858, 2247.00
1859, 2245.00
1860, 2243.00
1861, 2242.00
1862, 2239.00
1863, 2241.00
1864, 2237.00
1865, 2236.00
1866, 2232.00
1867, 2232.00
1868, 2231.00
1869, 2230.00
1870, 2230.00
1871, 2228.00
1872, 2228.00
1873, 2225.00
1874, 2224.00
1875, 2224.00
1876, 2223.00
1877, 2221.00
1878, 2220.00
1879, 2220.00
1880, 2218.00
1881, 2220.00
1882, 2218.00
1883, 2216.00
1884, 2216.00
1885, 2217.00
1886, 2217.00
1887, 2216.00
1888, 2217.00
1889, 2214.00
1890, 2213.00
1891, 2212.00
1892, 2214.00
1893, 2213.00
1894, 2213.00
1895, 2213.00
1896, 2212.00
1897, 2210.00
1898, 2211.00
1899, 2211.00
1900, 2211.00
1901, 2212.00
1902, 2212.00
1903, 2209.00
1904, 2209.00
1905, 2211.00
1906, 2209.00
1907, 2209.00
1908, 2209.00
1909, 2209.00
1910, 2210.00
1911, 2208.00
1912, 2209.00
1913, 2208.00
1914, 2207.00
1915, 2208.00
1916, 2207.00
1917, 2207.00
1918, 2207.00
1919, 2207.00
1920, 2207.00
1921, 2208.00
1922, 2207.00
1923, 2206.00
1924, 2207.00
1925, 2207.00
1926, 2206.00
1927, 2206.00
1928, 2209.00
1929, 2207.00
1930, 2209.00
1931, 2208.00
1932, 2207.00
1933, 2208.00
1934, 2208.00
1935, 2208.00
1936, 2209.00
1937, 2209.00
1938, 2208.00
1939, 2208.00
1940, 2208.00
1941, 2209.00
1942, 2210.00
1943, 2209.00
1944, 2209.00
1945, 2208.00
1946, 2211.00
1947, 2210.00
1948, 2211.00
1949, 2209.00
1950, 2208.00
1951, 2209.00
1952, 2209.00
1953, 2211.00
1954, 2212.00
1955, 2210.00
1956, 2213.00
1957, 2211.00
1958, 2215.00
1959, 2213.00
1960, 2214.00
1961, 2215.00
1962, 2215.00
1963, 2215.00
1964, 2217.00
1965, 2216.00
1966, 2217.00
1967, 2218.00
1968, 2215.00
1969, 2218.00
1970, 2217.00
1971, 2219.00
1972, 2219.00
1973, 2219.00
1974, 2221.00
1975, 2221.00
1976, 2220.00
1977, 2225.00
1978, 2223.00
1979, 2223.00
1980, 2225.00
1981, 2223.00
1982, 2225.00
1983, 2225.00
1984, 2225.00
1985, 2228.00
1986, 2228.00
1987, 2229.00
1988, 2227.00
1989, 2229.00
1990, 2229.00
1991, 2228.00
1992, 2230.00
1993, 2230.00
1994, 2229.00
1995, 2231.00
1996, 2233.00
1997, 2232.00
1998, 2234.00
1999, 2233.00
2000, 2233.00
2001, 2234.00
2002, 2234.00
2003, 2234.00
2004, 2236.00
2005, 2236.00
2006, 2235.00
2007, 2237.00
2008, 2238.00
2009, 2236.00
2010, 2239.00
2011, 2239.00
2012, 2241.00
2013, 2240.00
2014, 2241.00
2015, 2240.00
2016, 2241.00
2017, 2242.00
2018, 2245.00
2019, 2241.00
2020, 2243.00
2021, 2242.00
2022, 2245.00
2023, 2247.00
2024, 2245.00
2025, 2248.00
2026, 2248.00
2027, 2248.00
2028, 2247.00
2029, 2248.00
2030, 2248.00
2031, 2249.00
2032, 2251.00
2033, 2250.00
2034, 2251.00
2035, 2254.00
2036, 2253.00
2037, 2253.00
2038, 2254.00
2039, 2253.00
2040, 2255.00
2041, 2255.00
2042, 2256.00
2043, 2257.00
2044, 2257.00
2045, 2258.00
2046, 2260.00
2047, 2260.00
2048, 2260.00
2049, 2262.00
2050, 2261.00
2051, 2263.00
2052, 2263.00
2053, 2265.00
2054, 2266.00
2055, 2268.00
2056, 2267.00
2057, 2267.00
2058, 2268.00
2059, 2268.00
2060, 2269.00
2061, 2271.00
2062, 2271.00
2063, 2273.00
2064, 2273.00
2065, 2275.00
2066, 2274.00
2067, 2277.00
2068, 2276.00
2069, 2279.00
2070, 2277.00
2071, 2279.00
2072, 2280.00
2073, 2281.00
2074, 2280.00
2075, 2279.00
2076, 2283.00
2077, 2283.00
2078, 2283.00
2079, 2285.00
2080, 2285.00
2081, 2285.00
2082, 2285.00
2083, 2285.00
2084, 2286.00
2085, 2287.00
2086, 2289.00
2087, 2290.00
2088, 2289.00
2089, 2290.00
2090, 2290.00
2091, 2292.00
2092, 2293.00
2093, 2289.00
2094, 2293.00
2095, 2295.00
2096, 2295.00
2097, 2293.00
2098, 2296.00
2099, 2294.00
2100, 2296.00
2101, 2296.00
2102, 2296.00
2103, 2295.00
2104, 2298.00
2105, 2299.00
2106, 2299.00
2107, 2299.00
2108, 2298.00
2109, 2299.00
2110, 2300.00
2111, 2300.00
2112, 2301.00
2113, 2301.00
2114, 2301.00
2115, 2303.00
2116, 2300.00
2117, 2300.00
2118, 2301.00
2119, 2301.00
2120, 2304.00
2121, 2303.00
2122, 2304.00
2123, 2304.00
2124, 2302.00
2125, 2303.00
2126, 2306.00
2127, 2305.00
2128, 2305.00
2129, 2305.00
2130, 2306.00
2131, 2306.00
2132, 2307.00
2133, 2305.00
2134, 2307.00
2135, 2308.00
2136, 2307.00
2137, 2308.00
2138, 2310.00
2139, 2308.00
2140, 2311.00
2141, 2310.00
2142, 2311.00
2143, 2310.00
2144, 2311.00
2145, 2310.00
2146, 2312.00
2147, 2315.00
2148, 2311.00
2149, 2314.00
2150, 2312.00
