FW version: 24
Log Version: 3.0.3

General Info:
       Command/Macro Performed,            Timestamp,             Device ID, COM Port, UART/I2C, Test Name, Host Major, Host Minor, Host Revision, Host Git Commit
            Single_measurement,  2023_07_11_11_18_50,       Insight2_F4_xxx,    USB-C,      USB,          ,          0,          1,             1,      4031237645

Show Spectrometer Status:
l0_version, f4_version, battery_perc, battery_mVolt, accelerometer_temp, accelerometer_x, accelerometer_y, accelerometer_z, compass_temp, compass_x, compass_y, compass_z, lamp_0, lamp_1, gain_0, gain_1
        17,         24,           49,          1904,               6880,           65160,             796,           18844,            0,     65500,     65340,     18943,   3276,   3276,      1,      1

Temperature Statistic Info:
NTC AVG [°C], NTC2 AVG [°C]
      41.892,        41.447

Statistic Info:
M1:  num,      min,      max,   median,      AVG,      STD,M2:  num,      min,      max,   median,      AVG,      STD
     301,  1655.00,  1875.00,  1701.00,  1727.76,  68.2635,     401,  2207.00,  2342.00,  2265.00,  2267.02,  44.0154,

Measurements:
Wavelength, Data Amplitude
1350, 1692.00
1351, 1691.00
1352, 1691.00
1353, 1690.00
1354, 1689.00
1355, 1689.00
1356, 1690.00
1357, 1687.00
1358, 1686.00
1359, 1686.00
1360, 1685.00
1361, 1684.00
1362, 1683.00
1363, 1683.00
1364, 1681.00
1365, 1680.00
1366, 1679.00
1367, 1678.00
1368, 1677.00
1369, 1677.00
1370, 1677.00
1371, 1673.00
1372, 1673.00
1373, 1671.00
1374, 1671.00
1375, 1671.00
1376, 1669.00
1377, 1668.00
1378, 1668.00
1379, 1667.00
1380, 1666.00
1381, 1666.00
1382, 1665.00
1383, 1665.00
1384, 1663.00
1385, 1663.00
1386, 1663.00
1387, 1662.00
1388, 1660.00
1389, 1661.00
1390, 1661.00
1391, 1660.00
1392, 1661.00
1393, 1660.00
1394, 1659.00
1395, 1659.00
1396, 1659.00
1397, 1658.00
1398, 1659.00
1399, 1657.00
1400, 1657.00
1401, 1659.00
1402, 1657.00
1403, 1657.00
1404, 1658.00
1405, 1658.00
1406, 1656.00
1407, 1657.00
1408, 1656.00
1409, 1657.00
1410, 1657.00
1411, 1655.00
1412, 1656.00
1413, 1655.00
1414, 1655.00
1415, 1656.00
1416, 1656.00
1417, 1656.00
1418, 1656.00
1419, 1657.00
1420, 1657.00
1421, 1657.00
1422, 1655.00
1423, 1657.00
1424, 1657.00
1425, 1657.00
1426, 1657.00
1427, 1657.00
1428, 1657.00
1429, 1658.00
1430, 1657.00
1431, 1657.00
1432, 1658.00
1433, 1658.00
1434, 1658.00
1435, 1659.00
1436, 1659.00
1437, 1660.00
1438, 1660.00
1439, 1660.00
1440, 1660.00
1441, 1661.00
1442, 1661.00
1443, 1661.00
1444, 1661.00
1445, 1663.00
1446, 1662.00
1447, 1663.00
1448, 1664.00
1449, 1663.00
1450, 1664.00
1451, 1665.00
1452, 1664.00
1453, 1666.00
1454, 1666.00
1455, 1666.00
1456, 1667.00
1457, 1667.00
1458, 1669.00
1459, 1669.00
1460, 1668.00
1461, 1670.00
1462, 1670.00
1463, 1671.00
1464, 1671.00
1465, 1672.00
1466, 1673.00
1467, 1673.00
1468, 1674.00
1469, 1675.00
1470, 1677.00
1471, 1677.00
1472, 1678.00
1473, 1678.00
1474, 1679.00
1475, 1680.00
1476, 1681.00
1477, 1681.00
1478, 1681.00
1479, 1684.00
1480, 1685.00
1481, 1685.00
1482, 1686.00
1483, 1687.00
1484, 1688.00
1485, 1689.00
1486, 1690.00
1487, 1690.00
1488, 1692.00
1489, 1692.00
1490, 1693.00
1491, 1694.00
1492, 1695.00
1493, 1694.00
1494, 1696.00
1495, 1697.00
1496, 1698.00
1497, 1699.00
1498, 1700.00
1499, 1701.00
1500, 1701.00
1501, 1702.00
1502, 1703.00
1503, 1705.00
1504, 1705.00
1505, 1706.00
1506, 1707.00
1507, 1709.00
1508, 1710.00
1509, 1710.00
1510, 1711.00
1511, 1712.00
1512, 1714.00
1513, 1715.00
1514, 1715.00
1515, 1716.00
1516, 1718.00
1517, 1717.00
1518, 1719.00
1519, 1721.00
1520, 1721.00
1521, 1722.00
1522, 1723.00
1523, 1724.00
1524, 1725.00
1525, 1726.00
1526, 1727.00
1527, 1729.00
1528, 1730.00
1529, 1731.00
1530, 1731.00
1531, 1733.00
1532, 1734.00
1533, 1734.00
1534, 1736.00
1535, 1738.00
1536, 1739.00
1537, 1739.00
1538, 1740.00
1539, 1741.00
1540, 1743.00
1541, 1744.00
1542, 1745.00
1543, 1746.00
1544, 1748.00
1545, 1749.00
1546, 1750.00
1547, 1750.00
1548, 1753.00
1549, 1753.00
1550, 1755.00
1551, 1755.00
1552, 1756.00
1553, 1758.00
1554, 1759.00
1555, 1761.00
1556, 1762.00
1557, 1762.00
1558, 1765.00
1559, 1765.00
1560, 1767.00
1561, 1767.00
1562, 1768.00
1563, 1770.00
1564, 1771.00
1565, 1772.00
1566, 1773.00
1567, 1775.00
1568, 1776.00
1569, 1778.00
1570, 1778.00
1571, 1779.00
1572, 1781.00
1573, 1782.00
1574, 1783.00
1575, 1785.00
1576, 1787.00
1577, 1787.00
1578, 1788.00
1579, 1788.00
1580, 1791.00
1581, 1791.00
1582, 1791.00
1583, 1793.00
1584, 1795.00
1585, 1793.00
1586, 1796.00
1587, 1797.00
1588, 1799.00
1589, 1800.00
1590, 1801.00
1591, 1803.00
1592, 1803.00
1593, 1803.00
1594, 1805.00
1595, 1805.00
1596, 1808.00
1597, 1807.00
1598, 1809.00
1599, 1810.00
1600, 1812.00
1601, 1813.00
1602, 1813.00
1603, 1816.00
1604, 1816.00
1605, 1817.00
1606, 1818.00
1607, 1821.00
1608, 1821.00
1609, 1823.00
1610, 1824.00
1611, 1825.00
1612, 1825.00
1613, 1828.00
1614, 1831.00
1615, 1831.00
1616, 1832.00
1617, 1833.00
1618, 1835.00
1619, 1835.00
1620, 1837.00
1621, 1839.00
1622, 1840.00
1623, 1842.00
1624, 1843.00
1625, 1845.00
1626, 1846.00
1627, 1847.00
1628, 1847.00
1629, 1850.00
1630, 1851.00
1631, 1852.00
1632, 1853.00
1633, 1854.00
1634, 1856.00
1635, 1857.00
1636, 1858.00
1637, 1859.00
1638, 1861.00
1639, 1862.00
1640, 1862.00
1641, 1863.00
1642, 1865.00
1643, 1865.00
1644, 1866.00
1645, 1868.00
1646, 1870.00
1647, 1870.00
1648, 1872.00
1649, 1874.00
1650, 1875.00

1750, 2339.00
1751, 2341.00
1752, 2339.00
1753, 2340.00
1754, 2341.00
1755, 2342.00
1756, 2341.00
1757, 2338.00
1758, 2339.00
1759, 2340.00
1760, 2336.00
1761, 2338.00
1762, 2340.00
1763, 2337.00
1764, 2340.00
1765, 2337.00
1766, 2338.00
1767, 2340.00
1768, 2339.00
1769, 2335.00
1770, 2337.00
1771, 2338.00
1772, 2336.00
1773, 2336.00
1774, 2336.00
1775, 2338.00
1776, 2335.00
1777, 2336.00
1778, 2334.00
1779, 2333.00
1780, 2335.00
1781, 2331.00
1782, 2330.00
1783, 2333.00
1784, 2332.00
1785, 2330.00
1786, 2329.00
1787, 2327.00
1788, 2330.00
1789, 2328.00
1790, 2330.00
1791, 2329.00
1792, 2327.00
1793, 2328.00
1794, 2327.00
1795, 2325.00
1796, 2326.00
1797, 2324.00
1798, 2323.00
1799, 2326.00
1800, 2324.00
1801, 2324.00
1802, 2323.00
1803, 2322.00
1804, 2321.00
1805, 2323.00
1806, 2321.00
1807, 2320.00
1808, 2321.00
1809, 2321.00
1810, 2319.00
1811, 2318.00
1812, 2319.00
1813, 2319.00
1814, 2319.00
1815, 2315.00
1816, 2317.00
1817, 2316.00
1818, 2316.00
1819, 2314.00
1820, 2313.00
1821, 2312.00
1822, 2311.00
1823, 2311.00
1824, 2309.00
1825, 2307.00
1826, 2309.00
1827, 2305.00
1828, 2305.00
1829, 2304.00
1830, 2303.00
1831, 2301.00
1832, 2299.00
1833, 2298.00
1834, 2295.00
1835, 2296.00
1836, 2293.00
1837, 2291.00
1838, 2291.00
1839, 2289.00
1840, 2286.00
1841, 2284.00
1842, 2283.00
1843, 2279.00
1844, 2279.00
1845, 2276.00
1846, 2275.00
1847, 2273.00
1848, 2271.00
1849, 2269.00
1850, 2265.00
1851, 2264.00
1852, 2262.00
1853, 2260.00
1854, 2257.00
1855, 2253.00
1856, 2253.00
1857, 2253.00
1858, 2250.00
1859, 2247.00
1860, 2246.00
1861, 2245.00
1862, 2242.00
1863, 2241.00
1864, 2241.00
1865, 2238.00
1866, 2236.00
1867, 2235.00
1868, 2234.00
1869, 2231.00
1870, 2230.00
1871, 2231.00
1872, 2228.00
1873, 2227.00
1874, 2225.00
1875, 2226.00
1876, 2225.00
1877, 2223.00
1878, 2224.00
1879, 2222.00
1880, 2221.00
1881, 2219.00
1882, 2221.00
1883, 2219.00
1884, 2218.00
1885, 2219.00
1886, 2216.00
1887, 2218.00
1888, 2216.00
1889, 2215.00
1890, 2215.00
1891, 2216.00
1892, 2215.00
1893, 2215.00
1894, 2214.00
1895, 2212.00
1896, 2213.00
1897, 2213.00
1898, 2212.00
1899, 2212.00
1900, 2213.00
1901, 2213.00
1902, 2211.00
1903, 2211.00
1904, 2211.00
1905, 2211.00
1906, 2211.00
1907, 2209.00
1908, 2209.00
1909, 2208.00
1910, 2209.00
1911, 2211.00
1912, 2208.00
1913, 2209.00
1914, 2208.00
1915, 2207.00
1916, 2210.00
1917, 2208.00
1918, 2208.00
1919, 2208.00
1920, 2207.00
1921, 2208.00
1922, 2210.00
1923, 2209.00
1924, 2209.00
1925, 2209.00
1926, 2207.00
1927, 2209.00
1928, 2208.00
1929, 2208.00
1930, 2208.00
1931, 2207.00
1932, 2208.00
1933, 2208.00
1934, 2209.00
1935, 2207.00
1936, 2208.00
1937, 2209.00
1938, 2211.00
1939, 2209.00
1940, 2209.00
1941, 2209.00
1942, 2210.00
1943, 2210.00
1944, 2210.00
1945, 2209.00
1946, 2211.00
1947, 2211.00
1948, 2210.00
1949, 2212.00
1950, 2210.00
1951, 2212.00
1952, 2212.00
1953, 2214.00
1954, 2214.00
1955, 2213.00
1956, 2216.00
1957, 2215.00
1958, 2215.00
1959, 2214.00
1960, 2215.00
1961, 2216.00
1962, 2217.00
1963, 2216.00
1964, 2216.00
1965, 2218.00
1966, 2217.00
1967, 2216.00
1968, 2218.00
1969, 2219.00
1970, 2221.00
1971, 2218.00
1972, 2221.00
1973, 2220.00
1974, 2222.00
1975, 2221.00
1976, 2221.00
1977, 2223.00
1978, 2222.00
1979, 2225.00
1980, 2225.00
1981, 2225.00
1982, 2226.00
1983, 2226.00
1984, 2226.00
1985, 2228.00
1986, 2228.00
1987, 2229.00
1988, 2228.00
1989, 2228.00
1990, 2228.00
1991, 2229.00
1992, 2232.00
1993, 2232.00
1994, 2232.00
1995, 2232.00
1996, 2234.00
1997, 2234.00
1998, 2233.00
1999, 2233.00
2000, 2235.00
2001, 2235.00
2002, 2236.00
2003, 2236.00
2004, 2236.00
2005, 2237.00
2006, 2239.00
2007, 2237.00
2008, 2239.00
2009, 2240.00
2010, 2240.00
2011, 2240.00
2012, 2241.00
2013, 2242.00
2014, 2242.00
2015, 2241.00
2016, 2240.00
2017, 2242.00
2018, 2243.00
2019, 2243.00
2020, 2245.00
2021, 2246.00
2022, 2246.00
2023, 2247.00
2024, 2247.00
2025, 2247.00
2026, 2248.00
2027, 2247.00
2028, 2250.00
2029, 2250.00
2030, 2251.00
2031, 2251.00
2032, 2251.00
2033, 2252.00
2034, 2252.00
2035, 2253.00
2036, 2252.00
2037, 2254.00
2038, 2254.00
2039, 2254.00
2040, 2255.00
2041, 2257.00
2042, 2257.00
2043, 2256.00
2044, 2261.00
2045, 2259.00
2046, 2259.00
2047, 2263.00
2048, 2264.00
2049, 2262.00
2050, 2265.00
2051, 2265.00
2052, 2267.00
2053, 2265.00
2054, 2267.00
2055, 2268.00
2056, 2266.00
2057, 2268.00
2058, 2268.00
2059, 2270.00
2060, 2271.00
2061, 2271.00
2062, 2275.00
2063, 2274.00
2064, 2275.00
2065, 2277.00
2066, 2275.00
2067, 2278.00
2068, 2277.00
2069, 2278.00
2070, 2277.00
2071, 2279.00
2072, 2280.00
2073, 2281.00
2074, 2283.00
2075, 2283.00
2076, 2284.00
2077, 2284.00
2078, 2286.00
2079, 2286.00
2080, 2287.00
2081, 2288.00
2082, 2289.00
2083, 2286.00
2084, 2289.00
2085, 2287.00
2086, 2289.00
2087, 2292.00
2088, 2291.00
2089, 2291.00
2090, 2291.00
2091, 2292.00
2092, 2294.00
2093, 2293.00
2094, 2295.00
2095, 2297.00
2096, 2295.00
2097, 2296.00
2098, 2296.00
2099, 2297.00
2100, 2298.00
2101, 2297.00
2102, 2300.00
2103, 2298.00
2104, 2300.00
2105, 2300.00
2106, 2301.00
2107, 2301.00
2108, 2302.00
2109, 2300.00
2110, 2301.00
2111, 2302.00
2112, 2301.00
2113, 2302.00
2114, 2304.00
2115, 2303.00
2116, 2303.00
2117, 2303.00
2118, 2303.00
2119, 2304.00
2120, 2302.00
2121, 2304.00
2122, 2308.00
2123, 2308.00
2124, 2305.00
2125, 2304.00
2126, 2305.00
2127, 2307.00
2128, 2307.00
2129, 2308.00
2130, 2309.00
2131, 2310.00
2132, 2309.00
2133, 2308.00
2134, 2308.00
2135, 2311.00
2136, 2308.00
2137, 2311.00
2138, 2309.00
2139, 2310.00
2140, 2310.00
2141, 2310.00
2142, 2310.00
2143, 2311.00
2144, 2312.00
2145, 2311.00
2146, 2312.00
2147, 2313.00
2148, 2313.00
2149, 2315.00
2150, 2313.00
