FW version: 24
Log Version: 3.0.3

General Info:
       Command/Macro Performed,            Timestamp,             Device ID, COM Port, UART/I2C, Test Name, Host Major, Host Minor, Host Revision, Host Git Commit
            Single_measurement,  2023_07_11_11_17_40,       Insight2_F4_xxx,    USB-C,      USB,          ,          0,          1,             1,      4031237645

Show Spectrometer Status:
l0_version, f4_version, battery_perc, battery_mVolt, accelerometer_temp, accelerometer_x, accelerometer_y, accelerometer_z, compass_temp, compass_x, compass_y, compass_z, lamp_0, lamp_1, gain_0, gain_1
        17,         24,           49,          1907,               6816,           65148,             812,           18720,            0,     65406,     65324,     18811,   3276,   3276,      0,      0

Temperature Statistic Info:
NTC AVG [°C], NTC2 AVG [°C]
      41.327,        41.026

Statistic Info:
M1:  num,      min,      max,   median,      AVG,      STD,M2:  num,      min,      max,   median,      AVG,      STD
     301,   573.00,   648.00,   589.00,   597.96,  23.6031,     401,   764.00,   811.00,   784.00,   785.11,  15.2925,

Measurements:
Wavelength, Data Amplitude
1350, 586.00
1351, 586.00
1352, 586.00
1353, 585.00
1354, 585.00
1355, 585.00
1356, 584.00
1357, 584.00
1358, 584.00
1359, 584.00
1360, 584.00
1361, 583.00
1362, 583.00
1363, 582.00
1364, 582.00
1365, 581.00
1366, 581.00
1367, 581.00
1368, 581.00
1369, 580.00
1370, 580.00
1371, 580.00
1372, 580.00
1373, 579.00
1374, 579.00
1375, 579.00
1376, 578.00
1377, 578.00
1378, 577.00
1379, 577.00
1380, 577.00
1381, 577.00
1382, 577.00
1383, 576.00
1384, 576.00
1385, 576.00
1386, 576.00
1387, 576.00
1388, 576.00
1389, 576.00
1390, 575.00
1391, 575.00
1392, 575.00
1393, 574.00
1394, 574.00
1395, 574.00
1396, 574.00
1397, 574.00
1398, 574.00
1399, 574.00
1400, 573.00
1401, 573.00
1402, 574.00
1403, 574.00
1404, 574.00
1405, 573.00
1406, 573.00
1407, 574.00
1408, 573.00
1409, 573.00
1410, 573.00
1411, 573.00
1412, 573.00
1413, 573.00
1414, 573.00
1415, 573.00
1416, 573.00
1417, 573.00
1418, 573.00
1419, 573.00
1420, 573.00
1421, 573.00
1422, 573.00
1423, 574.00
1424, 573.00
1425, 573.00
1426, 573.00
1427, 573.00
1428, 573.00
1429, 573.00
1430, 573.00
1431, 573.00
1432, 573.00
1433, 574.00
1434, 574.00
1435, 574.00
1436, 574.00
1437, 574.00
1438, 574.00
1439, 574.00
1440, 575.00
1441, 574.00
1442, 575.00
1443, 575.00
1444, 575.00
1445, 576.00
1446, 576.00
1447, 576.00
1448, 576.00
1449, 576.00
1450, 576.00
1451, 576.00
1452, 576.00
1453, 576.00
1454, 576.00
1455, 577.00
1456, 577.00
1457, 577.00
1458, 577.00
1459, 577.00
1460, 578.00
1461, 578.00
1462, 578.00
1463, 578.00
1464, 578.00
1465, 579.00
1466, 579.00
1467, 579.00
1468, 579.00
1469, 580.00
1470, 580.00
1471, 580.00
1472, 581.00
1473, 581.00
1474, 581.00
1475, 581.00
1476, 581.00
1477, 582.00
1478, 582.00
1479, 583.00
1480, 582.00
1481, 583.00
1482, 583.00
1483, 584.00
1484, 584.00
1485, 585.00
1486, 585.00
1487, 585.00
1488, 585.00
1489, 585.00
1490, 586.00
1491, 586.00
1492, 586.00
1493, 587.00
1494, 587.00
1495, 587.00
1496, 588.00
1497, 588.00
1498, 588.00
1499, 589.00
1500, 589.00
1501, 589.00
1502, 590.00
1503, 590.00
1504, 590.00
1505, 591.00
1506, 591.00
1507, 591.00
1508, 592.00
1509, 592.00
1510, 592.00
1511, 592.00
1512, 593.00
1513, 594.00
1514, 593.00
1515, 594.00
1516, 594.00
1517, 595.00
1518, 595.00
1519, 595.00
1520, 596.00
1521, 596.00
1522, 597.00
1523, 597.00
1524, 597.00
1525, 598.00
1526, 598.00
1527, 598.00
1528, 598.00
1529, 599.00
1530, 599.00
1531, 600.00
1532, 600.00
1533, 601.00
1534, 601.00
1535, 601.00
1536, 601.00
1537, 602.00
1538, 602.00
1539, 603.00
1540, 603.00
1541, 603.00
1542, 604.00
1543, 605.00
1544, 604.00
1545, 605.00
1546, 605.00
1547, 606.00
1548, 606.00
1549, 607.00
1550, 607.00
1551, 608.00
1552, 608.00
1553, 608.00
1554, 609.00
1555, 609.00
1556, 610.00
1557, 610.00
1558, 610.00
1559, 611.00
1560, 611.00
1561, 612.00
1562, 612.00
1563, 612.00
1564, 613.00
1565, 613.00
1566, 614.00
1567, 615.00
1568, 615.00
1569, 615.00
1570, 616.00
1571, 616.00
1572, 616.00
1573, 616.00
1574, 617.00
1575, 617.00
1576, 618.00
1577, 618.00
1578, 619.00
1579, 619.00
1580, 620.00
1581, 620.00
1582, 620.00
1583, 621.00
1584, 621.00
1585, 621.00
1586, 622.00
1587, 622.00
1588, 622.00
1589, 623.00
1590, 623.00
1591, 624.00
1592, 624.00
1593, 624.00
1594, 625.00
1595, 625.00
1596, 625.00
1597, 626.00
1598, 626.00
1599, 627.00
1600, 627.00
1601, 628.00
1602, 627.00
1603, 628.00
1604, 629.00
1605, 629.00
1606, 629.00
1607, 630.00
1608, 630.00
1609, 631.00
1610, 631.00
1611, 632.00
1612, 632.00
1613, 633.00
1614, 633.00
1615, 633.00
1616, 634.00
1617, 634.00
1618, 635.00
1619, 635.00
1620, 636.00
1621, 636.00
1622, 637.00
1623, 638.00
1624, 637.00
1625, 638.00
1626, 639.00
1627, 640.00
1628, 640.00
1629, 640.00
1630, 641.00
1631, 641.00
1632, 641.00
1633, 642.00
1634, 642.00
1635, 643.00
1636, 643.00
1637, 643.00
1638, 644.00
1639, 644.00
1640, 644.00
1641, 645.00
1642, 645.00
1643, 646.00
1644, 646.00
1645, 647.00
1646, 647.00
1647, 647.00
1648, 648.00
1649, 648.00
1650, 648.00

1750, 810.00
1751, 810.00
1752, 811.00
1753, 811.00
1754, 810.00
1755, 811.00
1756, 810.00
1757, 811.00
1758, 810.00
1759, 810.00
1760, 810.00
1761, 810.00
1762, 811.00
1763, 810.00
1764, 810.00
1765, 810.00
1766, 810.00
1767, 810.00
1768, 810.00
1769, 810.00
1770, 810.00
1771, 810.00
1772, 809.00
1773, 809.00
1774, 809.00
1775, 809.00
1776, 809.00
1777, 808.00
1778, 808.00
1779, 808.00
1780, 808.00
1781, 809.00
1782, 808.00
1783, 808.00
1784, 807.00
1785, 807.00
1786, 807.00
1787, 807.00
1788, 808.00
1789, 807.00
1790, 807.00
1791, 806.00
1792, 806.00
1793, 806.00
1794, 806.00
1795, 806.00
1796, 806.00
1797, 805.00
1798, 804.00
1799, 805.00
1800, 804.00
1801, 805.00
1802, 805.00
1803, 805.00
1804, 804.00
1805, 805.00
1806, 804.00
1807, 804.00
1808, 804.00
1809, 803.00
1810, 803.00
1811, 804.00
1812, 803.00
1813, 802.00
1814, 803.00
1815, 803.00
1816, 802.00
1817, 802.00
1818, 802.00
1819, 802.00
1820, 802.00
1821, 801.00
1822, 801.00
1823, 801.00
1824, 800.00
1825, 800.00
1826, 800.00
1827, 799.00
1828, 799.00
1829, 798.00
1830, 797.00
1831, 797.00
1832, 796.00
1833, 795.00
1834, 795.00
1835, 795.00
1836, 794.00
1837, 794.00
1838, 793.00
1839, 792.00
1840, 792.00
1841, 792.00
1842, 791.00
1843, 790.00
1844, 789.00
1845, 788.00
1846, 788.00
1847, 788.00
1848, 787.00
1849, 785.00
1850, 785.00
1851, 784.00
1852, 784.00
1853, 782.00
1854, 782.00
1855, 781.00
1856, 780.00
1857, 781.00
1858, 780.00
1859, 779.00
1860, 779.00
1861, 778.00
1862, 777.00
1863, 776.00
1864, 776.00
1865, 775.00
1866, 774.00
1867, 774.00
1868, 773.00
1869, 773.00
1870, 773.00
1871, 772.00
1872, 771.00
1873, 771.00
1874, 771.00
1875, 771.00
1876, 770.00
1877, 770.00
1878, 770.00
1879, 770.00
1880, 769.00
1881, 769.00
1882, 769.00
1883, 769.00
1884, 768.00
1885, 768.00
1886, 768.00
1887, 767.00
1888, 768.00
1889, 767.00
1890, 767.00
1891, 767.00
1892, 768.00
1893, 767.00
1894, 767.00
1895, 766.00
1896, 766.00
1897, 767.00
1898, 766.00
1899, 766.00
1900, 766.00
1901, 766.00
1902, 766.00
1903, 766.00
1904, 765.00
1905, 765.00
1906, 765.00
1907, 765.00
1908, 765.00
1909, 765.00
1910, 765.00
1911, 765.00
1912, 765.00
1913, 765.00
1914, 765.00
1915, 765.00
1916, 765.00
1917, 764.00
1918, 765.00
1919, 765.00
1920, 765.00
1921, 764.00
1922, 765.00
1923, 764.00
1924, 765.00
1925, 765.00
1926, 765.00
1927, 765.00
1928, 765.00
1929, 765.00
1930, 764.00
1931, 765.00
1932, 765.00
1933, 765.00
1934, 765.00
1935, 765.00
1936, 764.00
1937, 766.00
1938, 764.00
1939, 765.00
1940, 765.00
1941, 765.00
1942, 766.00
1943, 765.00
1944, 766.00
1945, 765.00
1946, 766.00
1947, 766.00
1948, 766.00
1949, 766.00
1950, 766.00
1951, 766.00
1952, 767.00
1953, 766.00
1954, 767.00
1955, 766.00
1956, 767.00
1957, 767.00
1958, 767.00
1959, 766.00
1960, 766.00
1961, 768.00
1962, 768.00
1963, 768.00
1964, 768.00
1965, 768.00
1966, 768.00
1967, 768.00
1968, 768.00
1969, 768.00
1970, 768.00
1971, 769.00
1972, 769.00
1973, 768.00
1974, 769.00
1975, 770.00
1976, 770.00
1977, 770.00
1978, 770.00
1979, 770.00
1980, 770.00
1981, 771.00
1982, 771.00
1983, 771.00
1984, 772.00
1985, 772.00
1986, 772.00
1987, 772.00
1988, 771.00
1989, 772.00
1990, 771.00
1991, 772.00
1992, 772.00
1993, 772.00
1994, 773.00
1995, 772.00
1996, 773.00
1997, 773.00
1998, 773.00
1999, 774.00
2000, 773.00
2001, 774.00
2002, 774.00
2003, 775.00
2004, 775.00
2005, 775.00
2006, 775.00
2007, 775.00
2008, 776.00
2009, 775.00
2010, 776.00
2011, 776.00
2012, 776.00
2013, 776.00
2014, 776.00
2015, 776.00
2016, 776.00
2017, 777.00
2018, 778.00
2019, 777.00
2020, 777.00
2021, 777.00
2022, 778.00
2023, 778.00
2024, 778.00
2025, 778.00
2026, 778.00
2027, 778.00
2028, 778.00
2029, 779.00
2030, 779.00
2031, 779.00
2032, 779.00
2033, 780.00
2034, 780.00
2035, 780.00
2036, 780.00
2037, 780.00
2038, 781.00
2039, 781.00
2040, 781.00
2041, 782.00
2042, 782.00
2043, 783.00
2044, 781.00
2045, 783.00
2046, 783.00
2047, 783.00
2048, 783.00
2049, 784.00
2050, 784.00
2051, 783.00
2052, 784.00
2053, 784.00
2054, 784.00
2055, 786.00
2056, 785.00
2057, 785.00
2058, 785.00
2059, 786.00
2060, 787.00
2061, 786.00
2062, 787.00
2063, 787.00
2064, 787.00
2065, 788.00
2066, 788.00
2067, 788.00
2068, 788.00
2069, 789.00
2070, 789.00
2071, 789.00
2072, 789.00
2073, 790.00
2074, 790.00
2075, 791.00
2076, 790.00
2077, 791.00
2078, 791.00
2079, 792.00
2080, 792.00
2081, 792.00
2082, 792.00
2083, 792.00
2084, 793.00
2085, 792.00
2086, 793.00
2087, 794.00
2088, 793.00
2089, 793.00
2090, 793.00
2091, 794.00
2092, 794.00
2093, 794.00
2094, 794.00
2095, 794.00
2096, 794.00
2097, 794.00
2098, 795.00
2099, 795.00
2100, 795.00
2101, 796.00
2102, 796.00
2103, 796.00
2104, 796.00
2105, 796.00
2106, 796.00
2107, 796.00
2108, 797.00
2109, 797.00
2110, 796.00
2111, 798.00
2112, 797.00
2113, 798.00
2114, 797.00
2115, 797.00
2116, 798.00
2117, 798.00
2118, 797.00
2119, 798.00
2120, 798.00
2121, 798.00
2122, 799.00
2123, 798.00
2124, 799.00
2125, 798.00
2126, 799.00
2127, 799.00
2128, 798.00
2129, 799.00
2130, 800.00
2131, 799.00
2132, 800.00
2133, 800.00
2134, 800.00
2135, 800.00
2136, 800.00
2137, 800.00
2138, 800.00
2139, 801.00
2140, 800.00
2141, 801.00
2142, 801.00
2143, 800.00
2144, 801.00
2145, 800.00
2146, 800.00
2147, 802.00
2148, 801.00
2149, 801.00
2150, 801.00
