FW version: 24
Log Version: 3.0.3

General Info:
       Command/Macro Performed,            Timestamp,             Device ID, COM Port, UART/I2C, Test Name, Host Major, Host Minor, Host Revision, Host Git Commit
            Single_measurement,  2023_07_11_11_29_00,       Insight2_F4_xxx,    USB-C,      USB,          ,          0,          1,             1,      4031237645

Show Spectrometer Status:
l0_version, f4_version, battery_perc, battery_mVolt, accelerometer_temp, accelerometer_x, accelerometer_y, accelerometer_z, compass_temp, compass_x, compass_y, compass_z, lamp_0, lamp_1, gain_0, gain_1
        17,         24,           50,          1907,               6976,           65200,            1252,           18836,            0,     65460,     65516,     18933,   2866,   2866,      1,      1

Temperature Statistic Info:
NTC AVG [°C], NTC2 AVG [°C]
      42.070,        41.774

Statistic Info:
M1:  num,      min,      max,   median,      AVG,      STD,M2:  num,      min,      max,   median,      AVG,      STD
     301,  1993.00,  2292.00,  2060.00,  2092.97,  93.8389,     401,  2825.00,  3007.00,  2913.00,  2912.38,  60.4001,

Measurements:
Wavelength, Data Amplitude
1350, 2038.00
1351, 2038.00
1352, 2036.00
1353, 2036.00
1354, 2035.00
1355, 2035.00
1356, 2034.00
1357, 2032.00
1358, 2032.00
1359, 2030.00
1360, 2030.00
1361, 2029.00
1362, 2028.00
1363, 2026.00
1364, 2026.00
1365, 2025.00
1366, 2022.00
1367, 2022.00
1368, 2020.00
1369, 2020.00
1370, 2019.00
1371, 2017.00
1372, 2016.00
1373, 2015.00
1374, 2013.00
1375, 2013.00
1376, 2011.00
1377, 2010.00
1378, 2008.00
1379, 2009.00
1380, 2006.00
1381, 2006.00
1382, 2006.00
1383, 2005.00
1384, 2003.00
1385, 2003.00
1386, 2004.00
1387, 2001.00
1388, 2000.00
1389, 2001.00
1390, 1999.00
1391, 1999.00
1392, 2000.00
1393, 1999.00
1394, 1998.00
1395, 1998.00
1396, 1997.00
1397, 1997.00
1398, 1997.00
1399, 1996.00
1400, 1996.00
1401, 1996.00
1402, 1996.00
1403, 1995.00
1404, 1995.00
1405, 1995.00
1406, 1994.00
1407, 1995.00
1408, 1994.00
1409, 1994.00
1410, 1994.00
1411, 1994.00
1412, 1994.00
1413, 1994.00
1414, 1993.00
1415, 1993.00
1416, 1993.00
1417, 1995.00
1418, 1994.00
1419, 1995.00
1420, 1994.00
1421, 1994.00
1422, 1993.00
1423, 1994.00
1424, 1995.00
1425, 1995.00
1426, 1995.00
1427, 1995.00
1428, 1995.00
1429, 1996.00
1430, 1997.00
1431, 1997.00
1432, 1997.00
1433, 1998.00
1434, 1997.00
1435, 1999.00
1436, 1999.00
1437, 2000.00
1438, 2000.00
1439, 1999.00
1440, 2001.00
1441, 2001.00
1442, 2002.00
1443, 2002.00
1444, 2003.00
1445, 2004.00
1446, 2005.00
1447, 2005.00
1448, 2005.00
1449, 2005.00
1450, 2006.00
1451, 2008.00
1452, 2007.00
1453, 2008.00
1454, 2009.00
1455, 2009.00
1456, 2011.00
1457, 2012.00
1458, 2011.00
1459, 2013.00
1460, 2015.00
1461, 2015.00
1462, 2017.00
1463, 2017.00
1464, 2017.00
1465, 2019.00
1466, 2019.00
1467, 2020.00
1468, 2022.00
1469, 2022.00
1470, 2024.00
1471, 2025.00
1472, 2025.00
1473, 2026.00
1474, 2028.00
1475, 2030.00
1476, 2029.00
1477, 2031.00
1478, 2031.00
1479, 2035.00
1480, 2034.00
1481, 2036.00
1482, 2037.00
1483, 2038.00
1484, 2039.00
1485, 2039.00
1486, 2041.00
1487, 2043.00
1488, 2044.00
1489, 2045.00
1490, 2046.00
1491, 2049.00
1492, 2049.00
1493, 2051.00
1494, 2053.00
1495, 2053.00
1496, 2054.00
1497, 2057.00
1498, 2058.00
1499, 2057.00
1500, 2060.00
1501, 2061.00
1502, 2062.00
1503, 2063.00
1504, 2064.00
1505, 2065.00
1506, 2066.00
1507, 2068.00
1508, 2070.00
1509, 2070.00
1510, 2071.00
1511, 2073.00
1512, 2073.00
1513, 2077.00
1514, 2077.00
1515, 2078.00
1516, 2080.00
1517, 2082.00
1518, 2082.00
1519, 2085.00
1520, 2086.00
1521, 2086.00
1522, 2087.00
1523, 2089.00
1524, 2091.00
1525, 2092.00
1526, 2094.00
1527, 2095.00
1528, 2097.00
1529, 2098.00
1530, 2099.00
1531, 2101.00
1532, 2103.00
1533, 2105.00
1534, 2106.00
1535, 2107.00
1536, 2109.00
1537, 2109.00
1538, 2111.00
1539, 2113.00
1540, 2115.00
1541, 2116.00
1542, 2118.00
1543, 2120.00
1544, 2120.00
1545, 2122.00
1546, 2124.00
1547, 2126.00
1548, 2126.00
1549, 2127.00
1550, 2130.00
1551, 2131.00
1552, 2133.00
1553, 2133.00
1554, 2136.00
1555, 2138.00
1556, 2141.00
1557, 2141.00
1558, 2143.00
1559, 2145.00
1560, 2145.00
1561, 2148.00
1562, 2150.00
1563, 2151.00
1564, 2152.00
1565, 2155.00
1566, 2156.00
1567, 2158.00
1568, 2160.00
1569, 2161.00
1570, 2163.00
1571, 2165.00
1572, 2166.00
1573, 2168.00
1574, 2170.00
1575, 2171.00
1576, 2173.00
1577, 2174.00
1578, 2176.00
1579, 2177.00
1580, 2178.00
1581, 2181.00
1582, 2181.00
1583, 2183.00
1584, 2184.00
1585, 2186.00
1586, 2187.00
1587, 2189.00
1588, 2190.00
1589, 2192.00
1590, 2192.00
1591, 2195.00
1592, 2196.00
1593, 2199.00
1594, 2199.00
1595, 2200.00
1596, 2202.00
1597, 2203.00
1598, 2205.00
1599, 2206.00
1600, 2209.00
1601, 2210.00
1602, 2210.00
1603, 2214.00
1604, 2215.00
1605, 2217.00
1606, 2218.00
1607, 2219.00
1608, 2221.00
1609, 2223.00
1610, 2225.00
1611, 2227.00
1612, 2228.00
1613, 2230.00
1614, 2233.00
1615, 2234.00
1616, 2234.00
1617, 2238.00
1618, 2240.00
1619, 2242.00
1620, 2243.00
1621, 2245.00
1622, 2247.00
1623, 2249.00
1624, 2251.00
1625, 2252.00
1626, 2255.00
1627, 2256.00
1628, 2259.00
1629, 2260.00
1630, 2261.00
1631, 2263.00
1632, 2265.00
1633, 2267.00
1634, 2268.00
1635, 2271.00
1636, 2272.00
1637, 2273.00
1638, 2275.00
1639, 2277.00
1640, 2278.00
1641, 2279.00
1642, 2281.00
1643, 2282.00
1644, 2283.00
1645, 2286.00
1646, 2287.00
1647, 2288.00
1648, 2290.00
1649, 2290.00
1650, 2292.00

1750, 3007.00
1751, 3005.00
1752, 3006.00
1753, 3006.00
1754, 3006.00
1755, 3005.00
1756, 3005.00
1757, 3004.00
1758, 3007.00
1759, 3004.00
1760, 3007.00
1761, 3005.00
1762, 3005.00
1763, 3005.00
1764, 3006.00
1765, 3004.00
1766, 3007.00
1767, 3003.00
1768, 3004.00
1769, 3002.00
1770, 3002.00
1771, 3001.00
1772, 3000.00
1773, 3002.00
1774, 3002.00
1775, 3000.00
1776, 3000.00
1777, 3001.00
1778, 2999.00
1779, 2997.00
1780, 2997.00
1781, 2999.00
1782, 2996.00
1783, 2996.00
1784, 2995.00
1785, 2996.00
1786, 2996.00
1787, 2993.00
1788, 2994.00
1789, 2991.00
1790, 2993.00
1791, 2989.00
1792, 2989.00
1793, 2990.00
1794, 2988.00
1795, 2988.00
1796, 2989.00
1797, 2985.00
1798, 2987.00
1799, 2987.00
1800, 2987.00
1801, 2988.00
1802, 2986.00
1803, 2988.00
1804, 2987.00
1805, 2983.00
1806, 2983.00
1807, 2983.00
1808, 2981.00
1809, 2983.00
1810, 2983.00
1811, 2983.00
1812, 2981.00
1813, 2984.00
1814, 2981.00
1815, 2982.00
1816, 2979.00
1817, 2977.00
1818, 2975.00
1819, 2977.00
1820, 2977.00
1821, 2977.00
1822, 2973.00
1823, 2974.00
1824, 2971.00
1825, 2971.00
1826, 2970.00
1827, 2968.00
1828, 2968.00
1829, 2965.00
1830, 2964.00
1831, 2963.00
1832, 2958.00
1833, 2958.00
1834, 2955.00
1835, 2954.00
1836, 2950.00
1837, 2949.00
1838, 2948.00
1839, 2944.00
1840, 2943.00
1841, 2941.00
1842, 2939.00
1843, 2936.00
1844, 2933.00
1845, 2930.00
1846, 2928.00
1847, 2927.00
1848, 2921.00
1849, 2919.00
1850, 2917.00
1851, 2912.00
1852, 2913.00
1853, 2909.00
1854, 2905.00
1855, 2900.00
1856, 2899.00
1857, 2897.00
1858, 2891.00
1859, 2889.00
1860, 2888.00
1861, 2885.00
1862, 2880.00
1863, 2881.00
1864, 2877.00
1865, 2876.00
1866, 2872.00
1867, 2868.00
1868, 2868.00
1869, 2865.00
1870, 2866.00
1871, 2862.00
1872, 2860.00
1873, 2860.00
1874, 2859.00
1875, 2855.00
1876, 2855.00
1877, 2853.00
1878, 2852.00
1879, 2849.00
1880, 2850.00
1881, 2848.00
1882, 2845.00
1883, 2846.00
1884, 2844.00
1885, 2843.00
1886, 2843.00
1887, 2842.00
1888, 2840.00
1889, 2840.00
1890, 2839.00
1891, 2838.00
1892, 2838.00
1893, 2835.00
1894, 2836.00
1895, 2837.00
1896, 2835.00
1897, 2835.00
1898, 2836.00
1899, 2833.00
1900, 2834.00
1901, 2833.00
1902, 2833.00
1903, 2834.00
1904, 2832.00
1905, 2832.00
1906, 2829.00
1907, 2831.00
1908, 2830.00
1909, 2827.00
1910, 2830.00
1911, 2830.00
1912, 2831.00
1913, 2830.00
1914, 2829.00
1915, 2829.00
1916, 2827.00
1917, 2828.00
1918, 2829.00
1919, 2828.00
1920, 2827.00
1921, 2827.00
1922, 2826.00
1923, 2828.00
1924, 2828.00
1925, 2828.00
1926, 2827.00
1927, 2827.00
1928, 2827.00
1929, 2829.00
1930, 2829.00
1931, 2828.00
1932, 2831.00
1933, 2825.00
1934, 2829.00
1935, 2829.00
1936, 2827.00
1937, 2829.00
1938, 2829.00
1939, 2829.00
1940, 2828.00
1941, 2828.00
1942, 2833.00
1943, 2829.00
1944, 2832.00
1945, 2833.00
1946, 2832.00
1947, 2832.00
1948, 2835.00
1949, 2833.00
1950, 2832.00
1951, 2833.00
1952, 2835.00
1953, 2835.00
1954, 2836.00
1955, 2836.00
1956, 2837.00
1957, 2838.00
1958, 2837.00
1959, 2838.00
1960, 2839.00
1961, 2840.00
1962, 2839.00
1963, 2842.00
1964, 2841.00
1965, 2841.00
1966, 2843.00
1967, 2845.00
1968, 2846.00
1969, 2846.00
1970, 2844.00
1971, 2847.00
1972, 2847.00
1973, 2849.00
1974, 2851.00
1975, 2850.00
1976, 2851.00
1977, 2850.00
1978, 2854.00
1979, 2852.00
1980, 2857.00
1981, 2853.00
1982, 2855.00
1983, 2857.00
1984, 2857.00
1985, 2858.00
1986, 2857.00
1987, 2859.00
1988, 2860.00
1989, 2859.00
1990, 2861.00
1991, 2864.00
1992, 2863.00
1993, 2865.00
1994, 2865.00
1995, 2864.00
1996, 2865.00
1997, 2866.00
1998, 2866.00
1999, 2869.00
2000, 2870.00
2001, 2869.00
2002, 2870.00
2003, 2871.00
2004, 2873.00
2005, 2874.00
2006, 2875.00
2007, 2875.00
2008, 2876.00
2009, 2878.00
2010, 2876.00
2011, 2875.00
2012, 2877.00
2013, 2877.00
2014, 2880.00
2015, 2882.00
2016, 2878.00
2017, 2881.00
2018, 2882.00
2019, 2884.00
2020, 2884.00
2021, 2885.00
2022, 2885.00
2023, 2886.00
2024, 2888.00
2025, 2889.00
2026, 2890.00
2027, 2890.00
2028, 2890.00
2029, 2890.00
2030, 2892.00
2031, 2892.00
2032, 2893.00
2033, 2893.00
2034, 2895.00
2035, 2895.00
2036, 2898.00
2037, 2896.00
2038, 2899.00
2039, 2901.00
2040, 2902.00
2041, 2901.00
2042, 2903.00
2043, 2902.00
2044, 2904.00
2045, 2905.00
2046, 2906.00
2047, 2907.00
2048, 2909.00
2049, 2908.00
2050, 2911.00
2051, 2913.00
2052, 2914.00
2053, 2916.00
2054, 2916.00
2055, 2916.00
2056, 2917.00
2057, 2918.00
2058, 2918.00
2059, 2921.00
2060, 2920.00
2061, 2922.00
2062, 2923.00
2063, 2925.00
2064, 2926.00
2065, 2928.00
2066, 2929.00
2067, 2928.00
2068, 2932.00
2069, 2933.00
2070, 2934.00
2071, 2935.00
2072, 2937.00
2073, 2934.00
2074, 2937.00
2075, 2939.00
2076, 2938.00
2077, 2939.00
2078, 2938.00
2079, 2941.00
2080, 2941.00
2081, 2943.00
2082, 2945.00
2083, 2944.00
2084, 2945.00
2085, 2947.00
2086, 2949.00
2087, 2946.00
2088, 2950.00
2089, 2948.00
2090, 2949.00
2091, 2951.00
2092, 2951.00
2093, 2952.00
2094, 2953.00
2095, 2956.00
2096, 2953.00
2097, 2954.00
2098, 2957.00
2099, 2956.00
2100, 2957.00
2101, 2957.00
2102, 2959.00
2103, 2960.00
2104, 2962.00
2105, 2959.00
2106, 2960.00
2107, 2960.00
2108, 2961.00
2109, 2962.00
2110, 2962.00
2111, 2963.00
2112, 2964.00
2113, 2963.00
2114, 2965.00
2115, 2966.00
2116, 2965.00
2117, 2965.00
2118, 2967.00
2119, 2965.00
2120, 2964.00
2121, 2964.00
2122, 2967.00
2123, 2966.00
2124, 2968.00
2125, 2968.00
2126, 2969.00
2127, 2969.00
2128, 2969.00
2129, 2969.00
2130, 2970.00
2131, 2970.00
2132, 2970.00
2133, 2972.00
2134, 2973.00
2135, 2972.00
2136, 2973.00
2137, 2971.00
2138, 2974.00
2139, 2973.00
2140, 2973.00
2141, 2973.00
2142, 2975.00
2143, 2976.00
2144, 2976.00
2145, 2977.00
2146, 2974.00
2147, 2977.00
2148, 2974.00
2149, 2980.00
2150, 2976.00
