FW version: 24
Log Version: 3.0.3

General Info:
       Command/Macro Performed,            Timestamp,             Device ID, COM Port, UART/I2C, Test Name, Host Major, Host Minor, Host Revision, Host Git Commit
            Single_measurement,  2023_07_11_11_29_09,       Insight2_F4_xxx,    USB-C,      USB,          ,          0,          1,             1,      4031237645

Show Spectrometer Status:
l0_version, f4_version, battery_perc, battery_mVolt, accelerometer_temp, accelerometer_x, accelerometer_y, accelerometer_z, compass_temp, compass_x, compass_y, compass_z, lamp_0, lamp_1, gain_0, gain_1
        17,         24,           50,          1909,               6976,           65204,            1272,           18680,            0,     65469,     65535,     18680,   2866,   2866,      1,      1

Temperature Statistic Info:
NTC AVG [°C], NTC2 AVG [°C]
      42.131,        41.803

Statistic Info:
M1:  num,      min,      max,   median,      AVG,      STD,M2:  num,      min,      max,   median,      AVG,      STD
     301,  1991.00,  2292.00,  2058.00,  2091.44,  93.6840,     401,  2824.00,  3007.00,  2911.00,  2911.01,  60.2596,

Measurements:
Wavelength, Data Amplitude
1350, 2037.00
1351, 2036.00
1352, 2035.00
1353, 2035.00
1354, 2033.00
1355, 2033.00
1356, 2032.00
1357, 2031.00
1358, 2031.00
1359, 2030.00
1360, 2029.00
1361, 2027.00
1362, 2026.00
1363, 2025.00
1364, 2023.00
1365, 2023.00
1366, 2022.00
1367, 2022.00
1368, 2020.00
1369, 2018.00
1370, 2018.00
1371, 2016.00
1372, 2014.00
1373, 2013.00
1374, 2011.00
1375, 2011.00
1376, 2010.00
1377, 2008.00
1378, 2007.00
1379, 2007.00
1380, 2006.00
1381, 2004.00
1382, 2004.00
1383, 2004.00
1384, 2002.00
1385, 2002.00
1386, 2001.00
1387, 2000.00
1388, 2000.00
1389, 1999.00
1390, 1999.00
1391, 1998.00
1392, 1997.00
1393, 1997.00
1394, 1996.00
1395, 1995.00
1396, 1995.00
1397, 1996.00
1398, 1995.00
1399, 1995.00
1400, 1994.00
1401, 1994.00
1402, 1993.00
1403, 1994.00
1404, 1993.00
1405, 1994.00
1406, 1993.00
1407, 1992.00
1408, 1993.00
1409, 1993.00
1410, 1993.00
1411, 1993.00
1412, 1992.00
1413, 1993.00
1414, 1993.00
1415, 1993.00
1416, 1993.00
1417, 1993.00
1418, 1991.00
1419, 1992.00
1420, 1993.00
1421, 1992.00
1422, 1992.00
1423, 1993.00
1424, 1994.00
1425, 1995.00
1426, 1993.00
1427, 1994.00
1428, 1995.00
1429, 1995.00
1430, 1995.00
1431, 1994.00
1432, 1995.00
1433, 1995.00
1434, 1995.00
1435, 1997.00
1436, 1998.00
1437, 1998.00
1438, 1998.00
1439, 1999.00
1440, 1999.00
1441, 2001.00
1442, 2001.00
1443, 2001.00
1444, 2002.00
1445, 2002.00
1446, 2003.00
1447, 2003.00
1448, 2003.00
1449, 2004.00
1450, 2005.00
1451, 2006.00
1452, 2007.00
1453, 2008.00
1454, 2008.00
1455, 2009.00
1456, 2009.00
1457, 2010.00
1458, 2011.00
1459, 2011.00
1460, 2014.00
1461, 2014.00
1462, 2014.00
1463, 2015.00
1464, 2016.00
1465, 2017.00
1466, 2018.00
1467, 2019.00
1468, 2019.00
1469, 2021.00
1470, 2022.00
1471, 2023.00
1472, 2025.00
1473, 2025.00
1474, 2026.00
1475, 2027.00
1476, 2029.00
1477, 2030.00
1478, 2030.00
1479, 2031.00
1480, 2034.00
1481, 2034.00
1482, 2035.00
1483, 2036.00
1484, 2039.00
1485, 2039.00
1486, 2041.00
1487, 2041.00
1488, 2042.00
1489, 2044.00
1490, 2046.00
1491, 2045.00
1492, 2047.00
1493, 2049.00
1494, 2051.00
1495, 2052.00
1496, 2053.00
1497, 2054.00
1498, 2056.00
1499, 2056.00
1500, 2058.00
1501, 2060.00
1502, 2060.00
1503, 2061.00
1504, 2062.00
1505, 2064.00
1506, 2064.00
1507, 2067.00
1508, 2069.00
1509, 2069.00
1510, 2071.00
1511, 2072.00
1512, 2073.00
1513, 2074.00
1514, 2075.00
1515, 2077.00
1516, 2079.00
1517, 2080.00
1518, 2082.00
1519, 2083.00
1520, 2084.00
1521, 2086.00
1522, 2087.00
1523, 2089.00
1524, 2089.00
1525, 2091.00
1526, 2093.00
1527, 2093.00
1528, 2096.00
1529, 2097.00
1530, 2099.00
1531, 2099.00
1532, 2101.00
1533, 2102.00
1534, 2104.00
1535, 2105.00
1536, 2106.00
1537, 2109.00
1538, 2110.00
1539, 2112.00
1540, 2113.00
1541, 2115.00
1542, 2116.00
1543, 2117.00
1544, 2119.00
1545, 2121.00
1546, 2122.00
1547, 2124.00
1548, 2124.00
1549, 2127.00
1550, 2128.00
1551, 2130.00
1552, 2132.00
1553, 2133.00
1554, 2135.00
1555, 2135.00
1556, 2139.00
1557, 2140.00
1558, 2142.00
1559, 2144.00
1560, 2144.00
1561, 2148.00
1562, 2148.00
1563, 2149.00
1564, 2151.00
1565, 2153.00
1566, 2154.00
1567, 2157.00
1568, 2158.00
1569, 2159.00
1570, 2161.00
1571, 2164.00
1572, 2165.00
1573, 2167.00
1574, 2168.00
1575, 2169.00
1576, 2171.00
1577, 2172.00
1578, 2174.00
1579, 2174.00
1580, 2177.00
1581, 2179.00
1582, 2180.00
1583, 2181.00
1584, 2183.00
1585, 2184.00
1586, 2186.00
1587, 2188.00
1588, 2189.00
1589, 2189.00
1590, 2191.00
1591, 2193.00
1592, 2194.00
1593, 2195.00
1594, 2197.00
1595, 2199.00
1596, 2200.00
1597, 2201.00
1598, 2203.00
1599, 2203.00
1600, 2207.00
1601, 2208.00
1602, 2210.00
1603, 2210.00
1604, 2212.00
1605, 2215.00
1606, 2216.00
1607, 2217.00
1608, 2219.00
1609, 2222.00
1610, 2222.00
1611, 2225.00
1612, 2226.00
1613, 2229.00
1614, 2230.00
1615, 2233.00
1616, 2235.00
1617, 2235.00
1618, 2238.00
1619, 2241.00
1620, 2243.00
1621, 2244.00
1622, 2245.00
1623, 2247.00
1624, 2249.00
1625, 2251.00
1626, 2253.00
1627, 2254.00
1628, 2256.00
1629, 2257.00
1630, 2261.00
1631, 2261.00
1632, 2263.00
1633, 2264.00
1634, 2266.00
1635, 2268.00
1636, 2269.00
1637, 2271.00
1638, 2272.00
1639, 2275.00
1640, 2276.00
1641, 2278.00
1642, 2278.00
1643, 2279.00
1644, 2282.00
1645, 2283.00
1646, 2285.00
1647, 2287.00
1648, 2289.00
1649, 2290.00
1650, 2292.00

1750, 3004.00
1751, 3005.00
1752, 3004.00
1753, 3007.00
1754, 3006.00
1755, 3005.00
1756, 3003.00
1757, 3004.00
1758, 3004.00
1759, 3004.00
1760, 3005.00
1761, 3003.00
1762, 3004.00
1763, 3005.00
1764, 3004.00
1765, 3005.00
1766, 3003.00
1767, 3002.00
1768, 3003.00
1769, 3001.00
1770, 3000.00
1771, 3001.00
1772, 3003.00
1773, 3002.00
1774, 2999.00
1775, 3001.00
1776, 2999.00
1777, 2997.00
1778, 2997.00
1779, 2995.00
1780, 2998.00
1781, 2994.00
1782, 2993.00
1783, 2995.00
1784, 2994.00
1785, 2993.00
1786, 2993.00
1787, 2991.00
1788, 2992.00
1789, 2993.00
1790, 2991.00
1791, 2988.00
1792, 2990.00
1793, 2990.00
1794, 2985.00
1795, 2986.00
1796, 2986.00
1797, 2987.00
1798, 2987.00
1799, 2986.00
1800, 2986.00
1801, 2985.00
1802, 2987.00
1803, 2984.00
1804, 2984.00
1805, 2983.00
1806, 2982.00
1807, 2983.00
1808, 2982.00
1809, 2983.00
1810, 2981.00
1811, 2983.00
1812, 2979.00
1813, 2979.00
1814, 2980.00
1815, 2977.00
1816, 2978.00
1817, 2974.00
1818, 2974.00
1819, 2975.00
1820, 2974.00
1821, 2973.00
1822, 2973.00
1823, 2971.00
1824, 2970.00
1825, 2969.00
1826, 2967.00
1827, 2968.00
1828, 2966.00
1829, 2963.00
1830, 2962.00
1831, 2961.00
1832, 2957.00
1833, 2955.00
1834, 2953.00
1835, 2952.00
1836, 2951.00
1837, 2948.00
1838, 2945.00
1839, 2943.00
1840, 2943.00
1841, 2938.00
1842, 2936.00
1843, 2932.00
1844, 2930.00
1845, 2930.00
1846, 2926.00
1847, 2925.00
1848, 2921.00
1849, 2917.00
1850, 2915.00
1851, 2911.00
1852, 2909.00
1853, 2906.00
1854, 2903.00
1855, 2899.00
1856, 2897.00
1857, 2894.00
1858, 2891.00
1859, 2889.00
1860, 2886.00
1861, 2885.00
1862, 2881.00
1863, 2878.00
1864, 2876.00
1865, 2873.00
1866, 2873.00
1867, 2869.00
1868, 2868.00
1869, 2864.00
1870, 2862.00
1871, 2863.00
1872, 2859.00
1873, 2857.00
1874, 2856.00
1875, 2856.00
1876, 2852.00
1877, 2850.00
1878, 2849.00
1879, 2849.00
1880, 2847.00
1881, 2845.00
1882, 2847.00
1883, 2843.00
1884, 2844.00
1885, 2842.00
1886, 2840.00
1887, 2840.00
1888, 2842.00
1889, 2840.00
1890, 2839.00
1891, 2839.00
1892, 2839.00
1893, 2838.00
1894, 2835.00
1895, 2835.00
1896, 2833.00
1897, 2835.00
1898, 2835.00
1899, 2833.00
1900, 2832.00
1901, 2830.00
1902, 2831.00
1903, 2832.00
1904, 2829.00
1905, 2828.00
1906, 2830.00
1907, 2830.00
1908, 2832.00
1909, 2831.00
1910, 2830.00
1911, 2830.00
1912, 2829.00
1913, 2828.00
1914, 2829.00
1915, 2828.00
1916, 2828.00
1917, 2829.00
1918, 2829.00
1919, 2828.00
1920, 2826.00
1921, 2826.00
1922, 2825.00
1923, 2827.00
1924, 2827.00
1925, 2825.00
1926, 2826.00
1927, 2824.00
1928, 2828.00
1929, 2827.00
1930, 2826.00
1931, 2829.00
1932, 2826.00
1933, 2827.00
1934, 2828.00
1935, 2827.00
1936, 2829.00
1937, 2829.00
1938, 2831.00
1939, 2830.00
1940, 2828.00
1941, 2828.00
1942, 2828.00
1943, 2831.00
1944, 2830.00
1945, 2830.00
1946, 2830.00
1947, 2830.00
1948, 2832.00
1949, 2831.00
1950, 2832.00
1951, 2833.00
1952, 2833.00
1953, 2834.00
1954, 2833.00
1955, 2835.00
1956, 2836.00
1957, 2835.00
1958, 2836.00
1959, 2838.00
1960, 2838.00
1961, 2838.00
1962, 2837.00
1963, 2839.00
1964, 2841.00
1965, 2841.00
1966, 2841.00
1967, 2841.00
1968, 2842.00
1969, 2843.00
1970, 2844.00
1971, 2847.00
1972, 2846.00
1973, 2849.00
1974, 2845.00
1975, 2848.00
1976, 2850.00
1977, 2850.00
1978, 2850.00
1979, 2851.00
1980, 2851.00
1981, 2852.00
1982, 2854.00
1983, 2855.00
1984, 2855.00
1985, 2857.00
1986, 2858.00
1987, 2855.00
1988, 2859.00
1989, 2857.00
1990, 2860.00
1991, 2862.00
1992, 2860.00
1993, 2861.00
1994, 2865.00
1995, 2864.00
1996, 2865.00
1997, 2867.00
1998, 2865.00
1999, 2865.00
2000, 2868.00
2001, 2869.00
2002, 2868.00
2003, 2869.00
2004, 2871.00
2005, 2873.00
2006, 2872.00
2007, 2875.00
2008, 2874.00
2009, 2874.00
2010, 2874.00
2011, 2878.00
2012, 2876.00
2013, 2879.00
2014, 2877.00
2015, 2878.00
2016, 2881.00
2017, 2879.00
2018, 2879.00
2019, 2883.00
2020, 2881.00
2021, 2883.00
2022, 2884.00
2023, 2887.00
2024, 2885.00
2025, 2887.00
2026, 2888.00
2027, 2888.00
2028, 2890.00
2029, 2889.00
2030, 2890.00
2031, 2891.00
2032, 2891.00
2033, 2894.00
2034, 2894.00
2035, 2896.00
2036, 2897.00
2037, 2897.00
2038, 2895.00
2039, 2896.00
2040, 2899.00
2041, 2903.00
2042, 2902.00
2043, 2904.00
2044, 2902.00
2045, 2904.00
2046, 2903.00
2047, 2906.00
2048, 2908.00
2049, 2910.00
2050, 2909.00
2051, 2910.00
2052, 2913.00
2053, 2913.00
2054, 2914.00
2055, 2917.00
2056, 2916.00
2057, 2916.00
2058, 2918.00
2059, 2919.00
2060, 2920.00
2061, 2921.00
2062, 2923.00
2063, 2923.00
2064, 2925.00
2065, 2926.00
2066, 2926.00
2067, 2929.00
2068, 2928.00
2069, 2930.00
2070, 2932.00
2071, 2932.00
2072, 2934.00
2073, 2935.00
2074, 2935.00
2075, 2935.00
2076, 2935.00
2077, 2938.00
2078, 2939.00
2079, 2941.00
2080, 2942.00
2081, 2941.00
2082, 2941.00
2083, 2943.00
2084, 2943.00
2085, 2944.00
2086, 2946.00
2087, 2947.00
2088, 2946.00
2089, 2947.00
2090, 2950.00
2091, 2949.00
2092, 2951.00
2093, 2953.00
2094, 2952.00
2095, 2953.00
2096, 2955.00
2097, 2954.00
2098, 2956.00
2099, 2954.00
2100, 2955.00
2101, 2956.00
2102, 2957.00
2103, 2959.00
2104, 2958.00
2105, 2959.00
2106, 2958.00
2107, 2959.00
2108, 2959.00
2109, 2958.00
2110, 2960.00
2111, 2962.00
2112, 2962.00
2113, 2963.00
2114, 2962.00
2115, 2961.00
2116, 2962.00
2117, 2964.00
2118, 2963.00
2119, 2965.00
2120, 2964.00
2121, 2963.00
2122, 2967.00
2123, 2964.00
2124, 2965.00
2125, 2966.00
2126, 2968.00
2127, 2966.00
2128, 2969.00
2129, 2967.00
2130, 2968.00
2131, 2969.00
2132, 2970.00
2133, 2968.00
2134, 2971.00
2135, 2972.00
2136, 2971.00
2137, 2971.00
2138, 2971.00
2139, 2972.00
2140, 2973.00
2141, 2974.00
2142, 2972.00
2143, 2971.00
2144, 2974.00
2145, 2973.00
2146, 2973.00
2147, 2975.00
2148, 2975.00
2149, 2974.00
2150, 2976.00
