FW version: 24
Log Version: 3.0.3

General Info:
       Command/Macro Performed,            Timestamp,             Device ID, COM Port, UART/I2C, Test Name, Host Major, Host Minor, Host Revision, Host Git Commit
            Single_measurement,  2023_07_11_11_29_28,       Insight2_F4_xxx,    USB-C,      USB,          ,          0,          1,             1,      4031237645

Show Spectrometer Status:
l0_version, f4_version, battery_perc, battery_mVolt, accelerometer_temp, accelerometer_x, accelerometer_y, accelerometer_z, compass_temp, compass_x, compass_y, compass_z, lamp_0, lamp_1, gain_0, gain_1
        17,         24,           50,          1910,               7008,           65236,            1276,           18808,            0,     65527,     65535,     18812,   3276,   3276,      1,      1

Temperature Statistic Info:
NTC AVG [°C], NTC2 AVG [°C]
      42.313,        41.950

Statistic Info:
M1:  num,      min,      max,   median,      AVG,      STD,M2:  num,      min,      max,   median,      AVG,      STD
     301,  2557.00,  2926.00,  2639.00,  2680.77, 115.6054,     401,  3504.00,  3729.00,  3609.00,  3608.42,  74.1639,

Measurements:
Wavelength, Data Amplitude
1350, 2615.00
1351, 2616.00
1352, 2614.00
1353, 2615.00
1354, 2612.00
1355, 2611.00
1356, 2613.00
1357, 2609.00
1358, 2609.00
1359, 2607.00
1360, 2604.00
1361, 2605.00
1362, 2604.00
1363, 2601.00
1364, 2600.00
1365, 2599.00
1366, 2596.00
1367, 2596.00
1368, 2593.00
1369, 2592.00
1370, 2591.00
1371, 2590.00
1372, 2587.00
1373, 2585.00
1374, 2585.00
1375, 2582.00
1376, 2580.00
1377, 2580.00
1378, 2577.00
1379, 2577.00
1380, 2576.00
1381, 2574.00
1382, 2573.00
1383, 2571.00
1384, 2572.00
1385, 2570.00
1386, 2569.00
1387, 2568.00
1388, 2567.00
1389, 2567.00
1390, 2566.00
1391, 2565.00
1392, 2565.00
1393, 2565.00
1394, 2563.00
1395, 2564.00
1396, 2563.00
1397, 2563.00
1398, 2562.00
1399, 2561.00
1400, 2562.00
1401, 2562.00
1402, 2560.00
1403, 2560.00
1404, 2560.00
1405, 2559.00
1406, 2560.00
1407, 2559.00
1408, 2559.00
1409, 2559.00
1410, 2559.00
1411, 2560.00
1412, 2559.00
1413, 2559.00
1414, 2557.00
1415, 2558.00
1416, 2558.00
1417, 2557.00
1418, 2558.00
1419, 2559.00
1420, 2559.00
1421, 2558.00
1422, 2559.00
1423, 2558.00
1424, 2560.00
1425, 2559.00
1426, 2560.00
1427, 2559.00
1428, 2561.00
1429, 2560.00
1430, 2562.00
1431, 2561.00
1432, 2562.00
1433, 2562.00
1434, 2563.00
1435, 2563.00
1436, 2563.00
1437, 2565.00
1438, 2565.00
1439, 2565.00
1440, 2567.00
1441, 2567.00
1442, 2568.00
1443, 2569.00
1444, 2569.00
1445, 2570.00
1446, 2571.00
1447, 2571.00
1448, 2572.00
1449, 2573.00
1450, 2575.00
1451, 2575.00
1452, 2574.00
1453, 2577.00
1454, 2577.00
1455, 2577.00
1456, 2579.00
1457, 2580.00
1458, 2581.00
1459, 2583.00
1460, 2583.00
1461, 2585.00
1462, 2585.00
1463, 2587.00
1464, 2587.00
1465, 2588.00
1466, 2589.00
1467, 2590.00
1468, 2592.00
1469, 2594.00
1470, 2595.00
1471, 2596.00
1472, 2598.00
1473, 2598.00
1474, 2600.00
1475, 2601.00
1476, 2603.00
1477, 2604.00
1478, 2606.00
1479, 2606.00
1480, 2608.00
1481, 2610.00
1482, 2611.00
1483, 2612.00
1484, 2614.00
1485, 2616.00
1486, 2618.00
1487, 2620.00
1488, 2620.00
1489, 2622.00
1490, 2624.00
1491, 2624.00
1492, 2627.00
1493, 2628.00
1494, 2630.00
1495, 2631.00
1496, 2633.00
1497, 2633.00
1498, 2634.00
1499, 2637.00
1500, 2639.00
1501, 2640.00
1502, 2642.00
1503, 2642.00
1504, 2645.00
1505, 2646.00
1506, 2649.00
1507, 2650.00
1508, 2652.00
1509, 2652.00
1510, 2654.00
1511, 2656.00
1512, 2656.00
1513, 2660.00
1514, 2660.00
1515, 2662.00
1516, 2665.00
1517, 2666.00
1518, 2668.00
1519, 2669.00
1520, 2671.00
1521, 2673.00
1522, 2674.00
1523, 2677.00
1524, 2678.00
1525, 2679.00
1526, 2681.00
1527, 2683.00
1528, 2686.00
1529, 2687.00
1530, 2689.00
1531, 2690.00
1532, 2692.00
1533, 2694.00
1534, 2695.00
1535, 2697.00
1536, 2699.00
1537, 2700.00
1538, 2703.00
1539, 2706.00
1540, 2707.00
1541, 2708.00
1542, 2710.00
1543, 2713.00
1544, 2714.00
1545, 2717.00
1546, 2718.00
1547, 2720.00
1548, 2721.00
1549, 2724.00
1550, 2726.00
1551, 2728.00
1552, 2731.00
1553, 2733.00
1554, 2733.00
1555, 2736.00
1556, 2737.00
1557, 2740.00
1558, 2741.00
1559, 2743.00
1560, 2747.00
1561, 2748.00
1562, 2749.00
1563, 2752.00
1564, 2756.00
1565, 2757.00
1566, 2758.00
1567, 2761.00
1568, 2763.00
1569, 2765.00
1570, 2767.00
1571, 2770.00
1572, 2771.00
1573, 2772.00
1574, 2776.00
1575, 2777.00
1576, 2779.00
1577, 2781.00
1578, 2782.00
1579, 2785.00
1580, 2787.00
1581, 2788.00
1582, 2789.00
1583, 2792.00
1584, 2793.00
1585, 2795.00
1586, 2797.00
1587, 2799.00
1588, 2799.00
1589, 2804.00
1590, 2803.00
1591, 2807.00
1592, 2808.00
1593, 2810.00
1594, 2811.00
1595, 2814.00
1596, 2815.00
1597, 2818.00
1598, 2817.00
1599, 2821.00
1600, 2822.00
1601, 2824.00
1602, 2827.00
1603, 2829.00
1604, 2831.00
1605, 2833.00
1606, 2834.00
1607, 2837.00
1608, 2839.00
1609, 2840.00
1610, 2843.00
1611, 2846.00
1612, 2848.00
1613, 2850.00
1614, 2852.00
1615, 2855.00
1616, 2858.00
1617, 2858.00
1618, 2861.00
1619, 2864.00
1620, 2867.00
1621, 2870.00
1622, 2871.00
1623, 2874.00
1624, 2876.00
1625, 2878.00
1626, 2881.00
1627, 2883.00
1628, 2885.00
1629, 2887.00
1630, 2889.00
1631, 2891.00
1632, 2894.00
1633, 2894.00
1634, 2897.00
1635, 2898.00
1636, 2901.00
1637, 2903.00
1638, 2905.00
1639, 2907.00
1640, 2909.00
1641, 2910.00
1642, 2912.00
1643, 2913.00
1644, 2916.00
1645, 2917.00
1646, 2919.00
1647, 2920.00
1648, 2922.00
1649, 2925.00
1650, 2926.00

1750, 3725.00
1751, 3729.00
1752, 3729.00
1753, 3727.00
1754, 3725.00
1755, 3725.00
1756, 3725.00
1757, 3724.00
1758, 3726.00
1759, 3726.00
1760, 3725.00
1761, 3726.00
1762, 3724.00
1763, 3724.00
1764, 3724.00
1765, 3725.00
1766, 3724.00
1767, 3723.00
1768, 3724.00
1769, 3723.00
1770, 3721.00
1771, 3720.00
1772, 3721.00
1773, 3720.00
1774, 3720.00
1775, 3720.00
1776, 3719.00
1777, 3717.00
1778, 3718.00
1779, 3717.00
1780, 3718.00
1781, 3715.00
1782, 3714.00
1783, 3713.00
1784, 3714.00
1785, 3712.00
1786, 3712.00
1787, 3715.00
1788, 3710.00
1789, 3709.00
1790, 3708.00
1791, 3705.00
1792, 3708.00
1793, 3708.00
1794, 3705.00
1795, 3705.00
1796, 3703.00
1797, 3703.00
1798, 3705.00
1799, 3702.00
1800, 3703.00
1801, 3701.00
1802, 3700.00
1803, 3700.00
1804, 3699.00
1805, 3700.00
1806, 3697.00
1807, 3697.00
1808, 3696.00
1809, 3698.00
1810, 3696.00
1811, 3697.00
1812, 3693.00
1813, 3693.00
1814, 3694.00
1815, 3694.00
1816, 3692.00
1817, 3689.00
1818, 3689.00
1819, 3690.00
1820, 3687.00
1821, 3689.00
1822, 3686.00
1823, 3683.00
1824, 3681.00
1825, 3681.00
1826, 3678.00
1827, 3678.00
1828, 3675.00
1829, 3673.00
1830, 3673.00
1831, 3669.00
1832, 3667.00
1833, 3664.00
1834, 3663.00
1835, 3661.00
1836, 3658.00
1837, 3655.00
1838, 3654.00
1839, 3649.00
1840, 3648.00
1841, 3644.00
1842, 3638.00
1843, 3636.00
1844, 3634.00
1845, 3631.00
1846, 3627.00
1847, 3624.00
1848, 3620.00
1849, 3617.00
1850, 3614.00
1851, 3610.00
1852, 3608.00
1853, 3604.00
1854, 3599.00
1855, 3595.00
1856, 3594.00
1857, 3590.00
1858, 3585.00
1859, 3583.00
1860, 3577.00
1861, 3575.00
1862, 3571.00
1863, 3568.00
1864, 3565.00
1865, 3564.00
1866, 3559.00
1867, 3559.00
1868, 3555.00
1869, 3552.00
1870, 3549.00
1871, 3548.00
1872, 3545.00
1873, 3543.00
1874, 3542.00
1875, 3539.00
1876, 3538.00
1877, 3535.00
1878, 3534.00
1879, 3532.00
1880, 3531.00
1881, 3529.00
1882, 3527.00
1883, 3527.00
1884, 3528.00
1885, 3524.00
1886, 3524.00
1887, 3522.00
1888, 3523.00
1889, 3520.00
1890, 3522.00
1891, 3518.00
1892, 3517.00
1893, 3516.00
1894, 3516.00
1895, 3515.00
1896, 3516.00
1897, 3514.00
1898, 3512.00
1899, 3513.00
1900, 3511.00
1901, 3513.00
1902, 3511.00
1903, 3510.00
1904, 3510.00
1905, 3510.00
1906, 3511.00
1907, 3509.00
1908, 3507.00
1909, 3506.00
1910, 3507.00
1911, 3506.00
1912, 3507.00
1913, 3507.00
1914, 3506.00
1915, 3505.00
1916, 3504.00
1917, 3505.00
1918, 3507.00
1919, 3506.00
1920, 3506.00
1921, 3505.00
1922, 3506.00
1923, 3505.00
1924, 3506.00
1925, 3505.00
1926, 3506.00
1927, 3505.00
1928, 3506.00
1929, 3505.00
1930, 3505.00
1931, 3505.00
1932, 3505.00
1933, 3506.00
1934, 3505.00
1935, 3507.00
1936, 3506.00
1937, 3507.00
1938, 3507.00
1939, 3506.00
1940, 3510.00
1941, 3510.00
1942, 3509.00
1943, 3510.00
1944, 3509.00
1945, 3510.00
1946, 3511.00
1947, 3511.00
1948, 3511.00
1949, 3511.00
1950, 3511.00
1951, 3512.00
1952, 3513.00
1953, 3515.00
1954, 3513.00
1955, 3516.00
1956, 3516.00
1957, 3517.00
1958, 3519.00
1959, 3518.00
1960, 3517.00
1961, 3520.00
1962, 3519.00
1963, 3522.00
1964, 3520.00
1965, 3524.00
1966, 3522.00
1967, 3525.00
1968, 3525.00
1969, 3526.00
1970, 3527.00
1971, 3528.00
1972, 3528.00
1973, 3530.00
1974, 3529.00
1975, 3530.00
1976, 3533.00
1977, 3535.00
1978, 3534.00
1979, 3537.00
1980, 3536.00
1981, 3538.00
1982, 3537.00
1983, 3539.00
1984, 3539.00
1985, 3541.00
1986, 3541.00
1987, 3542.00
1988, 3544.00
1989, 3545.00
1990, 3544.00
1991, 3546.00
1992, 3549.00
1993, 3549.00
1994, 3551.00
1995, 3551.00
1996, 3553.00
1997, 3551.00
1998, 3554.00
1999, 3555.00
2000, 3554.00
2001, 3556.00
2002, 3556.00
2003, 3557.00
2004, 3561.00
2005, 3559.00
2006, 3559.00
2007, 3561.00
2008, 3563.00
2009, 3564.00
2010, 3563.00
2011, 3565.00
2012, 3566.00
2013, 3566.00
2014, 3569.00
2015, 3567.00
2016, 3568.00
2017, 3570.00
2018, 3571.00
2019, 3572.00
2020, 3575.00
2021, 3575.00
2022, 3576.00
2023, 3575.00
2024, 3577.00
2025, 3578.00
2026, 3579.00
2027, 3578.00
2028, 3581.00
2029, 3581.00
2030, 3583.00
2031, 3585.00
2032, 3583.00
2033, 3588.00
2034, 3586.00
2035, 3585.00
2036, 3590.00
2037, 3590.00
2038, 3591.00
2039, 3593.00
2040, 3595.00
2041, 3594.00
2042, 3595.00
2043, 3599.00
2044, 3598.00
2045, 3598.00
2046, 3602.00
2047, 3602.00
2048, 3603.00
2049, 3604.00
2050, 3607.00
2051, 3608.00
2052, 3609.00
2053, 3611.00
2054, 3612.00
2055, 3613.00
2056, 3613.00
2057, 3613.00
2058, 3613.00
2059, 3617.00
2060, 3619.00
2061, 3621.00
2062, 3623.00
2063, 3623.00
2064, 3624.00
2065, 3627.00
2066, 3626.00
2067, 3626.00
2068, 3628.00
2069, 3630.00
2070, 3630.00
2071, 3633.00
2072, 3634.00
2073, 3637.00
2074, 3636.00
2075, 3638.00
2076, 3638.00
2077, 3641.00
2078, 3642.00
2079, 3642.00
2080, 3643.00
2081, 3645.00
2082, 3646.00
2083, 3645.00
2084, 3647.00
2085, 3648.00
2086, 3651.00
2087, 3651.00
2088, 3652.00
2089, 3652.00
2090, 3653.00
2091, 3652.00
2092, 3654.00
2093, 3653.00
2094, 3656.00
2095, 3657.00
2096, 3659.00
2097, 3658.00
2098, 3660.00
2099, 3659.00
2100, 3660.00
2101, 3661.00
2102, 3662.00
2103, 3662.00
2104, 3663.00
2105, 3663.00
2106, 3666.00
2107, 3665.00
2108, 3665.00
2109, 3665.00
2110, 3666.00
2111, 3668.00
2112, 3668.00
2113, 3667.00
2114, 3671.00
2115, 3670.00
2116, 3670.00
2117, 3669.00
2118, 3671.00
2119, 3673.00
2120, 3672.00
2121, 3671.00
2122, 3673.00
2123, 3674.00
2124, 3675.00
2125, 3674.00
2126, 3674.00
2127, 3675.00
2128, 3674.00
2129, 3677.00
2130, 3677.00
2131, 3676.00
2132, 3677.00
2133, 3678.00
2134, 3677.00
2135, 3679.00
2136, 3677.00
2137, 3680.00
2138, 3682.00
2139, 3679.00
2140, 3681.00
2141, 3682.00
2142, 3682.00
2143, 3680.00
2144, 3681.00
2145, 3683.00
2146, 3682.00
2147, 3682.00
2148, 3683.00
2149, 3683.00
2150, 3683.00
