FW version: 24
Log Version: 3.0.3

General Info:
       Command/Macro Performed,            Timestamp,             Device ID, COM Port, UART/I2C, Test Name, Host Major, Host Minor, Host Revision, Host Git Commit
            Single_measurement,  2023_07_04_11_23_25,       Insight2_F4_xxx,    USB-C,      USB,          ,          0,          1,             1,      4031237645

Show Spectrometer Status:
l0_version, f4_version, battery_perc, battery_mVolt, accelerometer_temp, accelerometer_x, accelerometer_y, accelerometer_z, compass_temp, compass_x, compass_y, compass_z, lamp_0, lamp_1, gain_0, gain_1
        17,         24,           25,          1861,               6176,           64820,            2364,           19252,            0,     65396,     65404,     19318,   3276,   3276,      1,      1

Temperature Statistic Info:
NTC AVG [°C], NTC2 AVG [°C]
      38.768,        38.420

Statistic Info:
M1:  num,      min,      max,   median,      AVG,      STD,M2:  num,      min,      max,   median,      AVG,      STD
     301,  1882.00,  2155.00,  1938.00,  1972.16,  85.0013,     401,  2473.00,  2639.00,  2541.00,  2546.04,  54.4212,

Measurements:
Wavelength, Data Amplitude
1350, 1931.00
1351, 1932.00
1352, 1929.00
1353, 1930.00
1354, 1928.00
1355, 1927.00
1356, 1929.00
1357, 1925.00
1358, 1925.00
1359, 1924.00
1360, 1923.00
1361, 1922.00
1362, 1921.00
1363, 1918.00
1364, 1917.00
1365, 1917.00
1366, 1914.00
1367, 1914.00
1368, 1912.00
1369, 1911.00
1370, 1911.00
1371, 1909.00
1372, 1907.00
1373, 1906.00
1374, 1905.00
1375, 1904.00
1376, 1903.00
1377, 1901.00
1378, 1898.00
1379, 1899.00
1380, 1899.00
1381, 1898.00
1382, 1896.00
1383, 1895.00
1384, 1894.00
1385, 1893.00
1386, 1893.00
1387, 1892.00
1388, 1891.00
1389, 1892.00
1390, 1890.00
1391, 1890.00
1392, 1890.00
1393, 1890.00
1394, 1888.00
1395, 1887.00
1396, 1887.00
1397, 1888.00
1398, 1886.00
1399, 1886.00
1400, 1886.00
1401, 1886.00
1402, 1886.00
1403, 1885.00
1404, 1885.00
1405, 1885.00
1406, 1884.00
1407, 1885.00
1408, 1884.00
1409, 1883.00
1410, 1884.00
1411, 1884.00
1412, 1884.00
1413, 1883.00
1414, 1883.00
1415, 1883.00
1416, 1883.00
1417, 1882.00
1418, 1882.00
1419, 1883.00
1420, 1883.00
1421, 1883.00
1422, 1882.00
1423, 1883.00
1424, 1883.00
1425, 1884.00
1426, 1883.00
1427, 1883.00
1428, 1884.00
1429, 1883.00
1430, 1884.00
1431, 1883.00
1432, 1884.00
1433, 1884.00
1434, 1886.00
1435, 1885.00
1436, 1885.00
1437, 1886.00
1438, 1887.00
1439, 1887.00
1440, 1888.00
1441, 1890.00
1442, 1888.00
1443, 1888.00
1444, 1889.00
1445, 1890.00
1446, 1890.00
1447, 1891.00
1448, 1890.00
1449, 1891.00
1450, 1892.00
1451, 1892.00
1452, 1893.00
1453, 1894.00
1454, 1894.00
1455, 1895.00
1456, 1896.00
1457, 1896.00
1458, 1897.00
1459, 1898.00
1460, 1899.00
1461, 1900.00
1462, 1899.00
1463, 1900.00
1464, 1901.00
1465, 1903.00
1466, 1902.00
1467, 1904.00
1468, 1905.00
1469, 1905.00
1470, 1906.00
1471, 1908.00
1472, 1908.00
1473, 1909.00
1474, 1911.00
1475, 1911.00
1476, 1912.00
1477, 1913.00
1478, 1915.00
1479, 1914.00
1480, 1917.00
1481, 1918.00
1482, 1919.00
1483, 1920.00
1484, 1920.00
1485, 1922.00
1486, 1922.00
1487, 1924.00
1488, 1924.00
1489, 1926.00
1490, 1927.00
1491, 1929.00
1492, 1929.00
1493, 1930.00
1494, 1931.00
1495, 1933.00
1496, 1934.00
1497, 1934.00
1498, 1936.00
1499, 1937.00
1500, 1938.00
1501, 1940.00
1502, 1940.00
1503, 1942.00
1504, 1942.00
1505, 1945.00
1506, 1945.00
1507, 1946.00
1508, 1949.00
1509, 1949.00
1510, 1950.00
1511, 1951.00
1512, 1953.00
1513, 1953.00
1514, 1955.00
1515, 1956.00
1516, 1957.00
1517, 1958.00
1518, 1960.00
1519, 1961.00
1520, 1963.00
1521, 1965.00
1522, 1965.00
1523, 1967.00
1524, 1968.00
1525, 1969.00
1526, 1971.00
1527, 1972.00
1528, 1973.00
1529, 1974.00
1530, 1977.00
1531, 1977.00
1532, 1978.00
1533, 1981.00
1534, 1982.00
1535, 1982.00
1536, 1985.00
1537, 1986.00
1538, 1987.00
1539, 1989.00
1540, 1990.00
1541, 1991.00
1542, 1992.00
1543, 1994.00
1544, 1996.00
1545, 1996.00
1546, 1998.00
1547, 1999.00
1548, 2001.00
1549, 2002.00
1550, 2004.00
1551, 2005.00
1552, 2007.00
1553, 2008.00
1554, 2010.00
1555, 2011.00
1556, 2013.00
1557, 2013.00
1558, 2016.00
1559, 2017.00
1560, 2018.00
1561, 2020.00
1562, 2023.00
1563, 2023.00
1564, 2025.00
1565, 2025.00
1566, 2028.00
1567, 2030.00
1568, 2031.00
1569, 2033.00
1570, 2036.00
1571, 2035.00
1572, 2037.00
1573, 2039.00
1574, 2041.00
1575, 2042.00
1576, 2043.00
1577, 2045.00
1578, 2046.00
1579, 2048.00
1580, 2050.00
1581, 2052.00
1582, 2052.00
1583, 2054.00
1584, 2055.00
1585, 2056.00
1586, 2058.00
1587, 2059.00
1588, 2060.00
1589, 2061.00
1590, 2063.00
1591, 2064.00
1592, 2066.00
1593, 2068.00
1594, 2069.00
1595, 2070.00
1596, 2070.00
1597, 2071.00
1598, 2073.00
1599, 2076.00
1600, 2076.00
1601, 2078.00
1602, 2080.00
1603, 2081.00
1604, 2083.00
1605, 2083.00
1606, 2085.00
1607, 2087.00
1608, 2089.00
1609, 2091.00
1610, 2092.00
1611, 2095.00
1612, 2095.00
1613, 2097.00
1614, 2098.00
1615, 2101.00
1616, 2103.00
1617, 2105.00
1618, 2106.00
1619, 2108.00
1620, 2109.00
1621, 2111.00
1622, 2114.00
1623, 2115.00
1624, 2117.00
1625, 2118.00
1626, 2120.00
1627, 2121.00
1628, 2123.00
1629, 2126.00
1630, 2126.00
1631, 2128.00
1632, 2129.00
1633, 2131.00
1634, 2132.00
1635, 2133.00
1636, 2135.00
1637, 2137.00
1638, 2139.00
1639, 2139.00
1640, 2141.00
1641, 2142.00
1642, 2144.00
1643, 2145.00
1644, 2147.00
1645, 2148.00
1646, 2149.00
1647, 2151.00
1648, 2153.00
1649, 2153.00
1650, 2155.00

1750, 2637.00
1751, 2637.00
1752, 2637.00
1753, 2638.00
1754, 2637.00
1755, 2637.00
1756, 2639.00
1757, 2639.00
1758, 2637.00
1759, 2638.00
1760, 2639.00
1761, 2638.00
1762, 2637.00
1763, 2637.00
1764, 2637.00
1765, 2639.00
1766, 2636.00
1767, 2637.00
1768, 2636.00
1769, 2635.00
1770, 2637.00
1771, 2634.00
1772, 2635.00
1773, 2634.00
1774, 2634.00
1775, 2635.00
1776, 2632.00
1777, 2631.00
1778, 2632.00
1779, 2630.00
1780, 2629.00
1781, 2631.00
1782, 2629.00
1783, 2627.00
1784, 2628.00
1785, 2627.00
1786, 2628.00
1787, 2629.00
1788, 2627.00
1789, 2626.00
1790, 2627.00
1791, 2625.00
1792, 2625.00
1793, 2624.00
1794, 2622.00
1795, 2624.00
1796, 2621.00
1797, 2620.00
1798, 2620.00
1799, 2621.00
1800, 2618.00
1801, 2620.00
1802, 2619.00
1803, 2620.00
1804, 2618.00
1805, 2616.00
1806, 2618.00
1807, 2617.00
1808, 2614.00
1809, 2615.00
1810, 2614.00
1811, 2615.00
1812, 2613.00
1813, 2612.00
1814, 2611.00
1815, 2610.00
1816, 2611.00
1817, 2608.00
1818, 2608.00
1819, 2606.00
1820, 2606.00
1821, 2607.00
1822, 2604.00
1823, 2602.00
1824, 2602.00
1825, 2601.00
1826, 2600.00
1827, 2597.00
1828, 2596.00
1829, 2594.00
1830, 2593.00
1831, 2592.00
1832, 2590.00
1833, 2589.00
1834, 2586.00
1835, 2585.00
1836, 2583.00
1837, 2577.00
1838, 2578.00
1839, 2576.00
1840, 2575.00
1841, 2571.00
1842, 2569.00
1843, 2569.00
1844, 2564.00
1845, 2562.00
1846, 2558.00
1847, 2557.00
1848, 2554.00
1849, 2550.00
1850, 2548.00
1851, 2546.00
1852, 2544.00
1853, 2542.00
1854, 2537.00
1855, 2537.00
1856, 2534.00
1857, 2530.00
1858, 2529.00
1859, 2527.00
1860, 2526.00
1861, 2522.00
1862, 2520.00
1863, 2518.00
1864, 2515.00
1865, 2513.00
1866, 2509.00
1867, 2508.00
1868, 2507.00
1869, 2506.00
1870, 2503.00
1871, 2503.00
1872, 2500.00
1873, 2499.00
1874, 2499.00
1875, 2497.00
1876, 2496.00
1877, 2495.00
1878, 2494.00
1879, 2493.00
1880, 2492.00
1881, 2489.00
1882, 2491.00
1883, 2488.00
1884, 2487.00
1885, 2487.00
1886, 2487.00
1887, 2484.00
1888, 2486.00
1889, 2486.00
1890, 2485.00
1891, 2483.00
1892, 2484.00
1893, 2482.00
1894, 2482.00
1895, 2481.00
1896, 2480.00
1897, 2481.00
1898, 2480.00
1899, 2479.00
1900, 2481.00
1901, 2478.00
1902, 2478.00
1903, 2480.00
1904, 2478.00
1905, 2479.00
1906, 2478.00
1907, 2478.00
1908, 2477.00
1909, 2477.00
1910, 2477.00
1911, 2476.00
1912, 2475.00
1913, 2477.00
1914, 2477.00
1915, 2477.00
1916, 2477.00
1917, 2475.00
1918, 2473.00
1919, 2476.00
1920, 2475.00
1921, 2475.00
1922, 2474.00
1923, 2475.00
1924, 2473.00
1925, 2473.00
1926, 2474.00
1927, 2473.00
1928, 2474.00
1929, 2473.00
1930, 2474.00
1931, 2476.00
1932, 2473.00
1933, 2474.00
1934, 2475.00
1935, 2473.00
1936, 2475.00
1937, 2474.00
1938, 2477.00
1939, 2476.00
1940, 2477.00
1941, 2477.00
1942, 2475.00
1943, 2475.00
1944, 2477.00
1945, 2476.00
1946, 2478.00
1947, 2477.00
1948, 2477.00
1949, 2479.00
1950, 2479.00
1951, 2477.00
1952, 2477.00
1953, 2481.00
1954, 2480.00
1955, 2481.00
1956, 2482.00
1957, 2481.00
1958, 2482.00
1959, 2482.00
1960, 2483.00
1961, 2481.00
1962, 2481.00
1963, 2483.00
1964, 2484.00
1965, 2486.00
1966, 2484.00
1967, 2486.00
1968, 2486.00
1969, 2488.00
1970, 2487.00
1971, 2487.00
1972, 2488.00
1973, 2489.00
1974, 2489.00
1975, 2490.00
1976, 2491.00
1977, 2491.00
1978, 2493.00
1979, 2492.00
1980, 2493.00
1981, 2493.00
1982, 2493.00
1983, 2494.00
1984, 2495.00
1985, 2495.00
1986, 2495.00
1987, 2497.00
1988, 2497.00
1989, 2498.00
1990, 2500.00
1991, 2498.00
1992, 2501.00
1993, 2501.00
1994, 2500.00
1995, 2503.00
1996, 2503.00
1997, 2504.00
1998, 2504.00
1999, 2504.00
2000, 2504.00
2001, 2506.00
2002, 2507.00
2003, 2505.00
2004, 2507.00
2005, 2507.00
2006, 2507.00
2007, 2509.00
2008, 2509.00
2009, 2509.00
2010, 2509.00
2011, 2512.00
2012, 2512.00
2013, 2512.00
2014, 2514.00
2015, 2515.00
2016, 2515.00
2017, 2514.00
2018, 2514.00
2019, 2516.00
2020, 2517.00
2021, 2516.00
2022, 2518.00
2023, 2518.00
2024, 2519.00
2025, 2519.00
2026, 2520.00
2027, 2521.00
2028, 2521.00
2029, 2522.00
2030, 2523.00
2031, 2523.00
2032, 2524.00
2033, 2525.00
2034, 2527.00
2035, 2528.00
2036, 2526.00
2037, 2529.00
2038, 2527.00
2039, 2530.00
2040, 2531.00
2041, 2532.00
2042, 2533.00
2043, 2532.00
2044, 2533.00
2045, 2533.00
2046, 2535.00
2047, 2535.00
2048, 2537.00
2049, 2537.00
2050, 2539.00
2051, 2539.00
2052, 2540.00
2053, 2541.00
2054, 2541.00
2055, 2542.00
2056, 2545.00
2057, 2545.00
2058, 2548.00
2059, 2547.00
2060, 2547.00
2061, 2548.00
2062, 2550.00
2063, 2552.00
2064, 2551.00
2065, 2551.00
2066, 2553.00
2067, 2555.00
2068, 2555.00
2069, 2555.00
2070, 2558.00
2071, 2557.00
2072, 2559.00
2073, 2560.00
2074, 2562.00
2075, 2563.00
2076, 2563.00
2077, 2562.00
2078, 2564.00
2079, 2564.00
2080, 2565.00
2081, 2567.00
2082, 2565.00
2083, 2569.00
2084, 2568.00
2085, 2570.00
2086, 2570.00
2087, 2571.00
2088, 2570.00
2089, 2574.00
2090, 2573.00
2091, 2575.00
2092, 2574.00
2093, 2576.00
2094, 2577.00
2095, 2577.00
2096, 2579.00
2097, 2578.00
2098, 2577.00
2099, 2580.00
2100, 2580.00
2101, 2580.00
2102, 2582.00
2103, 2582.00
2104, 2582.00
2105, 2581.00
2106, 2582.00
2107, 2583.00
2108, 2583.00
2109, 2585.00
2110, 2585.00
2111, 2586.00
2112, 2586.00
2113, 2585.00
2114, 2585.00
2115, 2587.00
2116, 2588.00
2117, 2587.00
2118, 2589.00
2119, 2588.00
2120, 2590.00
2121, 2589.00
2122, 2587.00
2123, 2589.00
2124, 2591.00
2125, 2591.00
2126, 2592.00
2127, 2590.00
2128, 2593.00
2129, 2591.00
2130, 2593.00
2131, 2593.00
2132, 2594.00
2133, 2593.00
2134, 2596.00
2135, 2594.00
2136, 2593.00
2137, 2594.00
2138, 2596.00
2139, 2596.00
2140, 2596.00
2141, 2597.00
2142, 2596.00
2143, 2597.00
2144, 2596.00
2145, 2597.00
2146, 2597.00
2147, 2599.00
2148, 2597.00
2149, 2598.00
2150, 2598.00
