FW version: 24
Log Version: 3.0.3

General Info:
       Command/Macro Performed,            Timestamp,             Device ID, COM Port, UART/I2C, Test Name, Host Major, Host Minor, Host Revision, Host Git Commit
            Single_measurement,  2023_07_04_11_22_42,       Insight2_F4_xxx,    USB-C,      USB,          ,          0,          1,             1,      4031237645

Show Spectrometer Status:
l0_version, f4_version, battery_perc, battery_mVolt, accelerometer_temp, accelerometer_x, accelerometer_y, accelerometer_z, compass_temp, compass_x, compass_y, compass_z, lamp_0, lamp_1, gain_0, gain_1
        17,         24,           25,          1863,               6160,           64828,            2376,           19228,            0,     65404,     65405,     19325,   2457,   2457,      1,      1

Temperature Statistic Info:
NTC AVG [°C], NTC2 AVG [°C]
      38.479,        38.128

Statistic Info:
M1:  num,      min,      max,   median,      AVG,      STD,M2:  num,      min,      max,   median,      AVG,      STD
     301,  1086.00,  1256.00,  1123.00,  1142.21,  52.6848,     401,  1540.00,  1644.00,  1584.00,  1587.12,  34.3862,

Measurements:
Wavelength, Data Amplitude
1350, 1113.00
1351, 1113.00
1352, 1112.00
1353, 1112.00
1354, 1110.00
1355, 1111.00
1356, 1111.00
1357, 1110.00
1358, 1110.00
1359, 1109.00
1360, 1109.00
1361, 1108.00
1362, 1107.00
1363, 1107.00
1364, 1105.00
1365, 1105.00
1366, 1103.00
1367, 1104.00
1368, 1103.00
1369, 1101.00
1370, 1101.00
1371, 1101.00
1372, 1100.00
1373, 1099.00
1374, 1098.00
1375, 1098.00
1376, 1098.00
1377, 1096.00
1378, 1095.00
1379, 1096.00
1380, 1095.00
1381, 1095.00
1382, 1094.00
1383, 1092.00
1384, 1093.00
1385, 1092.00
1386, 1092.00
1387, 1092.00
1388, 1091.00
1389, 1090.00
1390, 1091.00
1391, 1090.00
1392, 1090.00
1393, 1090.00
1394, 1089.00
1395, 1090.00
1396, 1089.00
1397, 1090.00
1398, 1089.00
1399, 1089.00
1400, 1088.00
1401, 1089.00
1402, 1088.00
1403, 1089.00
1404, 1087.00
1405, 1088.00
1406, 1088.00
1407, 1088.00
1408, 1087.00
1409, 1088.00
1410, 1088.00
1411, 1087.00
1412, 1087.00
1413, 1088.00
1414, 1087.00
1415, 1087.00
1416, 1088.00
1417, 1088.00
1418, 1088.00
1419, 1087.00
1420, 1086.00
1421, 1087.00
1422, 1087.00
1423, 1088.00
1424, 1087.00
1425, 1086.00
1426, 1087.00
1427, 1088.00
1428, 1088.00
1429, 1088.00
1430, 1088.00
1431, 1088.00
1432, 1088.00
1433, 1089.00
1434, 1089.00
1435, 1089.00
1436, 1089.00
1437, 1090.00
1438, 1090.00
1439, 1090.00
1440, 1090.00
1441, 1090.00
1442, 1091.00
1443, 1090.00
1444, 1091.00
1445, 1090.00
1446, 1093.00
1447, 1093.00
1448, 1092.00
1449, 1093.00
1450, 1093.00
1451, 1094.00
1452, 1094.00
1453, 1095.00
1454, 1094.00
1455, 1095.00
1456, 1095.00
1457, 1096.00
1458, 1096.00
1459, 1097.00
1460, 1097.00
1461, 1098.00
1462, 1097.00
1463, 1098.00
1464, 1099.00
1465, 1100.00
1466, 1101.00
1467, 1100.00
1468, 1102.00
1469, 1101.00
1470, 1101.00
1471, 1102.00
1472, 1103.00
1473, 1104.00
1474, 1105.00
1475, 1105.00
1476, 1106.00
1477, 1106.00
1478, 1107.00
1479, 1108.00
1480, 1108.00
1481, 1110.00
1482, 1110.00
1483, 1110.00
1484, 1111.00
1485, 1112.00
1486, 1112.00
1487, 1114.00
1488, 1113.00
1489, 1114.00
1490, 1115.00
1491, 1116.00
1492, 1116.00
1493, 1117.00
1494, 1119.00
1495, 1119.00
1496, 1120.00
1497, 1120.00
1498, 1121.00
1499, 1122.00
1500, 1123.00
1501, 1123.00
1502, 1123.00
1503, 1125.00
1504, 1125.00
1505, 1126.00
1506, 1128.00
1507, 1127.00
1508, 1128.00
1509, 1129.00
1510, 1129.00
1511, 1130.00
1512, 1132.00
1513, 1131.00
1514, 1133.00
1515, 1133.00
1516, 1134.00
1517, 1136.00
1518, 1136.00
1519, 1138.00
1520, 1137.00
1521, 1138.00
1522, 1139.00
1523, 1140.00
1524, 1141.00
1525, 1142.00
1526, 1143.00
1527, 1143.00
1528, 1144.00
1529, 1146.00
1530, 1147.00
1531, 1147.00
1532, 1148.00
1533, 1148.00
1534, 1149.00
1535, 1150.00
1536, 1150.00
1537, 1152.00
1538, 1153.00
1539, 1154.00
1540, 1153.00
1541, 1156.00
1542, 1156.00
1543, 1157.00
1544, 1157.00
1545, 1158.00
1546, 1160.00
1547, 1160.00
1548, 1161.00
1549, 1162.00
1550, 1162.00
1551, 1163.00
1552, 1165.00
1553, 1166.00
1554, 1165.00
1555, 1167.00
1556, 1168.00
1557, 1169.00
1558, 1169.00
1559, 1171.00
1560, 1172.00
1561, 1173.00
1562, 1174.00
1563, 1175.00
1564, 1175.00
1565, 1176.00
1566, 1177.00
1567, 1178.00
1568, 1179.00
1569, 1180.00
1570, 1181.00
1571, 1181.00
1572, 1183.00
1573, 1184.00
1574, 1185.00
1575, 1185.00
1576, 1186.00
1577, 1187.00
1578, 1188.00
1579, 1189.00
1580, 1190.00
1581, 1191.00
1582, 1192.00
1583, 1191.00
1584, 1194.00
1585, 1194.00
1586, 1195.00
1587, 1196.00
1588, 1197.00
1589, 1196.00
1590, 1198.00
1591, 1198.00
1592, 1199.00
1593, 1200.00
1594, 1201.00
1595, 1201.00
1596, 1204.00
1597, 1203.00
1598, 1204.00
1599, 1205.00
1600, 1207.00
1601, 1208.00
1602, 1208.00
1603, 1209.00
1604, 1210.00
1605, 1210.00
1606, 1212.00
1607, 1213.00
1608, 1214.00
1609, 1215.00
1610, 1216.00
1611, 1217.00
1612, 1218.00
1613, 1219.00
1614, 1221.00
1615, 1221.00
1616, 1222.00
1617, 1224.00
1618, 1226.00
1619, 1227.00
1620, 1226.00
1621, 1228.00
1622, 1229.00
1623, 1231.00
1624, 1231.00
1625, 1232.00
1626, 1234.00
1627, 1234.00
1628, 1236.00
1629, 1237.00
1630, 1237.00
1631, 1238.00
1632, 1240.00
1633, 1240.00
1634, 1241.00
1635, 1243.00
1636, 1243.00
1637, 1244.00
1638, 1245.00
1639, 1245.00
1640, 1247.00
1641, 1247.00
1642, 1249.00
1643, 1250.00
1644, 1250.00
1645, 1251.00
1646, 1252.00
1647, 1253.00
1648, 1254.00
1649, 1256.00
1650, 1256.00

1750, 1643.00
1751, 1644.00
1752, 1642.00
1753, 1641.00
1754, 1643.00
1755, 1642.00
1756, 1642.00
1757, 1642.00
1758, 1644.00
1759, 1642.00
1760, 1643.00
1761, 1642.00
1762, 1642.00
1763, 1641.00
1764, 1640.00
1765, 1640.00
1766, 1642.00
1767, 1642.00
1768, 1641.00
1769, 1640.00
1770, 1642.00
1771, 1639.00
1772, 1642.00
1773, 1638.00
1774, 1638.00
1775, 1639.00
1776, 1640.00
1777, 1641.00
1778, 1640.00
1779, 1638.00
1780, 1637.00
1781, 1639.00
1782, 1638.00
1783, 1637.00
1784, 1640.00
1785, 1637.00
1786, 1636.00
1787, 1638.00
1788, 1637.00
1789, 1636.00
1790, 1637.00
1791, 1636.00
1792, 1633.00
1793, 1634.00
1794, 1634.00
1795, 1634.00
1796, 1634.00
1797, 1634.00
1798, 1634.00
1799, 1633.00
1800, 1631.00
1801, 1631.00
1802, 1632.00
1803, 1629.00
1804, 1630.00
1805, 1630.00
1806, 1631.00
1807, 1630.00
1808, 1630.00
1809, 1630.00
1810, 1628.00
1811, 1629.00
1812, 1628.00
1813, 1629.00
1814, 1626.00
1815, 1625.00
1816, 1626.00
1817, 1626.00
1818, 1624.00
1819, 1625.00
1820, 1625.00
1821, 1624.00
1822, 1623.00
1823, 1621.00
1824, 1623.00
1825, 1621.00
1826, 1620.00
1827, 1618.00
1828, 1619.00
1829, 1617.00
1830, 1616.00
1831, 1615.00
1832, 1615.00
1833, 1613.00
1834, 1613.00
1835, 1609.00
1836, 1609.00
1837, 1608.00
1838, 1607.00
1839, 1607.00
1840, 1606.00
1841, 1604.00
1842, 1601.00
1843, 1600.00
1844, 1598.00
1845, 1594.00
1846, 1595.00
1847, 1595.00
1848, 1591.00
1849, 1589.00
1850, 1590.00
1851, 1587.00
1852, 1585.00
1853, 1584.00
1854, 1583.00
1855, 1580.00
1856, 1579.00
1857, 1578.00
1858, 1576.00
1859, 1574.00
1860, 1572.00
1861, 1572.00
1862, 1570.00
1863, 1569.00
1864, 1566.00
1865, 1567.00
1866, 1564.00
1867, 1564.00
1868, 1562.00
1869, 1562.00
1870, 1560.00
1871, 1559.00
1872, 1557.00
1873, 1557.00
1874, 1557.00
1875, 1557.00
1876, 1556.00
1877, 1554.00
1878, 1552.00
1879, 1553.00
1880, 1552.00
1881, 1553.00
1882, 1552.00
1883, 1550.00
1884, 1551.00
1885, 1548.00
1886, 1549.00
1887, 1549.00
1888, 1548.00
1889, 1548.00
1890, 1547.00
1891, 1547.00
1892, 1547.00
1893, 1546.00
1894, 1546.00
1895, 1546.00
1896, 1545.00
1897, 1545.00
1898, 1546.00
1899, 1547.00
1900, 1544.00
1901, 1545.00
1902, 1544.00
1903, 1544.00
1904, 1544.00
1905, 1543.00
1906, 1543.00
1907, 1543.00
1908, 1542.00
1909, 1541.00
1910, 1542.00
1911, 1543.00
1912, 1543.00
1913, 1544.00
1914, 1541.00
1915, 1543.00
1916, 1543.00
1917, 1540.00
1918, 1542.00
1919, 1541.00
1920, 1541.00
1921, 1541.00
1922, 1540.00
1923, 1542.00
1924, 1541.00
1925, 1541.00
1926, 1542.00
1927, 1541.00
1928, 1541.00
1929, 1541.00
1930, 1541.00
1931, 1541.00
1932, 1541.00
1933, 1542.00
1934, 1541.00
1935, 1541.00
1936, 1541.00
1937, 1543.00
1938, 1540.00
1939, 1542.00
1940, 1541.00
1941, 1541.00
1942, 1541.00
1943, 1543.00
1944, 1542.00
1945, 1542.00
1946, 1543.00
1947, 1544.00
1948, 1544.00
1949, 1542.00
1950, 1543.00
1951, 1545.00
1952, 1545.00
1953, 1545.00
1954, 1543.00
1955, 1547.00
1956, 1544.00
1957, 1547.00
1958, 1546.00
1959, 1546.00
1960, 1546.00
1961, 1546.00
1962, 1547.00
1963, 1547.00
1964, 1546.00
1965, 1549.00
1966, 1546.00
1967, 1548.00
1968, 1549.00
1969, 1549.00
1970, 1550.00
1971, 1549.00
1972, 1550.00
1973, 1551.00
1974, 1551.00
1975, 1552.00
1976, 1552.00
1977, 1553.00
1978, 1553.00
1979, 1555.00
1980, 1553.00
1981, 1553.00
1982, 1553.00
1983, 1557.00
1984, 1554.00
1985, 1556.00
1986, 1555.00
1987, 1557.00
1988, 1557.00
1989, 1555.00
1990, 1558.00
1991, 1557.00
1992, 1558.00
1993, 1556.00
1994, 1557.00
1995, 1561.00
1996, 1559.00
1997, 1560.00
1998, 1560.00
1999, 1560.00
2000, 1561.00
2001, 1562.00
2002, 1562.00
2003, 1562.00
2004, 1562.00
2005, 1562.00
2006, 1561.00
2007, 1563.00
2008, 1561.00
2009, 1563.00
2010, 1563.00
2011, 1566.00
2012, 1565.00
2013, 1566.00
2014, 1566.00
2015, 1568.00
2016, 1568.00
2017, 1566.00
2018, 1567.00
2019, 1569.00
2020, 1569.00
2021, 1569.00
2022, 1569.00
2023, 1571.00
2024, 1570.00
2025, 1571.00
2026, 1572.00
2027, 1571.00
2028, 1573.00
2029, 1571.00
2030, 1573.00
2031, 1573.00
2032, 1575.00
2033, 1574.00
2034, 1574.00
2035, 1575.00
2036, 1576.00
2037, 1575.00
2038, 1577.00
2039, 1578.00
2040, 1579.00
2041, 1578.00
2042, 1580.00
2043, 1579.00
2044, 1580.00
2045, 1579.00
2046, 1581.00
2047, 1581.00
2048, 1581.00
2049, 1582.00
2050, 1584.00
2051, 1584.00
2052, 1584.00
2053, 1583.00
2054, 1586.00
2055, 1586.00
2056, 1587.00
2057, 1589.00
2058, 1588.00
2059, 1588.00
2060, 1588.00
2061, 1589.00
2062, 1592.00
2063, 1591.00
2064, 1592.00
2065, 1592.00
2066, 1592.00
2067, 1594.00
2068, 1593.00
2069, 1595.00
2070, 1594.00
2071, 1597.00
2072, 1599.00
2073, 1598.00
2074, 1598.00
2075, 1599.00
2076, 1600.00
2077, 1599.00
2078, 1600.00
2079, 1601.00
2080, 1602.00
2081, 1602.00
2082, 1604.00
2083, 1603.00
2084, 1604.00
2085, 1604.00
2086, 1603.00
2087, 1605.00
2088, 1605.00
2089, 1605.00
2090, 1606.00
2091, 1607.00
2092, 1608.00
2093, 1607.00
2094, 1608.00
2095, 1609.00
2096, 1610.00
2097, 1609.00
2098, 1611.00
2099, 1611.00
2100, 1611.00
2101, 1611.00
2102, 1611.00
2103, 1613.00
2104, 1613.00
2105, 1613.00
2106, 1612.00
2107, 1614.00
2108, 1613.00
2109, 1615.00
2110, 1614.00
2111, 1614.00
2112, 1615.00
2113, 1614.00
2114, 1614.00
2115, 1616.00
2116, 1615.00
2117, 1616.00
2118, 1616.00
2119, 1615.00
2120, 1617.00
2121, 1616.00
2122, 1618.00
2123, 1616.00
2124, 1617.00
2125, 1619.00
2126, 1618.00
2127, 1619.00
2128, 1618.00
2129, 1619.00
2130, 1621.00
2131, 1621.00
2132, 1620.00
2133, 1619.00
2134, 1621.00
2135, 1621.00
2136, 1620.00
2137, 1620.00
2138, 1621.00
2139, 1621.00
2140, 1623.00
2141, 1621.00
2142, 1622.00
2143, 1622.00
2144, 1622.00
2145, 1622.00
2146, 1624.00
2147, 1622.00
2148, 1623.00
2149, 1623.00
2150, 1624.00
