FW version: 24
Log Version: 3.0.3

General Info:
       Command/Macro Performed,            Timestamp,             Device ID, COM Port, UART/I2C, Test Name, Host Major, Host Minor, Host Revision, Host Git Commit
            Single_measurement,  2023_06_27_11_55_01,       Insight2_F4_xxx,    USB-C,      USB,          ,          0,          1,             1,      4031237645

Show Spectrometer Status:
l0_version, f4_version, battery_perc, battery_mVolt, accelerometer_temp, accelerometer_x, accelerometer_y, accelerometer_z, compass_temp, compass_x, compass_y, compass_z, lamp_0, lamp_1, gain_0, gain_1
        17,         24,           95,          2078,               5456,           65524,              64,           18388,            0,     65524,     65473,     65527,   3276,   3276,    1,    1

Temperature Statistic Info:
NTC AVG [°C], NTC2 AVG [°C]
      37.179,        36.891

Statistic Info:
M1:  num,      min,      max,   median,      AVG,      STD,M2:  num,      min,      max,   median,      AVG,      STD
     301,  1875.00,  2158.00,  1933.00,  1967.53,  87.7974,     401,  2503.00,  2674.00,  2573.00,  2577.34,  55.3963,

Measurements:
Wavelength, Data Amplitude
1350, 1926.00
1351, 1927.00
1352, 1925.00
1353, 1924.00
1354, 1922.00
1355, 1922.00
1356, 1921.00
1357, 1921.00
1358, 1919.00
1359, 1918.00
1360, 1917.00
1361, 1917.00
1362, 1915.00
1363, 1914.00
1364, 1911.00
1365, 1910.00
1366, 1909.00
1367, 1908.00
1368, 1906.00
1369, 1905.00
1370, 1904.00
1371, 1903.00
1372, 1900.00
1373, 1900.00
1374, 1899.00
1375, 1897.00
1376, 1896.00
1377, 1894.00
1378, 1894.00
1379, 1892.00
1380, 1891.00
1381, 1890.00
1382, 1889.00
1383, 1889.00
1384, 1887.00
1385, 1887.00
1386, 1885.00
1387, 1885.00
1388, 1884.00
1389, 1884.00
1390, 1882.00
1391, 1882.00
1392, 1881.00
1393, 1882.00
1394, 1880.00
1395, 1879.00
1396, 1880.00
1397, 1879.00
1398, 1881.00
1399, 1879.00
1400, 1878.00
1401, 1878.00
1402, 1878.00
1403, 1877.00
1404, 1877.00
1405, 1878.00
1406, 1876.00
1407, 1876.00
1408, 1876.00
1409, 1876.00
1410, 1876.00
1411, 1875.00
1412, 1877.00
1413, 1875.00
1414, 1876.00
1415, 1877.00
1416, 1875.00
1417, 1875.00
1418, 1876.00
1419, 1875.00
1420, 1875.00
1421, 1875.00
1422, 1876.00
1423, 1876.00
1424, 1875.00
1425, 1875.00
1426, 1876.00
1427, 1875.00
1428, 1875.00
1429, 1877.00
1430, 1877.00
1431, 1876.00
1432, 1878.00
1433, 1877.00
1434, 1879.00
1435, 1878.00
1436, 1879.00
1437, 1879.00
1438, 1880.00
1439, 1879.00
1440, 1879.00
1441, 1880.00
1442, 1881.00
1443, 1881.00
1444, 1882.00
1445, 1883.00
1446, 1883.00
1447, 1883.00
1448, 1883.00
1449, 1883.00
1450, 1885.00
1451, 1885.00
1452, 1886.00
1453, 1887.00
1454, 1886.00
1455, 1887.00
1456, 1889.00
1457, 1890.00
1458, 1889.00
1459, 1891.00
1460, 1892.00
1461, 1892.00
1462, 1893.00
1463, 1894.00
1464, 1894.00
1465, 1895.00
1466, 1898.00
1467, 1897.00
1468, 1897.00
1469, 1898.00
1470, 1900.00
1471, 1901.00
1472, 1901.00
1473, 1903.00
1474, 1904.00
1475, 1904.00
1476, 1906.00
1477, 1907.00
1478, 1907.00
1479, 1909.00
1480, 1911.00
1481, 1912.00
1482, 1912.00
1483, 1912.00
1484, 1913.00
1485, 1915.00
1486, 1917.00
1487, 1918.00
1488, 1919.00
1489, 1920.00
1490, 1921.00
1491, 1922.00
1492, 1924.00
1493, 1924.00
1494, 1925.00
1495, 1927.00
1496, 1928.00
1497, 1929.00
1498, 1931.00
1499, 1931.00
1500, 1933.00
1501, 1933.00
1502, 1935.00
1503, 1935.00
1504, 1937.00
1505, 1938.00
1506, 1939.00
1507, 1941.00
1508, 1943.00
1509, 1943.00
1510, 1945.00
1511, 1945.00
1512, 1947.00
1513, 1949.00
1514, 1950.00
1515, 1951.00
1516, 1953.00
1517, 1952.00
1518, 1955.00
1519, 1956.00
1520, 1958.00
1521, 1959.00
1522, 1960.00
1523, 1962.00
1524, 1962.00
1525, 1964.00
1526, 1966.00
1527, 1967.00
1528, 1968.00
1529, 1970.00
1530, 1971.00
1531, 1973.00
1532, 1974.00
1533, 1974.00
1534, 1977.00
1535, 1979.00
1536, 1980.00
1537, 1981.00
1538, 1983.00
1539, 1983.00
1540, 1986.00
1541, 1987.00
1542, 1988.00
1543, 1991.00
1544, 1990.00
1545, 1992.00
1546, 1995.00
1547, 1995.00
1548, 1997.00
1549, 1998.00
1550, 1999.00
1551, 2001.00
1552, 2003.00
1553, 2004.00
1554, 2005.00
1555, 2007.00
1556, 2008.00
1557, 2009.00
1558, 2012.00
1559, 2013.00
1560, 2015.00
1561, 2017.00
1562, 2019.00
1563, 2020.00
1564, 2021.00
1565, 2022.00
1566, 2025.00
1567, 2027.00
1568, 2029.00
1569, 2030.00
1570, 2031.00
1571, 2033.00
1572, 2034.00
1573, 2036.00
1574, 2038.00
1575, 2039.00
1576, 2041.00
1577, 2042.00
1578, 2043.00
1579, 2045.00
1580, 2046.00
1581, 2050.00
1582, 2049.00
1583, 2051.00
1584, 2053.00
1585, 2055.00
1586, 2055.00
1587, 2057.00
1588, 2058.00
1589, 2060.00
1590, 2061.00
1591, 2063.00
1592, 2064.00
1593, 2065.00
1594, 2067.00
1595, 2067.00
1596, 2070.00
1597, 2072.00
1598, 2073.00
1599, 2075.00
1600, 2076.00
1601, 2077.00
1602, 2079.00
1603, 2080.00
1604, 2081.00
1605, 2083.00
1606, 2085.00
1607, 2087.00
1608, 2088.00
1609, 2091.00
1610, 2091.00
1611, 2094.00
1612, 2095.00
1613, 2097.00
1614, 2100.00
1615, 2100.00
1616, 2101.00
1617, 2104.00
1618, 2106.00
1619, 2108.00
1620, 2109.00
1621, 2112.00
1622, 2113.00
1623, 2115.00
1624, 2116.00
1625, 2118.00
1626, 2120.00
1627, 2122.00
1628, 2124.00
1629, 2126.00
1630, 2127.00
1631, 2128.00
1632, 2130.00
1633, 2133.00
1634, 2133.00
1635, 2134.00
1636, 2137.00
1637, 2138.00
1638, 2139.00
1639, 2141.00
1640, 2143.00
1641, 2144.00
1642, 2145.00
1643, 2147.00
1644, 2148.00
1645, 2149.00
1646, 2151.00
1647, 2152.00
1648, 2154.00
1649, 2155.00
1650, 2158.00

1750, 2674.00
1751, 2673.00
1752, 2672.00
1753, 2673.00
1754, 2672.00
1755, 2672.00
1756, 2670.00
1757, 2671.00
1758, 2670.00
1759, 2671.00
1760, 2670.00
1761, 2673.00
1762, 2671.00
1763, 2673.00
1764, 2671.00
1765, 2671.00
1766, 2670.00
1767, 2671.00
1768, 2669.00
1769, 2669.00
1770, 2669.00
1771, 2669.00
1772, 2669.00
1773, 2668.00
1774, 2667.00
1775, 2667.00
1776, 2667.00
1777, 2665.00
1778, 2665.00
1779, 2664.00
1780, 2664.00
1781, 2663.00
1782, 2663.00
1783, 2664.00
1784, 2661.00
1785, 2661.00
1786, 2660.00
1787, 2659.00
1788, 2661.00
1789, 2659.00
1790, 2659.00
1791, 2660.00
1792, 2661.00
1793, 2657.00
1794, 2657.00
1795, 2657.00
1796, 2655.00
1797, 2654.00
1798, 2653.00
1799, 2655.00
1800, 2655.00
1801, 2651.00
1802, 2651.00
1803, 2653.00
1804, 2650.00
1805, 2653.00
1806, 2650.00
1807, 2649.00
1808, 2650.00
1809, 2648.00
1810, 2648.00
1811, 2646.00
1812, 2647.00
1813, 2645.00
1814, 2645.00
1815, 2644.00
1816, 2645.00
1817, 2641.00
1818, 2641.00
1819, 2642.00
1820, 2639.00
1821, 2639.00
1822, 2637.00
1823, 2636.00
1824, 2636.00
1825, 2634.00
1826, 2633.00
1827, 2633.00
1828, 2628.00
1829, 2628.00
1830, 2626.00
1831, 2625.00
1832, 2624.00
1833, 2622.00
1834, 2621.00
1835, 2620.00
1836, 2616.00
1837, 2615.00
1838, 2612.00
1839, 2610.00
1840, 2607.00
1841, 2605.00
1842, 2602.00
1843, 2599.00
1844, 2596.00
1845, 2593.00
1846, 2591.00
1847, 2589.00
1848, 2586.00
1849, 2585.00
1850, 2581.00
1851, 2577.00
1852, 2577.00
1853, 2574.00
1854, 2569.00
1855, 2568.00
1856, 2566.00
1857, 2565.00
1858, 2561.00
1859, 2558.00
1860, 2555.00
1861, 2553.00
1862, 2552.00
1863, 2549.00
1864, 2547.00
1865, 2545.00
1866, 2543.00
1867, 2541.00
1868, 2540.00
1869, 2539.00
1870, 2535.00
1871, 2535.00
1872, 2533.00
1873, 2532.00
1874, 2531.00
1875, 2529.00
1876, 2529.00
1877, 2525.00
1878, 2526.00
1879, 2524.00
1880, 2523.00
1881, 2522.00
1882, 2522.00
1883, 2521.00
1884, 2520.00
1885, 2520.00
1886, 2517.00
1887, 2517.00
1888, 2518.00
1889, 2516.00
1890, 2516.00
1891, 2515.00
1892, 2515.00
1893, 2515.00
1894, 2513.00
1895, 2514.00
1896, 2511.00
1897, 2513.00
1898, 2510.00
1899, 2512.00
1900, 2510.00
1901, 2510.00
1902, 2509.00
1903, 2510.00
1904, 2507.00
1905, 2508.00
1906, 2508.00
1907, 2508.00
1908, 2507.00
1909, 2507.00
1910, 2505.00
1911, 2506.00
1912, 2506.00
1913, 2506.00
1914, 2505.00
1915, 2506.00
1916, 2506.00
1917, 2504.00
1918, 2505.00
1919, 2504.00
1920, 2505.00
1921, 2505.00
1922, 2505.00
1923, 2504.00
1924, 2503.00
1925, 2506.00
1926, 2506.00
1927, 2505.00
1928, 2504.00
1929, 2504.00
1930, 2505.00
1931, 2505.00
1932, 2505.00
1933, 2505.00
1934, 2506.00
1935, 2507.00
1936, 2506.00
1937, 2505.00
1938, 2506.00
1939, 2505.00
1940, 2504.00
1941, 2507.00
1942, 2506.00
1943, 2507.00
1944, 2507.00
1945, 2507.00
1946, 2508.00
1947, 2508.00
1948, 2506.00
1949, 2508.00
1950, 2509.00
1951, 2507.00
1952, 2511.00
1953, 2511.00
1954, 2509.00
1955, 2510.00
1956, 2511.00
1957, 2513.00
1958, 2512.00
1959, 2512.00
1960, 2513.00
1961, 2512.00
1962, 2511.00
1963, 2515.00
1964, 2512.00
1965, 2514.00
1966, 2515.00
1967, 2516.00
1968, 2515.00
1969, 2513.00
1970, 2517.00
1971, 2517.00
1972, 2523.00
1973, 2519.00
1974, 2519.00
1975, 2519.00
1976, 2523.00
1977, 2522.00
1978, 2521.00
1979, 2522.00
1980, 2522.00
1981, 2521.00
1982, 2524.00
1983, 2524.00
1984, 2525.00
1985, 2526.00
1986, 2527.00
1987, 2525.00
1988, 2528.00
1989, 2529.00
1990, 2529.00
1991, 2530.00
1992, 2530.00
1993, 2529.00
1994, 2532.00
1995, 2530.00
1996, 2532.00
1997, 2535.00
1998, 2534.00
1999, 2534.00
2000, 2532.00
2001, 2535.00
2002, 2537.00
2003, 2536.00
2004, 2536.00
2005, 2539.00
2006, 2538.00
2007, 2537.00
2008, 2541.00
2009, 2539.00
2010, 2542.00
2011, 2542.00
2012, 2543.00
2013, 2543.00
2014, 2543.00
2015, 2545.00
2016, 2545.00
2017, 2544.00
2018, 2546.00
2019, 2546.00
2020, 2545.00
2021, 2547.00
2022, 2547.00
2023, 2547.00
2024, 2551.00
2025, 2548.00
2026, 2552.00
2027, 2551.00
2028, 2551.00
2029, 2551.00
2030, 2554.00
2031, 2555.00
2032, 2555.00
2033, 2555.00
2034, 2556.00
2035, 2558.00
2036, 2557.00
2037, 2560.00
2038, 2559.00
2039, 2558.00
2040, 2561.00
2041, 2560.00
2042, 2561.00
2043, 2563.00
2044, 2565.00
2045, 2564.00
2046, 2566.00
2047, 2567.00
2048, 2566.00
2049, 2565.00
2050, 2571.00
2051, 2569.00
2052, 2571.00
2053, 2572.00
2054, 2573.00
2055, 2574.00
2056, 2575.00
2057, 2575.00
2058, 2578.00
2059, 2577.00
2060, 2579.00
2061, 2580.00
2062, 2581.00
2063, 2582.00
2064, 2582.00
2065, 2583.00
2066, 2584.00
2067, 2582.00
2068, 2586.00
2069, 2586.00
2070, 2588.00
2071, 2588.00
2072, 2589.00
2073, 2589.00
2074, 2589.00
2075, 2591.00
2076, 2591.00
2077, 2594.00
2078, 2595.00
2079, 2595.00
2080, 2596.00
2081, 2598.00
2082, 2597.00
2083, 2599.00
2084, 2597.00
2085, 2598.00
2086, 2601.00
2087, 2602.00
2088, 2603.00
2089, 2604.00
2090, 2604.00
2091, 2606.00
2092, 2606.00
2093, 2606.00
2094, 2607.00
2095, 2606.00
2096, 2608.00
2097, 2609.00
2098, 2609.00
2099, 2610.00
2100, 2611.00
2101, 2610.00
2102, 2613.00
2103, 2611.00
2104, 2614.00
2105, 2614.00
2106, 2613.00
2107, 2615.00
2108, 2615.00
2109, 2613.00
2110, 2615.00
2111, 2615.00
2112, 2614.00
2113, 2617.00
2114, 2616.00
2115, 2615.00
2116, 2616.00
2117, 2619.00
2118, 2618.00
2119, 2619.00
2120, 2619.00
2121, 2619.00
2122, 2621.00
2123, 2621.00
2124, 2621.00
2125, 2620.00
2126, 2620.00
2127, 2620.00
2128, 2621.00
2129, 2622.00
2130, 2624.00
2131, 2622.00
2132, 2624.00
2133, 2624.00
2134, 2624.00
2135, 2625.00
2136, 2624.00
2137, 2626.00
2138, 2626.00
2139, 2628.00
2140, 2628.00
2141, 2626.00
2142, 2628.00
2143, 2627.00
2144, 2626.00
2145, 2627.00
2146, 2628.00
2147, 2629.00
2148, 2627.00
2149, 2629.00
2150, 2630.00
