FW version: 24
Log Version: 3.0.3

General Info:
       Command/Macro Performed,            Timestamp,             Device ID, COM Port, UART/I2C, Test Name, Host Major, Host Minor, Host Revision, Host Git Commit
            Single_measurement,  2023_06_27_11_54_25,       Insight2_F4_xxx,    USB-C,      USB,          ,          0,          1,             1,      4031237645

Show Spectrometer Status:
l0_version, f4_version, battery_perc, battery_mVolt, accelerometer_temp, accelerometer_x, accelerometer_y, accelerometer_z, compass_temp, compass_x, compass_y, compass_z, lamp_0, lamp_1, gain_0, gain_1
        17,         24,           95,          2080,               5424,              16,              88,           18628,            0,     65335,     65501,     65534,   2047,   2047,    1,    1

Temperature Statistic Info:
NTC AVG [°C], NTC2 AVG [°C]
      36.835,        36.523

Statistic Info:
M1:  num,      min,      max,   median,      AVG,      STD,M2:  num,      min,      max,   median,      AVG,      STD
     301,   751.00,   881.00,   780.00,   794.22,  39.9884,     401,  1139.00,  1218.00,  1173.00,  1174.89,  25.8877,

Measurements:
Wavelength, Data Amplitude
1350, 770.00
1351, 770.00
1352, 770.00
1353, 770.00
1354, 768.00
1355, 768.00
1356, 769.00
1357, 768.00
1358, 768.00
1359, 768.00
1360, 767.00
1361, 767.00
1362, 766.00
1363, 766.00
1364, 765.00
1365, 765.00
1366, 764.00
1367, 763.00
1368, 762.00
1369, 762.00
1370, 762.00
1371, 762.00
1372, 760.00
1373, 760.00
1374, 760.00
1375, 760.00
1376, 759.00
1377, 758.00
1378, 759.00
1379, 758.00
1380, 757.00
1381, 758.00
1382, 757.00
1383, 757.00
1384, 755.00
1385, 756.00
1386, 755.00
1387, 755.00
1388, 755.00
1389, 755.00
1390, 755.00
1391, 753.00
1392, 754.00
1393, 754.00
1394, 754.00
1395, 753.00
1396, 753.00
1397, 754.00
1398, 754.00
1399, 753.00
1400, 753.00
1401, 753.00
1402, 753.00
1403, 753.00
1404, 754.00
1405, 753.00
1406, 752.00
1407, 753.00
1408, 753.00
1409, 752.00
1410, 753.00
1411, 752.00
1412, 752.00
1413, 753.00
1414, 752.00
1415, 752.00
1416, 753.00
1417, 753.00
1418, 752.00
1419, 752.00
1420, 752.00
1421, 753.00
1422, 753.00
1423, 753.00
1424, 752.00
1425, 754.00
1426, 751.00
1427, 752.00
1428, 753.00
1429, 752.00
1430, 753.00
1431, 753.00
1432, 754.00
1433, 754.00
1434, 754.00
1435, 754.00
1436, 754.00
1437, 754.00
1438, 754.00
1439, 755.00
1440, 755.00
1441, 757.00
1442, 756.00
1443, 757.00
1444, 756.00
1445, 756.00
1446, 757.00
1447, 756.00
1448, 758.00
1449, 757.00
1450, 758.00
1451, 758.00
1452, 758.00
1453, 758.00
1454, 759.00
1455, 759.00
1456, 760.00
1457, 759.00
1458, 760.00
1459, 760.00
1460, 761.00
1461, 761.00
1462, 762.00
1463, 762.00
1464, 761.00
1465, 763.00
1466, 763.00
1467, 763.00
1468, 763.00
1469, 764.00
1470, 764.00
1471, 765.00
1472, 765.00
1473, 766.00
1474, 766.00
1475, 766.00
1476, 767.00
1477, 766.00
1478, 768.00
1479, 769.00
1480, 769.00
1481, 770.00
1482, 771.00
1483, 770.00
1484, 771.00
1485, 772.00
1486, 772.00
1487, 773.00
1488, 773.00
1489, 773.00
1490, 774.00
1491, 774.00
1492, 776.00
1493, 776.00
1494, 777.00
1495, 777.00
1496, 778.00
1497, 778.00
1498, 778.00
1499, 780.00
1500, 780.00
1501, 781.00
1502, 781.00
1503, 782.00
1504, 782.00
1505, 784.00
1506, 783.00
1507, 783.00
1508, 785.00
1509, 786.00
1510, 785.00
1511, 786.00
1512, 787.00
1513, 786.00
1514, 788.00
1515, 790.00
1516, 789.00
1517, 789.00
1518, 790.00
1519, 792.00
1520, 792.00
1521, 792.00
1522, 794.00
1523, 794.00
1524, 793.00
1525, 794.00
1526, 795.00
1527, 796.00
1528, 796.00
1529, 797.00
1530, 798.00
1531, 798.00
1532, 800.00
1533, 801.00
1534, 800.00
1535, 801.00
1536, 802.00
1537, 802.00
1538, 802.00
1539, 803.00
1540, 804.00
1541, 805.00
1542, 806.00
1543, 805.00
1544, 807.00
1545, 808.00
1546, 808.00
1547, 808.00
1548, 809.00
1549, 809.00
1550, 810.00
1551, 810.00
1552, 811.00
1553, 812.00
1554, 812.00
1555, 813.00
1556, 814.00
1557, 814.00
1558, 815.00
1559, 815.00
1560, 816.00
1561, 817.00
1562, 818.00
1563, 818.00
1564, 819.00
1565, 819.00
1566, 821.00
1567, 821.00
1568, 822.00
1569, 821.00
1570, 823.00
1571, 823.00
1572, 824.00
1573, 825.00
1574, 826.00
1575, 827.00
1576, 827.00
1577, 828.00
1578, 828.00
1579, 829.00
1580, 829.00
1581, 830.00
1582, 832.00
1583, 832.00
1584, 833.00
1585, 832.00
1586, 834.00
1587, 834.00
1588, 835.00
1589, 835.00
1590, 837.00
1591, 837.00
1592, 837.00
1593, 839.00
1594, 838.00
1595, 839.00
1596, 840.00
1597, 841.00
1598, 841.00
1599, 843.00
1600, 843.00
1601, 843.00
1602, 844.00
1603, 845.00
1604, 846.00
1605, 846.00
1606, 847.00
1607, 848.00
1608, 849.00
1609, 849.00
1610, 850.00
1611, 851.00
1612, 853.00
1613, 853.00
1614, 854.00
1615, 855.00
1616, 855.00
1617, 855.00
1618, 857.00
1619, 858.00
1620, 859.00
1621, 859.00
1622, 861.00
1623, 861.00
1624, 861.00
1625, 863.00
1626, 864.00
1627, 863.00
1628, 866.00
1629, 867.00
1630, 867.00
1631, 867.00
1632, 868.00
1633, 868.00
1634, 870.00
1635, 870.00
1636, 871.00
1637, 872.00
1638, 872.00
1639, 873.00
1640, 874.00
1641, 874.00
1642, 875.00
1643, 875.00
1644, 876.00
1645, 876.00
1646, 877.00
1647, 878.00
1648, 879.00
1649, 880.00
1650, 881.00

1750, 1215.00
1751, 1216.00
1752, 1215.00
1753, 1215.00
1754, 1217.00
1755, 1215.00
1756, 1216.00
1757, 1215.00
1758, 1215.00
1759, 1216.00
1760, 1216.00
1761, 1216.00
1762, 1215.00
1763, 1216.00
1764, 1215.00
1765, 1215.00
1766, 1216.00
1767, 1215.00
1768, 1218.00
1769, 1216.00
1770, 1216.00
1771, 1214.00
1772, 1214.00
1773, 1214.00
1774, 1216.00
1775, 1213.00
1776, 1214.00
1777, 1214.00
1778, 1214.00
1779, 1215.00
1780, 1215.00
1781, 1213.00
1782, 1213.00
1783, 1213.00
1784, 1211.00
1785, 1210.00
1786, 1212.00
1787, 1212.00
1788, 1213.00
1789, 1212.00
1790, 1210.00
1791, 1210.00
1792, 1211.00
1793, 1210.00
1794, 1210.00
1795, 1209.00
1796, 1209.00
1797, 1209.00
1798, 1209.00
1799, 1209.00
1800, 1207.00
1801, 1207.00
1802, 1207.00
1803, 1207.00
1804, 1208.00
1805, 1209.00
1806, 1207.00
1807, 1206.00
1808, 1207.00
1809, 1206.00
1810, 1205.00
1811, 1205.00
1812, 1207.00
1813, 1205.00
1814, 1204.00
1815, 1203.00
1816, 1204.00
1817, 1205.00
1818, 1204.00
1819, 1203.00
1820, 1204.00
1821, 1203.00
1822, 1202.00
1823, 1203.00
1824, 1202.00
1825, 1200.00
1826, 1200.00
1827, 1199.00
1828, 1199.00
1829, 1198.00
1830, 1197.00
1831, 1196.00
1832, 1195.00
1833, 1195.00
1834, 1195.00
1835, 1192.00
1836, 1190.00
1837, 1191.00
1838, 1190.00
1839, 1188.00
1840, 1188.00
1841, 1187.00
1842, 1186.00
1843, 1184.00
1844, 1184.00
1845, 1182.00
1846, 1181.00
1847, 1179.00
1848, 1179.00
1849, 1177.00
1850, 1176.00
1851, 1173.00
1852, 1174.00
1853, 1173.00
1854, 1170.00
1855, 1169.00
1856, 1168.00
1857, 1167.00
1858, 1166.00
1859, 1164.00
1860, 1164.00
1861, 1161.00
1862, 1162.00
1863, 1162.00
1864, 1160.00
1865, 1160.00
1866, 1159.00
1867, 1158.00
1868, 1156.00
1869, 1155.00
1870, 1154.00
1871, 1156.00
1872, 1154.00
1873, 1153.00
1874, 1153.00
1875, 1150.00
1876, 1152.00
1877, 1151.00
1878, 1149.00
1879, 1150.00
1880, 1150.00
1881, 1147.00
1882, 1148.00
1883, 1149.00
1884, 1147.00
1885, 1147.00
1886, 1147.00
1887, 1147.00
1888, 1145.00
1889, 1145.00
1890, 1145.00
1891, 1147.00
1892, 1142.00
1893, 1144.00
1894, 1144.00
1895, 1144.00
1896, 1144.00
1897, 1144.00
1898, 1144.00
1899, 1142.00
1900, 1142.00
1901, 1144.00
1902, 1142.00
1903, 1142.00
1904, 1142.00
1905, 1142.00
1906, 1141.00
1907, 1142.00
1908, 1142.00
1909, 1142.00
1910, 1141.00
1911, 1139.00
1912, 1140.00
1913, 1141.00
1914, 1142.00
1915, 1141.00
1916, 1139.00
1917, 1141.00
1918, 1141.00
1919, 1141.00
1920, 1139.00
1921, 1140.00
1922, 1141.00
1923, 1140.00
1924, 1139.00
1925, 1140.00
1926, 1141.00
1927, 1140.00
1928, 1140.00
1929, 1140.00
1930, 1141.00
1931, 1140.00
1932, 1140.00
1933, 1141.00
1934, 1140.00
1935, 1141.00
1936, 1141.00
1937, 1141.00
1938, 1140.00
1939, 1142.00
1940, 1140.00
1941, 1143.00
1942, 1142.00
1943, 1141.00
1944, 1141.00
1945, 1141.00
1946, 1143.00
1947, 1141.00
1948, 1143.00
1949, 1142.00
1950, 1143.00
1951, 1142.00
1952, 1144.00
1953, 1143.00
1954, 1143.00
1955, 1143.00
1956, 1143.00
1957, 1144.00
1958, 1144.00
1959, 1143.00
1960, 1145.00
1961, 1145.00
1962, 1144.00
1963, 1144.00
1964, 1146.00
1965, 1145.00
1966, 1145.00
1967, 1146.00
1968, 1145.00
1969, 1145.00
1970, 1147.00
1971, 1146.00
1972, 1146.00
1973, 1148.00
1974, 1147.00
1975, 1147.00
1976, 1148.00
1977, 1150.00
1978, 1147.00
1979, 1149.00
1980, 1149.00
1981, 1148.00
1982, 1150.00
1983, 1150.00
1984, 1151.00
1985, 1151.00
1986, 1150.00
1987, 1150.00
1988, 1152.00
1989, 1152.00
1990, 1154.00
1991, 1152.00
1992, 1152.00
1993, 1153.00
1994, 1154.00
1995, 1152.00
1996, 1153.00
1997, 1155.00
1998, 1155.00
1999, 1155.00
2000, 1154.00
2001, 1155.00
2002, 1155.00
2003, 1154.00
2004, 1155.00
2005, 1157.00
2006, 1158.00
2007, 1157.00
2008, 1160.00
2009, 1159.00
2010, 1158.00
2011, 1159.00
2012, 1158.00
2013, 1158.00
2014, 1160.00
2015, 1160.00
2016, 1158.00
2017, 1160.00
2018, 1161.00
2019, 1161.00
2020, 1161.00
2021, 1160.00
2022, 1162.00
2023, 1161.00
2024, 1163.00
2025, 1161.00
2026, 1163.00
2027, 1162.00
2028, 1164.00
2029, 1164.00
2030, 1165.00
2031, 1165.00
2032, 1165.00
2033, 1164.00
2034, 1165.00
2035, 1166.00
2036, 1166.00
2037, 1165.00
2038, 1168.00
2039, 1165.00
2040, 1168.00
2041, 1169.00
2042, 1168.00
2043, 1168.00
2044, 1170.00
2045, 1170.00
2046, 1169.00
2047, 1170.00
2048, 1170.00
2049, 1172.00
2050, 1172.00
2051, 1172.00
2052, 1173.00
2053, 1173.00
2054, 1172.00
2055, 1174.00
2056, 1174.00
2057, 1176.00
2058, 1176.00
2059, 1175.00
2060, 1178.00
2061, 1177.00
2062, 1177.00
2063, 1178.00
2064, 1178.00
2065, 1180.00
2066, 1179.00
2067, 1181.00
2068, 1180.00
2069, 1180.00
2070, 1181.00
2071, 1182.00
2072, 1180.00
2073, 1181.00
2074, 1183.00
2075, 1184.00
2076, 1182.00
2077, 1184.00
2078, 1184.00
2079, 1184.00
2080, 1187.00
2081, 1187.00
2082, 1188.00
2083, 1187.00
2084, 1188.00
2085, 1188.00
2086, 1189.00
2087, 1189.00
2088, 1189.00
2089, 1189.00
2090, 1189.00
2091, 1189.00
2092, 1190.00
2093, 1190.00
2094, 1193.00
2095, 1191.00
2096, 1191.00
2097, 1190.00
2098, 1193.00
2099, 1193.00
2100, 1193.00
2101, 1194.00
2102, 1193.00
2103, 1193.00
2104, 1194.00
2105, 1196.00
2106, 1195.00
2107, 1194.00
2108, 1195.00
2109, 1196.00
2110, 1194.00
2111, 1195.00
2112, 1196.00
2113, 1197.00
2114, 1197.00
2115, 1197.00
2116, 1197.00
2117, 1196.00
2118, 1196.00
2119, 1198.00
2120, 1197.00
2121, 1198.00
2122, 1198.00
2123, 1198.00
2124, 1197.00
2125, 1199.00
2126, 1199.00
2127, 1198.00
2128, 1198.00
2129, 1201.00
2130, 1201.00
2131, 1201.00
2132, 1199.00
2133, 1201.00
2134, 1200.00
2135, 1201.00
2136, 1200.00
2137, 1202.00
2138, 1202.00
2139, 1200.00
2140, 1203.00
2141, 1202.00
2142, 1203.00
2143, 1201.00
2144, 1202.00
2145, 1205.00
2146, 1203.00
2147, 1204.00
2148, 1204.00
2149, 1203.00
2150, 1204.00
