FW version: 24
Log Version: 3.0.3

General Info:
       Command/Macro Performed,            Timestamp,             Device ID, COM Port, UART/I2C, Test Name, Host Major, Host Minor, Host Revision, Host Git Commit
            Single_measurement,  2023_06_27_11_54_12,       Insight2_F4_xxx,    USB-C,      USB,          ,          0,          1,             1,      4031237645

Show Spectrometer Status:
l0_version, f4_version, battery_perc, battery_mVolt, accelerometer_temp, accelerometer_x, accelerometer_y, accelerometer_z, compass_temp, compass_x, compass_y, compass_z, lamp_0, lamp_1, gain_0, gain_1
        17,         24,           95,          2078,               5440,           65532,              72,           18468,            0,     65534,     65481,     65398,   3276,   3276,    0,    0

Temperature Statistic Info:
NTC AVG [°C], NTC2 AVG [°C]
      36.778,        36.494

Statistic Info:
M1:  num,      min,      max,   median,      AVG,      STD,M2:  num,      min,      max,   median,      AVG,      STD
     301,   652.00,   751.00,   672.00,   684.55,  30.4427,     401,   872.00,   932.00,   896.00,   898.04,  19.2746,

Measurements:
Wavelength, Data Amplitude
1350, 671.00
1351, 670.00
1352, 670.00
1353, 670.00
1354, 669.00
1355, 669.00
1356, 669.00
1357, 668.00
1358, 668.00
1359, 668.00
1360, 667.00
1361, 667.00
1362, 666.00
1363, 666.00
1364, 665.00
1365, 665.00
1366, 664.00
1367, 665.00
1368, 664.00
1369, 663.00
1370, 663.00
1371, 663.00
1372, 662.00
1373, 661.00
1374, 661.00
1375, 661.00
1376, 660.00
1377, 659.00
1378, 659.00
1379, 659.00
1380, 658.00
1381, 658.00
1382, 658.00
1383, 657.00
1384, 657.00
1385, 657.00
1386, 657.00
1387, 656.00
1388, 656.00
1389, 656.00
1390, 655.00
1391, 656.00
1392, 655.00
1393, 655.00
1394, 655.00
1395, 655.00
1396, 654.00
1397, 654.00
1398, 655.00
1399, 654.00
1400, 653.00
1401, 654.00
1402, 654.00
1403, 653.00
1404, 653.00
1405, 653.00
1406, 653.00
1407, 653.00
1408, 653.00
1409, 653.00
1410, 653.00
1411, 653.00
1412, 653.00
1413, 653.00
1414, 653.00
1415, 653.00
1416, 653.00
1417, 653.00
1418, 653.00
1419, 653.00
1420, 652.00
1421, 652.00
1422, 652.00
1423, 653.00
1424, 652.00
1425, 652.00
1426, 653.00
1427, 653.00
1428, 653.00
1429, 653.00
1430, 653.00
1431, 653.00
1432, 653.00
1433, 653.00
1434, 653.00
1435, 653.00
1436, 654.00
1437, 653.00
1438, 654.00
1439, 654.00
1440, 654.00
1441, 654.00
1442, 655.00
1443, 654.00
1444, 655.00
1445, 655.00
1446, 655.00
1447, 655.00
1448, 656.00
1449, 656.00
1450, 656.00
1451, 656.00
1452, 656.00
1453, 656.00
1454, 657.00
1455, 657.00
1456, 657.00
1457, 657.00
1458, 657.00
1459, 658.00
1460, 658.00
1461, 658.00
1462, 658.00
1463, 658.00
1464, 659.00
1465, 659.00
1466, 660.00
1467, 660.00
1468, 661.00
1469, 660.00
1470, 661.00
1471, 661.00
1472, 662.00
1473, 662.00
1474, 661.00
1475, 662.00
1476, 663.00
1477, 663.00
1478, 664.00
1479, 664.00
1480, 664.00
1481, 665.00
1482, 665.00
1483, 666.00
1484, 666.00
1485, 666.00
1486, 667.00
1487, 667.00
1488, 667.00
1489, 668.00
1490, 668.00
1491, 669.00
1492, 669.00
1493, 670.00
1494, 670.00
1495, 670.00
1496, 670.00
1497, 671.00
1498, 672.00
1499, 672.00
1500, 672.00
1501, 673.00
1502, 673.00
1503, 674.00
1504, 674.00
1505, 675.00
1506, 674.00
1507, 675.00
1508, 676.00
1509, 676.00
1510, 676.00
1511, 677.00
1512, 678.00
1513, 678.00
1514, 678.00
1515, 679.00
1516, 679.00
1517, 680.00
1518, 680.00
1519, 681.00
1520, 681.00
1521, 681.00
1522, 682.00
1523, 682.00
1524, 683.00
1525, 683.00
1526, 684.00
1527, 684.00
1528, 685.00
1529, 685.00
1530, 686.00
1531, 686.00
1532, 687.00
1533, 687.00
1534, 688.00
1535, 688.00
1536, 688.00
1537, 689.00
1538, 690.00
1539, 690.00
1540, 691.00
1541, 691.00
1542, 691.00
1543, 692.00
1544, 692.00
1545, 693.00
1546, 693.00
1547, 694.00
1548, 695.00
1549, 695.00
1550, 695.00
1551, 696.00
1552, 696.00
1553, 697.00
1554, 698.00
1555, 698.00
1556, 698.00
1557, 699.00
1558, 700.00
1559, 700.00
1560, 701.00
1561, 701.00
1562, 702.00
1563, 702.00
1564, 703.00
1565, 704.00
1566, 705.00
1567, 705.00
1568, 706.00
1569, 706.00
1570, 707.00
1571, 707.00
1572, 708.00
1573, 709.00
1574, 709.00
1575, 710.00
1576, 710.00
1577, 710.00
1578, 711.00
1579, 711.00
1580, 712.00
1581, 712.00
1582, 713.00
1583, 714.00
1584, 714.00
1585, 715.00
1586, 715.00
1587, 716.00
1588, 716.00
1589, 717.00
1590, 717.00
1591, 718.00
1592, 717.00
1593, 718.00
1594, 718.00
1595, 720.00
1596, 719.00
1597, 720.00
1598, 721.00
1599, 722.00
1600, 722.00
1601, 723.00
1602, 723.00
1603, 723.00
1604, 725.00
1605, 725.00
1606, 725.00
1607, 726.00
1608, 726.00
1609, 727.00
1610, 728.00
1611, 728.00
1612, 729.00
1613, 730.00
1614, 729.00
1615, 730.00
1616, 731.00
1617, 732.00
1618, 732.00
1619, 733.00
1620, 733.00
1621, 734.00
1622, 735.00
1623, 736.00
1624, 736.00
1625, 737.00
1626, 737.00
1627, 738.00
1628, 739.00
1629, 740.00
1630, 740.00
1631, 740.00
1632, 742.00
1633, 742.00
1634, 742.00
1635, 742.00
1636, 744.00
1637, 744.00
1638, 744.00
1639, 745.00
1640, 746.00
1641, 746.00
1642, 747.00
1643, 746.00
1644, 747.00
1645, 748.00
1646, 749.00
1647, 749.00
1648, 749.00
1649, 750.00
1650, 751.00

1750, 931.00
1751, 931.00
1752, 931.00
1753, 932.00
1754, 931.00
1755, 931.00
1756, 931.00
1757, 931.00
1758, 930.00
1759, 931.00
1760, 931.00
1761, 931.00
1762, 930.00
1763, 930.00
1764, 930.00
1765, 931.00
1766, 931.00
1767, 931.00
1768, 930.00
1769, 931.00
1770, 930.00
1771, 930.00
1772, 930.00
1773, 930.00
1774, 929.00
1775, 929.00
1776, 928.00
1777, 929.00
1778, 929.00
1779, 929.00
1780, 929.00
1781, 929.00
1782, 928.00
1783, 928.00
1784, 927.00
1785, 928.00
1786, 927.00
1787, 927.00
1788, 927.00
1789, 927.00
1790, 926.00
1791, 926.00
1792, 926.00
1793, 926.00
1794, 926.00
1795, 925.00
1796, 925.00
1797, 925.00
1798, 925.00
1799, 925.00
1800, 925.00
1801, 924.00
1802, 924.00
1803, 924.00
1804, 924.00
1805, 923.00
1806, 923.00
1807, 923.00
1808, 923.00
1809, 923.00
1810, 923.00
1811, 922.00
1812, 922.00
1813, 922.00
1814, 922.00
1815, 922.00
1816, 921.00
1817, 921.00
1818, 921.00
1819, 921.00
1820, 919.00
1821, 920.00
1822, 920.00
1823, 919.00
1824, 919.00
1825, 918.00
1826, 918.00
1827, 917.00
1828, 916.00
1829, 916.00
1830, 915.00
1831, 915.00
1832, 915.00
1833, 914.00
1834, 913.00
1835, 913.00
1836, 911.00
1837, 911.00
1838, 910.00
1839, 909.00
1840, 909.00
1841, 907.00
1842, 907.00
1843, 906.00
1844, 905.00
1845, 904.00
1846, 903.00
1847, 903.00
1848, 902.00
1849, 901.00
1850, 900.00
1851, 899.00
1852, 898.00
1853, 897.00
1854, 896.00
1855, 895.00
1856, 895.00
1857, 894.00
1858, 893.00
1859, 892.00
1860, 891.00
1861, 890.00
1862, 889.00
1863, 888.00
1864, 888.00
1865, 887.00
1866, 887.00
1867, 886.00
1868, 885.00
1869, 884.00
1870, 884.00
1871, 884.00
1872, 882.00
1873, 882.00
1874, 882.00
1875, 882.00
1876, 881.00
1877, 881.00
1878, 880.00
1879, 879.00
1880, 880.00
1881, 879.00
1882, 879.00
1883, 878.00
1884, 879.00
1885, 878.00
1886, 877.00
1887, 877.00
1888, 877.00
1889, 877.00
1890, 877.00
1891, 876.00
1892, 877.00
1893, 876.00
1894, 876.00
1895, 876.00
1896, 875.00
1897, 875.00
1898, 875.00
1899, 875.00
1900, 875.00
1901, 875.00
1902, 874.00
1903, 874.00
1904, 874.00
1905, 874.00
1906, 874.00
1907, 874.00
1908, 873.00
1909, 874.00
1910, 874.00
1911, 873.00
1912, 873.00
1913, 873.00
1914, 873.00
1915, 873.00
1916, 874.00
1917, 873.00
1918, 873.00
1919, 873.00
1920, 874.00
1921, 873.00
1922, 873.00
1923, 873.00
1924, 873.00
1925, 873.00
1926, 873.00
1927, 873.00
1928, 872.00
1929, 873.00
1930, 873.00
1931, 873.00
1932, 873.00
1933, 872.00
1934, 872.00
1935, 873.00
1936, 873.00
1937, 873.00
1938, 873.00
1939, 873.00
1940, 873.00
1941, 873.00
1942, 874.00
1943, 873.00
1944, 873.00
1945, 874.00
1946, 874.00
1947, 874.00
1948, 874.00
1949, 874.00
1950, 873.00
1951, 875.00
1952, 875.00
1953, 875.00
1954, 875.00
1955, 875.00
1956, 875.00
1957, 875.00
1958, 875.00
1959, 875.00
1960, 876.00
1961, 876.00
1962, 876.00
1963, 875.00
1964, 876.00
1965, 877.00
1966, 877.00
1967, 876.00
1968, 877.00
1969, 877.00
1970, 877.00
1971, 877.00
1972, 877.00
1973, 878.00
1974, 878.00
1975, 878.00
1976, 878.00
1977, 878.00
1978, 878.00
1979, 878.00
1980, 879.00
1981, 879.00
1982, 880.00
1983, 880.00
1984, 880.00
1985, 880.00
1986, 881.00
1987, 880.00
1988, 880.00
1989, 881.00
1990, 882.00
1991, 881.00
1992, 881.00
1993, 882.00
1994, 882.00
1995, 883.00
1996, 883.00
1997, 883.00
1998, 882.00
1999, 883.00
2000, 883.00
2001, 883.00
2002, 884.00
2003, 883.00
2004, 884.00
2005, 883.00
2006, 884.00
2007, 884.00
2008, 884.00
2009, 885.00
2010, 886.00
2011, 886.00
2012, 886.00
2013, 886.00
2014, 887.00
2015, 887.00
2016, 886.00
2017, 886.00
2018, 887.00
2019, 887.00
2020, 887.00
2021, 887.00
2022, 888.00
2023, 887.00
2024, 889.00
2025, 888.00
2026, 889.00
2027, 889.00
2028, 889.00
2029, 889.00
2030, 890.00
2031, 890.00
2032, 889.00
2033, 891.00
2034, 890.00
2035, 890.00
2036, 891.00
2037, 891.00
2038, 892.00
2039, 892.00
2040, 892.00
2041, 892.00
2042, 893.00
2043, 893.00
2044, 893.00
2045, 893.00
2046, 894.00
2047, 893.00
2048, 894.00
2049, 894.00
2050, 895.00
2051, 895.00
2052, 895.00
2053, 895.00
2054, 896.00
2055, 896.00
2056, 896.00
2057, 897.00
2058, 897.00
2059, 897.00
2060, 898.00
2061, 897.00
2062, 899.00
2063, 899.00
2064, 900.00
2065, 900.00
2066, 900.00
2067, 901.00
2068, 901.00
2069, 901.00
2070, 901.00
2071, 902.00
2072, 902.00
2073, 902.00
2074, 903.00
2075, 903.00
2076, 903.00
2077, 903.00
2078, 904.00
2079, 904.00
2080, 904.00
2081, 904.00
2082, 904.00
2083, 905.00
2084, 905.00
2085, 906.00
2086, 906.00
2087, 906.00
2088, 906.00
2089, 906.00
2090, 906.00
2091, 907.00
2092, 907.00
2093, 907.00
2094, 909.00
2095, 908.00
2096, 908.00
2097, 909.00
2098, 909.00
2099, 909.00
2100, 909.00
2101, 910.00
2102, 910.00
2103, 910.00
2104, 910.00
2105, 910.00
2106, 910.00
2107, 911.00
2108, 911.00
2109, 911.00
2110, 911.00
2111, 911.00
2112, 912.00
2113, 912.00
2114, 911.00
2115, 912.00
2116, 912.00
2117, 912.00
2118, 912.00
2119, 912.00
2120, 912.00
2121, 913.00
2122, 913.00
2123, 913.00
2124, 913.00
2125, 913.00
2126, 913.00
2127, 914.00
2128, 914.00
2129, 914.00
2130, 914.00
2131, 914.00
2132, 914.00
2133, 915.00
2134, 914.00
2135, 915.00
2136, 914.00
2137, 915.00
2138, 915.00
2139, 915.00
2140, 915.00
2141, 915.00
2142, 915.00
2143, 915.00
2144, 915.00
2145, 916.00
2146, 916.00
2147, 915.00
2148, 915.00
2149, 915.00
2150, 916.00
