FW version: 24
Log Version: 3.0.3

General Info:
       Command/Macro Performed,            Timestamp,             Device ID, COM Port, UART/I2C, Test Name, Host Major, Host Minor, Host Revision, Host Git Commit
            Single_measurement,  2023_06_27_11_21_23,       Insight2_F4_xxx,    USB-C,      USB,          ,          0,          1,             1,      4031237645

Show Spectrometer Status:
l0_version, f4_version, battery_perc, battery_mVolt, accelerometer_temp, accelerometer_x, accelerometer_y, accelerometer_z, compass_temp, compass_x, compass_y, compass_z, lamp_0, lamp_1, gain_0, gain_1
        17,         24,           95,          2076,               5344,           65404,             108,           18456,            0,     65407,     65389,     65405,   3276,   3276,    0,    0

Temperature Statistic Info:
NTC AVG [°C], NTC2 AVG [°C]
      36.351,        36.062

Statistic Info:
M1:  num,      min,      max,   median,      AVG,      STD,M2:  num,      min,      max,   median,      AVG,      STD
     301,   755.00,   868.00,   779.00,   792.48,  34.8337,     401,   989.00,  1060.00,  1016.00,  1019.15,  22.8971,

Measurements:
Wavelength, Data Amplitude
1350, 780.00
1351, 779.00
1352, 778.00
1353, 778.00
1354, 777.00
1355, 777.00
1356, 776.00
1357, 776.00
1358, 776.00
1359, 775.00
1360, 775.00
1361, 774.00
1362, 774.00
1363, 772.00
1364, 772.00
1365, 772.00
1366, 771.00
1367, 771.00
1368, 770.00
1369, 769.00
1370, 769.00
1371, 768.00
1372, 767.00
1373, 767.00
1374, 767.00
1375, 766.00
1376, 766.00
1377, 765.00
1378, 764.00
1379, 763.00
1380, 763.00
1381, 763.00
1382, 762.00
1383, 762.00
1384, 762.00
1385, 761.00
1386, 761.00
1387, 761.00
1388, 760.00
1389, 760.00
1390, 760.00
1391, 759.00
1392, 759.00
1393, 759.00
1394, 758.00
1395, 759.00
1396, 758.00
1397, 758.00
1398, 758.00
1399, 758.00
1400, 757.00
1401, 758.00
1402, 758.00
1403, 757.00
1404, 757.00
1405, 757.00
1406, 757.00
1407, 757.00
1408, 757.00
1409, 756.00
1410, 757.00
1411, 757.00
1412, 757.00
1413, 757.00
1414, 757.00
1415, 756.00
1416, 756.00
1417, 756.00
1418, 756.00
1419, 756.00
1420, 756.00
1421, 757.00
1422, 757.00
1423, 756.00
1424, 756.00
1425, 755.00
1426, 756.00
1427, 756.00
1428, 756.00
1429, 757.00
1430, 757.00
1431, 757.00
1432, 756.00
1433, 757.00
1434, 756.00
1435, 756.00
1436, 757.00
1437, 757.00
1438, 757.00
1439, 757.00
1440, 757.00
1441, 757.00
1442, 758.00
1443, 758.00
1444, 758.00
1445, 759.00
1446, 759.00
1447, 758.00
1448, 759.00
1449, 759.00
1450, 759.00
1451, 760.00
1452, 759.00
1453, 760.00
1454, 760.00
1455, 760.00
1456, 760.00
1457, 761.00
1458, 761.00
1459, 762.00
1460, 762.00
1461, 762.00
1462, 762.00
1463, 762.00
1464, 763.00
1465, 763.00
1466, 763.00
1467, 763.00
1468, 764.00
1469, 765.00
1470, 765.00
1471, 765.00
1472, 765.00
1473, 765.00
1474, 766.00
1475, 766.00
1476, 767.00
1477, 767.00
1478, 768.00
1479, 768.00
1480, 768.00
1481, 769.00
1482, 770.00
1483, 770.00
1484, 771.00
1485, 771.00
1486, 772.00
1487, 772.00
1488, 772.00
1489, 772.00
1490, 773.00
1491, 773.00
1492, 774.00
1493, 775.00
1494, 775.00
1495, 776.00
1496, 776.00
1497, 777.00
1498, 776.00
1499, 777.00
1500, 778.00
1501, 778.00
1502, 779.00
1503, 779.00
1504, 779.00
1505, 780.00
1506, 780.00
1507, 781.00
1508, 781.00
1509, 782.00
1510, 782.00
1511, 783.00
1512, 783.00
1513, 784.00
1514, 785.00
1515, 785.00
1516, 786.00
1517, 786.00
1518, 787.00
1519, 787.00
1520, 787.00
1521, 788.00
1522, 789.00
1523, 789.00
1524, 790.00
1525, 791.00
1526, 791.00
1527, 791.00
1528, 792.00
1529, 792.00
1530, 793.00
1531, 794.00
1532, 794.00
1533, 795.00
1534, 795.00
1535, 796.00
1536, 796.00
1537, 797.00
1538, 797.00
1539, 798.00
1540, 799.00
1541, 799.00
1542, 800.00
1543, 801.00
1544, 801.00
1545, 802.00
1546, 802.00
1547, 803.00
1548, 804.00
1549, 804.00
1550, 805.00
1551, 805.00
1552, 806.00
1553, 807.00
1554, 807.00
1555, 808.00
1556, 808.00
1557, 809.00
1558, 810.00
1559, 810.00
1560, 811.00
1561, 811.00
1562, 813.00
1563, 813.00
1564, 814.00
1565, 814.00
1566, 815.00
1567, 815.00
1568, 816.00
1569, 817.00
1570, 818.00
1571, 819.00
1572, 819.00
1573, 819.00
1574, 820.00
1575, 821.00
1576, 821.00
1577, 822.00
1578, 823.00
1579, 823.00
1580, 823.00
1581, 824.00
1582, 825.00
1583, 826.00
1584, 826.00
1585, 827.00
1586, 827.00
1587, 828.00
1588, 829.00
1589, 829.00
1590, 829.00
1591, 830.00
1592, 830.00
1593, 831.00
1594, 832.00
1595, 833.00
1596, 833.00
1597, 834.00
1598, 834.00
1599, 835.00
1600, 835.00
1601, 836.00
1602, 836.00
1603, 837.00
1604, 837.00
1605, 838.00
1606, 839.00
1607, 840.00
1608, 840.00
1609, 841.00
1610, 842.00
1611, 842.00
1612, 843.00
1613, 844.00
1614, 845.00
1615, 845.00
1616, 846.00
1617, 847.00
1618, 848.00
1619, 849.00
1620, 850.00
1621, 850.00
1622, 851.00
1623, 851.00
1624, 852.00
1625, 853.00
1626, 854.00
1627, 854.00
1628, 855.00
1629, 854.00
1630, 856.00
1631, 857.00
1632, 857.00
1633, 858.00
1634, 859.00
1635, 859.00
1636, 860.00
1637, 861.00
1638, 861.00
1639, 862.00
1640, 862.00
1641, 863.00
1642, 863.00
1643, 864.00
1644, 865.00
1645, 865.00
1646, 866.00
1647, 867.00
1648, 867.00
1649, 868.00
1650, 868.00

1750, 1060.00
1751, 1060.00
1752, 1060.00
1753, 1059.00
1754, 1059.00
1755, 1059.00
1756, 1059.00
1757, 1060.00
1758, 1059.00
1759, 1059.00
1760, 1060.00
1761, 1059.00
1762, 1059.00
1763, 1059.00
1764, 1059.00
1765, 1059.00
1766, 1060.00
1767, 1059.00
1768, 1059.00
1769, 1059.00
1770, 1059.00
1771, 1058.00
1772, 1059.00
1773, 1058.00
1774, 1058.00
1775, 1058.00
1776, 1058.00
1777, 1058.00
1778, 1057.00
1779, 1057.00
1780, 1057.00
1781, 1056.00
1782, 1056.00
1783, 1056.00
1784, 1056.00
1785, 1056.00
1786, 1056.00
1787, 1055.00
1788, 1054.00
1789, 1055.00
1790, 1053.00
1791, 1054.00
1792, 1055.00
1793, 1055.00
1794, 1053.00
1795, 1053.00
1796, 1052.00
1797, 1052.00
1798, 1053.00
1799, 1053.00
1800, 1052.00
1801, 1052.00
1802, 1051.00
1803, 1051.00
1804, 1051.00
1805, 1050.00
1806, 1050.00
1807, 1050.00
1808, 1050.00
1809, 1050.00
1810, 1050.00
1811, 1048.00
1812, 1049.00
1813, 1048.00
1814, 1049.00
1815, 1048.00
1816, 1048.00
1817, 1048.00
1818, 1047.00
1819, 1046.00
1820, 1046.00
1821, 1045.00
1822, 1045.00
1823, 1045.00
1824, 1044.00
1825, 1044.00
1826, 1044.00
1827, 1043.00
1828, 1042.00
1829, 1041.00
1830, 1041.00
1831, 1039.00
1832, 1039.00
1833, 1038.00
1834, 1037.00
1835, 1037.00
1836, 1035.00
1837, 1034.00
1838, 1034.00
1839, 1033.00
1840, 1032.00
1841, 1031.00
1842, 1030.00
1843, 1029.00
1844, 1028.00
1845, 1027.00
1846, 1025.00
1847, 1025.00
1848, 1024.00
1849, 1022.00
1850, 1021.00
1851, 1020.00
1852, 1019.00
1853, 1018.00
1854, 1017.00
1855, 1016.00
1856, 1015.00
1857, 1014.00
1858, 1013.00
1859, 1012.00
1860, 1011.00
1861, 1010.00
1862, 1010.00
1863, 1009.00
1864, 1007.00
1865, 1007.00
1866, 1006.00
1867, 1004.00
1868, 1004.00
1869, 1004.00
1870, 1003.00
1871, 1003.00
1872, 1002.00
1873, 1001.00
1874, 1001.00
1875, 1000.00
1876, 999.00
1877, 999.00
1878, 999.00
1879, 999.00
1880, 998.00
1881, 997.00
1882, 997.00
1883, 997.00
1884, 997.00
1885, 997.00
1886, 996.00
1887, 995.00
1888, 996.00
1889, 995.00
1890, 995.00
1891, 995.00
1892, 995.00
1893, 995.00
1894, 994.00
1895, 994.00
1896, 993.00
1897, 994.00
1898, 993.00
1899, 993.00
1900, 992.00
1901, 993.00
1902, 993.00
1903, 992.00
1904, 992.00
1905, 992.00
1906, 991.00
1907, 991.00
1908, 992.00
1909, 991.00
1910, 991.00
1911, 991.00
1912, 991.00
1913, 991.00
1914, 990.00
1915, 991.00
1916, 991.00
1917, 991.00
1918, 991.00
1919, 990.00
1920, 990.00
1921, 990.00
1922, 990.00
1923, 990.00
1924, 991.00
1925, 991.00
1926, 991.00
1927, 990.00
1928, 990.00
1929, 990.00
1930, 990.00
1931, 990.00
1932, 990.00
1933, 991.00
1934, 989.00
1935, 990.00
1936, 989.00
1937, 991.00
1938, 991.00
1939, 991.00
1940, 991.00
1941, 991.00
1942, 990.00
1943, 991.00
1944, 990.00
1945, 991.00
1946, 991.00
1947, 991.00
1948, 991.00
1949, 991.00
1950, 991.00
1951, 992.00
1952, 991.00
1953, 992.00
1954, 993.00
1955, 992.00
1956, 992.00
1957, 993.00
1958, 992.00
1959, 993.00
1960, 993.00
1961, 994.00
1962, 993.00
1963, 993.00
1964, 993.00
1965, 994.00
1966, 993.00
1967, 994.00
1968, 994.00
1969, 995.00
1970, 994.00
1971, 995.00
1972, 995.00
1973, 995.00
1974, 995.00
1975, 996.00
1976, 996.00
1977, 996.00
1978, 996.00
1979, 996.00
1980, 996.00
1981, 997.00
1982, 998.00
1983, 997.00
1984, 997.00
1985, 998.00
1986, 998.00
1987, 998.00
1988, 999.00
1989, 998.00
1990, 999.00
1991, 999.00
1992, 999.00
1993, 999.00
1994, 1001.00
1995, 1000.00
1996, 1000.00
1997, 1000.00
1998, 1000.00
1999, 1000.00
2000, 1002.00
2001, 1001.00
2002, 1001.00
2003, 1002.00
2004, 1002.00
2005, 1001.00
2006, 1002.00
2007, 1002.00
2008, 1003.00
2009, 1003.00
2010, 1003.00
2011, 1003.00
2012, 1003.00
2013, 1004.00
2014, 1004.00
2015, 1004.00
2016, 1005.00
2017, 1004.00
2018, 1005.00
2019, 1005.00
2020, 1006.00
2021, 1006.00
2022, 1007.00
2023, 1007.00
2024, 1006.00
2025, 1006.00
2026, 1006.00
2027, 1007.00
2028, 1008.00
2029, 1008.00
2030, 1008.00
2031, 1008.00
2032, 1008.00
2033, 1009.00
2034, 1009.00
2035, 1010.00
2036, 1010.00
2037, 1009.00
2038, 1010.00
2039, 1010.00
2040, 1011.00
2041, 1011.00
2042, 1011.00
2043, 1011.00
2044, 1011.00
2045, 1013.00
2046, 1013.00
2047, 1013.00
2048, 1013.00
2049, 1013.00
2050, 1014.00
2051, 1015.00
2052, 1014.00
2053, 1015.00
2054, 1015.00
2055, 1015.00
2056, 1016.00
2057, 1017.00
2058, 1017.00
2059, 1018.00
2060, 1018.00
2061, 1018.00
2062, 1018.00
2063, 1019.00
2064, 1019.00
2065, 1019.00
2066, 1020.00
2067, 1020.00
2068, 1020.00
2069, 1020.00
2070, 1021.00
2071, 1021.00
2072, 1023.00
2073, 1022.00
2074, 1022.00
2075, 1023.00
2076, 1024.00
2077, 1024.00
2078, 1024.00
2079, 1024.00
2080, 1026.00
2081, 1025.00
2082, 1026.00
2083, 1027.00
2084, 1026.00
2085, 1027.00
2086, 1027.00
2087, 1027.00
2088, 1028.00
2089, 1028.00
2090, 1029.00
2091, 1029.00
2092, 1028.00
2093, 1029.00
2094, 1029.00
2095, 1030.00
2096, 1031.00
2097, 1030.00
2098, 1031.00
2099, 1030.00
2100, 1031.00
2101, 1030.00
2102, 1031.00
2103, 1031.00
2104, 1032.00
2105, 1032.00
2106, 1032.00
2107, 1032.00
2108, 1033.00
2109, 1032.00
2110, 1033.00
2111, 1034.00
2112, 1034.00
2113, 1034.00
2114, 1034.00
2115, 1034.00
2116, 1034.00
2117, 1035.00
2118, 1034.00
2119, 1035.00
2120, 1034.00
2121, 1035.00
2122, 1035.00
2123, 1036.00
2124, 1036.00
2125, 1035.00
2126, 1035.00
2127, 1036.00
2128, 1035.00
2129, 1036.00
2130, 1036.00
2131, 1036.00
2132, 1037.00
2133, 1037.00
2134, 1037.00
2135, 1037.00
2136, 1038.00
2137, 1038.00
2138, 1038.00
2139, 1038.00
2140, 1038.00
2141, 1038.00
2142, 1038.00
2143, 1039.00
2144, 1038.00
2145, 1039.00
2146, 1039.00
2147, 1039.00
2148, 1039.00
2149, 1039.00
2150, 1040.00
