FW version: 24
Log Version: 3.0.3

General Info:
       Command/Macro Performed,            Timestamp,             Device ID, COM Port, UART/I2C, Test Name, Host Major, Host Minor, Host Revision, Host Git Commit
            Single_measurement,  2023_06_27_11_22_06,       Insight2_F4_xxx,    USB-C,      USB,          ,          0,          1,             1,      4031237645

Show Spectrometer Status:
l0_version, f4_version, battery_perc, battery_mVolt, accelerometer_temp, accelerometer_x, accelerometer_y, accelerometer_z, compass_temp, compass_x, compass_y, compass_z, lamp_0, lamp_1, gain_0, gain_1
        17,         24,           95,          2076,               5392,           65300,           65428,           18448,            0,     65373,     65526,     65392,   3276,   3276,    1,    1

Temperature Statistic Info:
NTC AVG [°C], NTC2 AVG [°C]
      36.778,        36.465

Statistic Info:
M1:  num,      min,      max,   median,      AVG,      STD,M2:  num,      min,      max,   median,      AVG,      STD
     301,  2189.00,  2516.00,  2256.00,  2296.09, 101.2169,     401,  2861.00,  3065.00,  2939.00,  2946.80,  65.7038,

Measurements:
Wavelength, Data Amplitude
1350, 2256.00
1351, 2256.00
1352, 2253.00
1353, 2253.00
1354, 2251.00
1355, 2250.00
1356, 2250.00
1357, 2249.00
1358, 2247.00
1359, 2245.00
1360, 2244.00
1361, 2240.00
1362, 2242.00
1363, 2239.00
1364, 2237.00
1365, 2235.00
1366, 2234.00
1367, 2231.00
1368, 2230.00
1369, 2227.00
1370, 2227.00
1371, 2225.00
1372, 2224.00
1373, 2222.00
1374, 2219.00
1375, 2217.00
1376, 2215.00
1377, 2214.00
1378, 2214.00
1379, 2213.00
1380, 2212.00
1381, 2210.00
1382, 2209.00
1383, 2207.00
1384, 2206.00
1385, 2204.00
1386, 2204.00
1387, 2203.00
1388, 2201.00
1389, 2202.00
1390, 2200.00
1391, 2199.00
1392, 2199.00
1393, 2199.00
1394, 2198.00
1395, 2197.00
1396, 2197.00
1397, 2197.00
1398, 2195.00
1399, 2196.00
1400, 2195.00
1401, 2195.00
1402, 2194.00
1403, 2193.00
1404, 2194.00
1405, 2193.00
1406, 2193.00
1407, 2192.00
1408, 2190.00
1409, 2191.00
1410, 2191.00
1411, 2191.00
1412, 2192.00
1413, 2192.00
1414, 2190.00
1415, 2191.00
1416, 2189.00
1417, 2191.00
1418, 2191.00
1419, 2192.00
1420, 2192.00
1421, 2191.00
1422, 2189.00
1423, 2189.00
1424, 2189.00
1425, 2190.00
1426, 2190.00
1427, 2190.00
1428, 2190.00
1429, 2191.00
1430, 2191.00
1431, 2191.00
1432, 2191.00
1433, 2192.00
1434, 2192.00
1435, 2193.00
1436, 2195.00
1437, 2194.00
1438, 2193.00
1439, 2193.00
1440, 2194.00
1441, 2195.00
1442, 2196.00
1443, 2198.00
1444, 2196.00
1445, 2195.00
1446, 2197.00
1447, 2198.00
1448, 2199.00
1449, 2200.00
1450, 2200.00
1451, 2201.00
1452, 2201.00
1453, 2201.00
1454, 2202.00
1455, 2203.00
1456, 2204.00
1457, 2206.00
1458, 2207.00
1459, 2206.00
1460, 2206.00
1461, 2206.00
1462, 2208.00
1463, 2208.00
1464, 2209.00
1465, 2211.00
1466, 2211.00
1467, 2212.00
1468, 2213.00
1469, 2215.00
1470, 2215.00
1471, 2217.00
1472, 2218.00
1473, 2219.00
1474, 2219.00
1475, 2222.00
1476, 2224.00
1477, 2223.00
1478, 2224.00
1479, 2227.00
1480, 2227.00
1481, 2229.00
1482, 2229.00
1483, 2230.00
1484, 2231.00
1485, 2233.00
1486, 2235.00
1487, 2237.00
1488, 2237.00
1489, 2238.00
1490, 2240.00
1491, 2241.00
1492, 2242.00
1493, 2245.00
1494, 2247.00
1495, 2249.00
1496, 2249.00
1497, 2249.00
1498, 2250.00
1499, 2252.00
1500, 2252.00
1501, 2255.00
1502, 2256.00
1503, 2258.00
1504, 2259.00
1505, 2260.00
1506, 2261.00
1507, 2262.00
1508, 2264.00
1509, 2265.00
1510, 2266.00
1511, 2269.00
1512, 2270.00
1513, 2271.00
1514, 2273.00
1515, 2275.00
1516, 2278.00
1517, 2278.00
1518, 2279.00
1519, 2281.00
1520, 2281.00
1521, 2284.00
1522, 2285.00
1523, 2288.00
1524, 2289.00
1525, 2291.00
1526, 2291.00
1527, 2292.00
1528, 2296.00
1529, 2297.00
1530, 2300.00
1531, 2301.00
1532, 2302.00
1533, 2303.00
1534, 2305.00
1535, 2307.00
1536, 2308.00
1537, 2309.00
1538, 2311.00
1539, 2312.00
1540, 2314.00
1541, 2316.00
1542, 2317.00
1543, 2319.00
1544, 2321.00
1545, 2324.00
1546, 2324.00
1547, 2327.00
1548, 2328.00
1549, 2331.00
1550, 2332.00
1551, 2333.00
1552, 2335.00
1553, 2336.00
1554, 2337.00
1555, 2341.00
1556, 2343.00
1557, 2344.00
1558, 2346.00
1559, 2348.00
1560, 2349.00
1561, 2351.00
1562, 2353.00
1563, 2355.00
1564, 2359.00
1565, 2360.00
1566, 2361.00
1567, 2363.00
1568, 2365.00
1569, 2367.00
1570, 2369.00
1571, 2372.00
1572, 2373.00
1573, 2373.00
1574, 2375.00
1575, 2378.00
1576, 2380.00
1577, 2383.00
1578, 2384.00
1579, 2385.00
1580, 2388.00
1581, 2389.00
1582, 2390.00
1583, 2393.00
1584, 2395.00
1585, 2395.00
1586, 2397.00
1587, 2399.00
1588, 2401.00
1589, 2402.00
1590, 2404.00
1591, 2407.00
1592, 2407.00
1593, 2409.00
1594, 2409.00
1595, 2411.00
1596, 2414.00
1597, 2417.00
1598, 2418.00
1599, 2419.00
1600, 2421.00
1601, 2422.00
1602, 2424.00
1603, 2426.00
1604, 2427.00
1605, 2429.00
1606, 2432.00
1607, 2434.00
1608, 2435.00
1609, 2437.00
1610, 2440.00
1611, 2442.00
1612, 2445.00
1613, 2446.00
1614, 2449.00
1615, 2451.00
1616, 2453.00
1617, 2454.00
1618, 2456.00
1619, 2457.00
1620, 2461.00
1621, 2464.00
1622, 2464.00
1623, 2466.00
1624, 2468.00
1625, 2470.00
1626, 2472.00
1627, 2477.00
1628, 2478.00
1629, 2478.00
1630, 2481.00
1631, 2482.00
1632, 2485.00
1633, 2487.00
1634, 2487.00
1635, 2489.00
1636, 2491.00
1637, 2495.00
1638, 2495.00
1639, 2497.00
1640, 2499.00
1641, 2500.00
1642, 2502.00
1643, 2504.00
1644, 2506.00
1645, 2507.00
1646, 2508.00
1647, 2512.00
1648, 2513.00
1649, 2515.00
1650, 2516.00

1750, 3064.00
1751, 3063.00
1752, 3064.00
1753, 3063.00
1754, 3063.00
1755, 3061.00
1756, 3065.00
1757, 3063.00
1758, 3063.00
1759, 3063.00
1760, 3062.00
1761, 3063.00
1762, 3063.00
1763, 3060.00
1764, 3061.00
1765, 3061.00
1766, 3061.00
1767, 3060.00
1768, 3061.00
1769, 3061.00
1770, 3060.00
1771, 3057.00
1772, 3057.00
1773, 3056.00
1774, 3058.00
1775, 3061.00
1776, 3057.00
1777, 3057.00
1778, 3057.00
1779, 3055.00
1780, 3054.00
1781, 3054.00
1782, 3051.00
1783, 3052.00
1784, 3051.00
1785, 3051.00
1786, 3051.00
1787, 3048.00
1788, 3050.00
1789, 3049.00
1790, 3048.00
1791, 3047.00
1792, 3046.00
1793, 3044.00
1794, 3044.00
1795, 3044.00
1796, 3043.00
1797, 3043.00
1798, 3043.00
1799, 3043.00
1800, 3042.00
1801, 3039.00
1802, 3040.00
1803, 3039.00
1804, 3039.00
1805, 3039.00
1806, 3038.00
1807, 3037.00
1808, 3033.00
1809, 3035.00
1810, 3032.00
1811, 3031.00
1812, 3031.00
1813, 3031.00
1814, 3031.00
1815, 3032.00
1816, 3027.00
1817, 3027.00
1818, 3026.00
1819, 3025.00
1820, 3022.00
1821, 3021.00
1822, 3019.00
1823, 3021.00
1824, 3018.00
1825, 3017.00
1826, 3015.00
1827, 3014.00
1828, 3011.00
1829, 3010.00
1830, 3006.00
1831, 3004.00
1832, 3003.00
1833, 3000.00
1834, 2999.00
1835, 2994.00
1836, 2991.00
1837, 2992.00
1838, 2990.00
1839, 2986.00
1840, 2983.00
1841, 2981.00
1842, 2976.00
1843, 2972.00
1844, 2970.00
1845, 2969.00
1846, 2965.00
1847, 2963.00
1848, 2960.00
1849, 2954.00
1850, 2952.00
1851, 2949.00
1852, 2946.00
1853, 2944.00
1854, 2943.00
1855, 2939.00
1856, 2934.00
1857, 2931.00
1858, 2929.00
1859, 2927.00
1860, 2923.00
1861, 2920.00
1862, 2918.00
1863, 2916.00
1864, 2913.00
1865, 2909.00
1866, 2910.00
1867, 2906.00
1868, 2904.00
1869, 2901.00
1870, 2898.00
1871, 2897.00
1872, 2896.00
1873, 2896.00
1874, 2895.00
1875, 2893.00
1876, 2893.00
1877, 2889.00
1878, 2888.00
1879, 2884.00
1880, 2885.00
1881, 2886.00
1882, 2885.00
1883, 2883.00
1884, 2883.00
1885, 2880.00
1886, 2879.00
1887, 2877.00
1888, 2879.00
1889, 2877.00
1890, 2879.00
1891, 2877.00
1892, 2875.00
1893, 2874.00
1894, 2875.00
1895, 2873.00
1896, 2871.00
1897, 2873.00
1898, 2872.00
1899, 2870.00
1900, 2869.00
1901, 2871.00
1902, 2868.00
1903, 2871.00
1904, 2869.00
1905, 2868.00
1906, 2868.00
1907, 2867.00
1908, 2867.00
1909, 2867.00
1910, 2866.00
1911, 2867.00
1912, 2866.00
1913, 2867.00
1914, 2865.00
1915, 2864.00
1916, 2863.00
1917, 2866.00
1918, 2864.00
1919, 2865.00
1920, 2864.00
1921, 2862.00
1922, 2861.00
1923, 2864.00
1924, 2864.00
1925, 2863.00
1926, 2866.00
1927, 2866.00
1928, 2863.00
1929, 2863.00
1930, 2863.00
1931, 2863.00
1932, 2863.00
1933, 2863.00
1934, 2863.00
1935, 2863.00
1936, 2863.00
1937, 2865.00
1938, 2865.00
1939, 2866.00
1940, 2864.00
1941, 2864.00
1942, 2866.00
1943, 2863.00
1944, 2865.00
1945, 2865.00
1946, 2868.00
1947, 2868.00
1948, 2865.00
1949, 2864.00
1950, 2867.00
1951, 2867.00
1952, 2867.00
1953, 2868.00
1954, 2871.00
1955, 2868.00
1956, 2869.00
1957, 2869.00
1958, 2869.00
1959, 2870.00
1960, 2871.00
1961, 2873.00
1962, 2871.00
1963, 2871.00
1964, 2873.00
1965, 2872.00
1966, 2873.00
1967, 2875.00
1968, 2873.00
1969, 2875.00
1970, 2876.00
1971, 2875.00
1972, 2875.00
1973, 2878.00
1974, 2878.00
1975, 2879.00
1976, 2879.00
1977, 2879.00
1978, 2881.00
1979, 2881.00
1980, 2881.00
1981, 2884.00
1982, 2882.00
1983, 2884.00
1984, 2885.00
1985, 2884.00
1986, 2886.00
1987, 2887.00
1988, 2887.00
1989, 2888.00
1990, 2887.00
1991, 2889.00
1992, 2889.00
1993, 2889.00
1994, 2889.00
1995, 2891.00
1996, 2895.00
1997, 2894.00
1998, 2895.00
1999, 2895.00
2000, 2894.00
2001, 2897.00
2002, 2896.00
2003, 2897.00
2004, 2896.00
2005, 2898.00
2006, 2897.00
2007, 2899.00
2008, 2900.00
2009, 2902.00
2010, 2900.00
2011, 2901.00
2012, 2901.00
2013, 2905.00
2014, 2906.00
2015, 2905.00
2016, 2906.00
2017, 2906.00
2018, 2907.00
2019, 2908.00
2020, 2908.00
2021, 2911.00
2022, 2911.00
2023, 2910.00
2024, 2910.00
2025, 2913.00
2026, 2910.00
2027, 2912.00
2028, 2913.00
2029, 2917.00
2030, 2916.00
2031, 2916.00
2032, 2916.00
2033, 2918.00
2034, 2919.00
2035, 2919.00
2036, 2919.00
2037, 2921.00
2038, 2919.00
2039, 2923.00
2040, 2925.00
2041, 2925.00
2042, 2926.00
2043, 2926.00
2044, 2924.00
2045, 2927.00
2046, 2930.00
2047, 2932.00
2048, 2932.00
2049, 2933.00
2050, 2933.00
2051, 2934.00
2052, 2935.00
2053, 2937.00
2054, 2939.00
2055, 2939.00
2056, 2941.00
2057, 2939.00
2058, 2941.00
2059, 2943.00
2060, 2946.00
2061, 2945.00
2062, 2944.00
2063, 2945.00
2064, 2949.00
2065, 2949.00
2066, 2951.00
2067, 2951.00
2068, 2953.00
2069, 2954.00
2070, 2954.00
2071, 2954.00
2072, 2954.00
2073, 2957.00
2074, 2957.00
2075, 2959.00
2076, 2961.00
2077, 2961.00
2078, 2962.00
2079, 2964.00
2080, 2965.00
2081, 2965.00
2082, 2966.00
2083, 2968.00
2084, 2968.00
2085, 2968.00
2086, 2971.00
2087, 2971.00
2088, 2971.00
2089, 2970.00
2090, 2972.00
2091, 2974.00
2092, 2975.00
2093, 2977.00
2094, 2977.00
2095, 2977.00
2096, 2979.00
2097, 2979.00
2098, 2978.00
2099, 2978.00
2100, 2980.00
2101, 2982.00
2102, 2983.00
2103, 2981.00
2104, 2982.00
2105, 2984.00
2106, 2983.00
2107, 2986.00
2108, 2986.00
2109, 2986.00
2110, 2985.00
2111, 2987.00
2112, 2986.00
2113, 2988.00
2114, 2991.00
2115, 2991.00
2116, 2989.00
2117, 2989.00
2118, 2991.00
2119, 2992.00
2120, 2993.00
2121, 2992.00
2122, 2992.00
2123, 2991.00
2124, 2993.00
2125, 2993.00
2126, 2995.00
2127, 2995.00
2128, 2997.00
2129, 2997.00
2130, 2997.00
2131, 2998.00
2132, 2998.00
2133, 2996.00
2134, 2999.00
2135, 2999.00
2136, 3000.00
2137, 3002.00
2138, 3001.00
2139, 2998.00
2140, 3001.00
2141, 3002.00
2142, 3002.00
2143, 3001.00
2144, 3001.00
2145, 3001.00
2146, 3005.00
2147, 3005.00
2148, 3003.00
2149, 3003.00
2150, 3004.00
