FW version: 24
Log Version: 3.0.3

General Info:
       Command/Macro Performed,            Timestamp,             Device ID, COM Port, UART/I2C, Test Name, Host Major, Host Minor, Host Revision, Host Git Commit
            Single_measurement,  2023_06_27_11_22_11,       Insight2_F4_xxx,    USB-C,      USB,          ,          0,          1,             1,      4031237645

Show Spectrometer Status:
l0_version, f4_version, battery_perc, battery_mVolt, accelerometer_temp, accelerometer_x, accelerometer_y, accelerometer_z, compass_temp, compass_x, compass_y, compass_z, lamp_0, lamp_1, gain_0, gain_1
        17,         24,           95,          2076,               5392,           65248,              60,           18532,            0,     65522,     65406,     65390,   3276,   3276,    1,    1

Temperature Statistic Info:
NTC AVG [°C], NTC2 AVG [°C]
      36.863,        36.580

Statistic Info:
M1:  num,      min,      max,   median,      AVG,      STD,M2:  num,      min,      max,   median,      AVG,      STD
     301,  2188.00,  2515.00,  2255.00,  2295.00, 101.2481,     401,  2860.00,  3064.00,  2937.00,  2945.52,  65.7473,

Measurements:
Wavelength, Data Amplitude
1350, 2255.00
1351, 2253.00
1352, 2252.00
1353, 2252.00
1354, 2251.00
1355, 2249.00
1356, 2249.00
1357, 2246.00
1358, 2245.00
1359, 2243.00
1360, 2241.00
1361, 2240.00
1362, 2239.00
1363, 2238.00
1364, 2236.00
1365, 2234.00
1366, 2232.00
1367, 2231.00
1368, 2228.00
1369, 2226.00
1370, 2225.00
1371, 2224.00
1372, 2222.00
1373, 2219.00
1374, 2219.00
1375, 2215.00
1376, 2214.00
1377, 2213.00
1378, 2212.00
1379, 2211.00
1380, 2210.00
1381, 2208.00
1382, 2206.00
1383, 2205.00
1384, 2203.00
1385, 2204.00
1386, 2202.00
1387, 2202.00
1388, 2202.00
1389, 2201.00
1390, 2199.00
1391, 2199.00
1392, 2197.00
1393, 2196.00
1394, 2196.00
1395, 2196.00
1396, 2196.00
1397, 2195.00
1398, 2195.00
1399, 2194.00
1400, 2193.00
1401, 2192.00
1402, 2192.00
1403, 2192.00
1404, 2193.00
1405, 2192.00
1406, 2191.00
1407, 2191.00
1408, 2191.00
1409, 2191.00
1410, 2190.00
1411, 2189.00
1412, 2190.00
1413, 2190.00
1414, 2189.00
1415, 2189.00
1416, 2189.00
1417, 2190.00
1418, 2189.00
1419, 2190.00
1420, 2188.00
1421, 2189.00
1422, 2189.00
1423, 2189.00
1424, 2190.00
1425, 2190.00
1426, 2190.00
1427, 2191.00
1428, 2189.00
1429, 2189.00
1430, 2190.00
1431, 2191.00
1432, 2190.00
1433, 2191.00
1434, 2192.00
1435, 2192.00
1436, 2192.00
1437, 2192.00
1438, 2190.00
1439, 2193.00
1440, 2195.00
1441, 2195.00
1442, 2196.00
1443, 2195.00
1444, 2195.00
1445, 2196.00
1446, 2196.00
1447, 2197.00
1448, 2197.00
1449, 2197.00
1450, 2198.00
1451, 2198.00
1452, 2198.00
1453, 2200.00
1454, 2200.00
1455, 2203.00
1456, 2202.00
1457, 2203.00
1458, 2203.00
1459, 2205.00
1460, 2206.00
1461, 2205.00
1462, 2207.00
1463, 2209.00
1464, 2210.00
1465, 2209.00
1466, 2213.00
1467, 2211.00
1468, 2213.00
1469, 2213.00
1470, 2214.00
1471, 2217.00
1472, 2217.00
1473, 2219.00
1474, 2220.00
1475, 2219.00
1476, 2221.00
1477, 2223.00
1478, 2225.00
1479, 2227.00
1480, 2228.00
1481, 2227.00
1482, 2229.00
1483, 2229.00
1484, 2232.00
1485, 2232.00
1486, 2233.00
1487, 2236.00
1488, 2236.00
1489, 2239.00
1490, 2239.00
1491, 2241.00
1492, 2241.00
1493, 2243.00
1494, 2245.00
1495, 2245.00
1496, 2247.00
1497, 2247.00
1498, 2250.00
1499, 2252.00
1500, 2253.00
1501, 2255.00
1502, 2255.00
1503, 2255.00
1504, 2257.00
1505, 2259.00
1506, 2261.00
1507, 2263.00
1508, 2263.00
1509, 2264.00
1510, 2266.00
1511, 2266.00
1512, 2268.00
1513, 2271.00
1514, 2273.00
1515, 2275.00
1516, 2277.00
1517, 2277.00
1518, 2278.00
1519, 2280.00
1520, 2280.00
1521, 2283.00
1522, 2284.00
1523, 2284.00
1524, 2288.00
1525, 2289.00
1526, 2291.00
1527, 2292.00
1528, 2294.00
1529, 2295.00
1530, 2296.00
1531, 2298.00
1532, 2300.00
1533, 2302.00
1534, 2303.00
1535, 2305.00
1536, 2308.00
1537, 2310.00
1538, 2310.00
1539, 2312.00
1540, 2314.00
1541, 2316.00
1542, 2317.00
1543, 2320.00
1544, 2322.00
1545, 2322.00
1546, 2322.00
1547, 2324.00
1548, 2326.00
1549, 2329.00
1550, 2331.00
1551, 2333.00
1552, 2334.00
1553, 2336.00
1554, 2337.00
1555, 2339.00
1556, 2341.00
1557, 2343.00
1558, 2345.00
1559, 2347.00
1560, 2349.00
1561, 2351.00
1562, 2353.00
1563, 2355.00
1564, 2356.00
1565, 2359.00
1566, 2360.00
1567, 2361.00
1568, 2366.00
1569, 2367.00
1570, 2368.00
1571, 2370.00
1572, 2373.00
1573, 2375.00
1574, 2376.00
1575, 2379.00
1576, 2379.00
1577, 2381.00
1578, 2383.00
1579, 2384.00
1580, 2389.00
1581, 2389.00
1582, 2389.00
1583, 2391.00
1584, 2393.00
1585, 2394.00
1586, 2396.00
1587, 2398.00
1588, 2400.00
1589, 2401.00
1590, 2402.00
1591, 2403.00
1592, 2406.00
1593, 2407.00
1594, 2410.00
1595, 2412.00
1596, 2413.00
1597, 2415.00
1598, 2415.00
1599, 2419.00
1600, 2421.00
1601, 2422.00
1602, 2424.00
1603, 2426.00
1604, 2427.00
1605, 2429.00
1606, 2431.00
1607, 2433.00
1608, 2435.00
1609, 2436.00
1610, 2439.00
1611, 2440.00
1612, 2443.00
1613, 2446.00
1614, 2447.00
1615, 2449.00
1616, 2451.00
1617, 2453.00
1618, 2454.00
1619, 2457.00
1620, 2459.00
1621, 2462.00
1622, 2464.00
1623, 2466.00
1624, 2467.00
1625, 2468.00
1626, 2472.00
1627, 2474.00
1628, 2477.00
1629, 2479.00
1630, 2479.00
1631, 2480.00
1632, 2483.00
1633, 2486.00
1634, 2488.00
1635, 2489.00
1636, 2490.00
1637, 2491.00
1638, 2493.00
1639, 2495.00
1640, 2498.00
1641, 2499.00
1642, 2501.00
1643, 2502.00
1644, 2504.00
1645, 2507.00
1646, 2507.00
1647, 2509.00
1648, 2511.00
1649, 2513.00
1650, 2515.00

1750, 3062.00
1751, 3060.00
1752, 3062.00
1753, 3063.00
1754, 3063.00
1755, 3063.00
1756, 3064.00
1757, 3061.00
1758, 3062.00
1759, 3059.00
1760, 3060.00
1761, 3059.00
1762, 3061.00
1763, 3062.00
1764, 3064.00
1765, 3063.00
1766, 3060.00
1767, 3061.00
1768, 3060.00
1769, 3058.00
1770, 3058.00
1771, 3059.00
1772, 3057.00
1773, 3057.00
1774, 3056.00
1775, 3056.00
1776, 3054.00
1777, 3055.00
1778, 3054.00
1779, 3055.00
1780, 3054.00
1781, 3053.00
1782, 3051.00
1783, 3051.00
1784, 3050.00
1785, 3052.00
1786, 3051.00
1787, 3050.00
1788, 3047.00
1789, 3048.00
1790, 3047.00
1791, 3046.00
1792, 3044.00
1793, 3044.00
1794, 3045.00
1795, 3044.00
1796, 3041.00
1797, 3042.00
1798, 3039.00
1799, 3039.00
1800, 3039.00
1801, 3038.00
1802, 3039.00
1803, 3040.00
1804, 3038.00
1805, 3035.00
1806, 3033.00
1807, 3034.00
1808, 3034.00
1809, 3033.00
1810, 3032.00
1811, 3031.00
1812, 3031.00
1813, 3029.00
1814, 3029.00
1815, 3028.00
1816, 3025.00
1817, 3027.00
1818, 3025.00
1819, 3023.00
1820, 3022.00
1821, 3022.00
1822, 3019.00
1823, 3018.00
1824, 3015.00
1825, 3014.00
1826, 3014.00
1827, 3013.00
1828, 3009.00
1829, 3005.00
1830, 3004.00
1831, 3003.00
1832, 3002.00
1833, 2999.00
1834, 2997.00
1835, 2995.00
1836, 2992.00
1837, 2989.00
1838, 2986.00
1839, 2983.00
1840, 2981.00
1841, 2979.00
1842, 2978.00
1843, 2974.00
1844, 2969.00
1845, 2966.00
1846, 2963.00
1847, 2959.00
1848, 2959.00
1849, 2953.00
1850, 2952.00
1851, 2948.00
1852, 2944.00
1853, 2942.00
1854, 2938.00
1855, 2935.00
1856, 2934.00
1857, 2931.00
1858, 2925.00
1859, 2925.00
1860, 2921.00
1861, 2918.00
1862, 2915.00
1863, 2913.00
1864, 2914.00
1865, 2908.00
1866, 2907.00
1867, 2905.00
1868, 2902.00
1869, 2899.00
1870, 2897.00
1871, 2898.00
1872, 2897.00
1873, 2894.00
1874, 2892.00
1875, 2888.00
1876, 2888.00
1877, 2887.00
1878, 2887.00
1879, 2885.00
1880, 2887.00
1881, 2884.00
1882, 2882.00
1883, 2880.00
1884, 2879.00
1885, 2879.00
1886, 2878.00
1887, 2878.00
1888, 2878.00
1889, 2876.00
1890, 2875.00
1891, 2875.00
1892, 2873.00
1893, 2873.00
1894, 2872.00
1895, 2871.00
1896, 2870.00
1897, 2871.00
1898, 2870.00
1899, 2869.00
1900, 2871.00
1901, 2868.00
1902, 2869.00
1903, 2867.00
1904, 2869.00
1905, 2867.00
1906, 2866.00
1907, 2866.00
1908, 2864.00
1909, 2866.00
1910, 2865.00
1911, 2865.00
1912, 2865.00
1913, 2862.00
1914, 2864.00
1915, 2863.00
1916, 2864.00
1917, 2863.00
1918, 2863.00
1919, 2861.00
1920, 2865.00
1921, 2863.00
1922, 2863.00
1923, 2862.00
1924, 2861.00
1925, 2862.00
1926, 2863.00
1927, 2862.00
1928, 2861.00
1929, 2862.00
1930, 2862.00
1931, 2861.00
1932, 2862.00
1933, 2863.00
1934, 2863.00
1935, 2864.00
1936, 2860.00
1937, 2862.00
1938, 2862.00
1939, 2862.00
1940, 2863.00
1941, 2863.00
1942, 2865.00
1943, 2865.00
1944, 2865.00
1945, 2863.00
1946, 2863.00
1947, 2864.00
1948, 2864.00
1949, 2866.00
1950, 2869.00
1951, 2869.00
1952, 2866.00
1953, 2866.00
1954, 2868.00
1955, 2868.00
1956, 2867.00
1957, 2869.00
1958, 2868.00
1959, 2869.00
1960, 2869.00
1961, 2869.00
1962, 2869.00
1963, 2870.00
1964, 2870.00
1965, 2873.00
1966, 2871.00
1967, 2872.00
1968, 2875.00
1969, 2874.00
1970, 2876.00
1971, 2876.00
1972, 2877.00
1973, 2874.00
1974, 2878.00
1975, 2878.00
1976, 2879.00
1977, 2880.00
1978, 2881.00
1979, 2881.00
1980, 2882.00
1981, 2880.00
1982, 2881.00
1983, 2883.00
1984, 2884.00
1985, 2886.00
1986, 2886.00
1987, 2883.00
1988, 2884.00
1989, 2887.00
1990, 2885.00
1991, 2887.00
1992, 2888.00
1993, 2888.00
1994, 2889.00
1995, 2889.00
1996, 2891.00
1997, 2892.00
1998, 2892.00
1999, 2893.00
2000, 2894.00
2001, 2894.00
2002, 2894.00
2003, 2895.00
2004, 2898.00
2005, 2898.00
2006, 2900.00
2007, 2899.00
2008, 2898.00
2009, 2897.00
2010, 2901.00
2011, 2902.00
2012, 2902.00
2013, 2902.00
2014, 2903.00
2015, 2904.00
2016, 2904.00
2017, 2903.00
2018, 2906.00
2019, 2907.00
2020, 2907.00
2021, 2907.00
2022, 2908.00
2023, 2911.00
2024, 2909.00
2025, 2911.00
2026, 2911.00
2027, 2911.00
2028, 2913.00
2029, 2913.00
2030, 2916.00
2031, 2914.00
2032, 2917.00
2033, 2917.00
2034, 2917.00
2035, 2919.00
2036, 2919.00
2037, 2920.00
2038, 2922.00
2039, 2921.00
2040, 2922.00
2041, 2923.00
2042, 2924.00
2043, 2927.00
2044, 2927.00
2045, 2927.00
2046, 2927.00
2047, 2926.00
2048, 2929.00
2049, 2931.00
2050, 2932.00
2051, 2935.00
2052, 2934.00
2053, 2935.00
2054, 2937.00
2055, 2937.00
2056, 2939.00
2057, 2939.00
2058, 2940.00
2059, 2941.00
2060, 2940.00
2061, 2943.00
2062, 2944.00
2063, 2946.00
2064, 2949.00
2065, 2947.00
2066, 2949.00
2067, 2949.00
2068, 2952.00
2069, 2953.00
2070, 2954.00
2071, 2954.00
2072, 2954.00
2073, 2956.00
2074, 2957.00
2075, 2959.00
2076, 2961.00
2077, 2960.00
2078, 2960.00
2079, 2958.00
2080, 2963.00
2081, 2965.00
2082, 2966.00
2083, 2965.00
2084, 2966.00
2085, 2965.00
2086, 2967.00
2087, 2969.00
2088, 2969.00
2089, 2971.00
2090, 2972.00
2091, 2972.00
2092, 2973.00
2093, 2974.00
2094, 2975.00
2095, 2977.00
2096, 2974.00
2097, 2978.00
2098, 2977.00
2099, 2980.00
2100, 2979.00
2101, 2979.00
2102, 2980.00
2103, 2984.00
2104, 2983.00
2105, 2984.00
2106, 2983.00
2107, 2981.00
2108, 2983.00
2109, 2984.00
2110, 2987.00
2111, 2987.00
2112, 2987.00
2113, 2986.00
2114, 2987.00
2115, 2989.00
2116, 2989.00
2117, 2987.00
2118, 2989.00
2119, 2989.00
2120, 2990.00
2121, 2991.00
2122, 2993.00
2123, 2992.00
2124, 2992.00
2125, 2992.00
2126, 2994.00
2127, 2995.00
2128, 2996.00
2129, 2996.00
2130, 2996.00
2131, 2995.00
2132, 2996.00
2133, 2998.00
2134, 2997.00
2135, 2998.00
2136, 2997.00
2137, 2998.00
2138, 3000.00
2139, 3002.00
2140, 2999.00
2141, 3000.00
2142, 3000.00
2143, 3000.00
2144, 3001.00
2145, 3001.00
2146, 3001.00
2147, 3003.00
2148, 3003.00
2149, 3002.00
2150, 3003.00
