FW version: 24
Log Version: 3.0.3

General Info:
       Command/Macro Performed,            Timestamp,             Device ID, COM Port, UART/I2C, Test Name, Host Major, Host Minor, Host Revision, Host Git Commit
            Single_measurement,  2023_07_11_11_56_38,       Insight2_F4_xxx,    USB-C,      USB,          ,          0,          1,             1,      4031237645

Show Spectrometer Status:
l0_version, f4_version, battery_perc, battery_mVolt, accelerometer_temp, accelerometer_x, accelerometer_y, accelerometer_z, compass_temp, compass_x, compass_y, compass_z, lamp_0, lamp_1, gain_0, gain_1
        17,         24,           52,          1914,               7008,           64848,            1548,           18792,            0,     65400,     65375,     18792,   2866,   2866,      1,      1

Temperature Statistic Info:
NTC AVG [°C], NTC2 AVG [°C]
      42.313,        41.980

Statistic Info:
M1:  num,      min,      max,   median,      AVG,      STD,M2:  num,      min,      max,   median,      AVG,      STD
     301,  1692.00,  1895.00,  1732.00,  1756.49,  62.7776,     401,  2189.00,  2294.00,  2224.00,  2229.72,  32.5566,

Measurements:
Wavelength, Data Amplitude
1350, 1733.00
1351, 1734.00
1352, 1732.00
1353, 1732.00
1354, 1730.00
1355, 1729.00
1356, 1729.00
1357, 1726.00
1358, 1725.00
1359, 1725.00
1360, 1723.00
1361, 1721.00
1362, 1720.00
1363, 1720.00
1364, 1717.00
1365, 1718.00
1366, 1716.00
1367, 1715.00
1368, 1715.00
1369, 1712.00
1370, 1713.00
1371, 1710.00
1372, 1709.00
1373, 1708.00
1374, 1709.00
1375, 1707.00
1376, 1706.00
1377, 1705.00
1378, 1704.00
1379, 1705.00
1380, 1703.00
1381, 1702.00
1382, 1702.00
1383, 1702.00
1384, 1700.00
1385, 1700.00
1386, 1700.00
1387, 1698.00
1388, 1699.00
1389, 1698.00
1390, 1698.00
1391, 1698.00
1392, 1697.00
1393, 1697.00
1394, 1696.00
1395, 1696.00
1396, 1696.00
1397, 1696.00
1398, 1695.00
1399, 1694.00
1400, 1694.00
1401, 1694.00
1402, 1694.00
1403, 1694.00
1404, 1694.00
1405, 1694.00
1406, 1693.00
1407, 1694.00
1408, 1694.00
1409, 1693.00
1410, 1694.00
1411, 1693.00
1412, 1695.00
1413, 1694.00
1414, 1692.00
1415, 1694.00
1416, 1693.00
1417, 1693.00
1418, 1692.00
1419, 1693.00
1420, 1693.00
1421, 1693.00
1422, 1693.00
1423, 1692.00
1424, 1693.00
1425, 1694.00
1426, 1693.00
1427, 1693.00
1428, 1693.00
1429, 1693.00
1430, 1693.00
1431, 1693.00
1432, 1693.00
1433, 1695.00
1434, 1694.00
1435, 1695.00
1436, 1694.00
1437, 1695.00
1438, 1695.00
1439, 1694.00
1440, 1695.00
1441, 1695.00
1442, 1695.00
1443, 1695.00
1444, 1697.00
1445, 1697.00
1446, 1696.00
1447, 1697.00
1448, 1696.00
1449, 1697.00
1450, 1698.00
1451, 1699.00
1452, 1699.00
1453, 1697.00
1454, 1699.00
1455, 1701.00
1456, 1700.00
1457, 1701.00
1458, 1700.00
1459, 1702.00
1460, 1703.00
1461, 1702.00
1462, 1703.00
1463, 1703.00
1464, 1704.00
1465, 1703.00
1466, 1705.00
1467, 1705.00
1468, 1706.00
1469, 1707.00
1470, 1706.00
1471, 1707.00
1472, 1708.00
1473, 1708.00
1474, 1708.00
1475, 1710.00
1476, 1710.00
1477, 1711.00
1478, 1711.00
1479, 1710.00
1480, 1714.00
1481, 1714.00
1482, 1715.00
1483, 1715.00
1484, 1716.00
1485, 1718.00
1486, 1717.00
1487, 1719.00
1488, 1719.00
1489, 1719.00
1490, 1721.00
1491, 1721.00
1492, 1722.00
1493, 1722.00
1494, 1723.00
1495, 1724.00
1496, 1725.00
1497, 1726.00
1498, 1727.00
1499, 1727.00
1500, 1728.00
1501, 1729.00
1502, 1730.00
1503, 1730.00
1504, 1732.00
1505, 1733.00
1506, 1734.00
1507, 1734.00
1508, 1735.00
1509, 1736.00
1510, 1737.00
1511, 1738.00
1512, 1739.00
1513, 1739.00
1514, 1741.00
1515, 1741.00
1516, 1742.00
1517, 1743.00
1518, 1743.00
1519, 1744.00
1520, 1746.00
1521, 1748.00
1522, 1748.00
1523, 1749.00
1524, 1751.00
1525, 1751.00
1526, 1752.00
1527, 1753.00
1528, 1755.00
1529, 1755.00
1530, 1757.00
1531, 1758.00
1532, 1758.00
1533, 1759.00
1534, 1760.00
1535, 1762.00
1536, 1763.00
1537, 1763.00
1538, 1765.00
1539, 1765.00
1540, 1767.00
1541, 1767.00
1542, 1769.00
1543, 1770.00
1544, 1771.00
1545, 1771.00
1546, 1773.00
1547, 1775.00
1548, 1776.00
1549, 1776.00
1550, 1778.00
1551, 1777.00
1552, 1779.00
1553, 1781.00
1554, 1782.00
1555, 1783.00
1556, 1784.00
1557, 1785.00
1558, 1787.00
1559, 1787.00
1560, 1789.00
1561, 1790.00
1562, 1791.00
1563, 1793.00
1564, 1794.00
1565, 1796.00
1566, 1796.00
1567, 1797.00
1568, 1799.00
1569, 1800.00
1570, 1801.00
1571, 1802.00
1572, 1804.00
1573, 1804.00
1574, 1805.00
1575, 1806.00
1576, 1809.00
1577, 1808.00
1578, 1809.00
1579, 1810.00
1580, 1812.00
1581, 1814.00
1582, 1814.00
1583, 1815.00
1584, 1817.00
1585, 1817.00
1586, 1819.00
1587, 1820.00
1588, 1821.00
1589, 1822.00
1590, 1822.00
1591, 1824.00
1592, 1825.00
1593, 1825.00
1594, 1826.00
1595, 1829.00
1596, 1829.00
1597, 1831.00
1598, 1832.00
1599, 1834.00
1600, 1833.00
1601, 1836.00
1602, 1837.00
1603, 1837.00
1604, 1838.00
1605, 1839.00
1606, 1842.00
1607, 1842.00
1608, 1844.00
1609, 1845.00
1610, 1846.00
1611, 1847.00
1612, 1848.00
1613, 1849.00
1614, 1851.00
1615, 1853.00
1616, 1853.00
1617, 1855.00
1618, 1857.00
1619, 1858.00
1620, 1860.00
1621, 1861.00
1622, 1862.00
1623, 1863.00
1624, 1864.00
1625, 1865.00
1626, 1867.00
1627, 1868.00
1628, 1870.00
1629, 1871.00
1630, 1873.00
1631, 1873.00
1632, 1875.00
1633, 1876.00
1634, 1877.00
1635, 1878.00
1636, 1880.00
1637, 1880.00
1638, 1882.00
1639, 1882.00
1640, 1884.00
1641, 1885.00
1642, 1885.00
1643, 1887.00
1644, 1889.00
1645, 1890.00
1646, 1890.00
1647, 1891.00
1648, 1893.00
1649, 1894.00
1650, 1895.00

1750, 2294.00
1751, 2293.00
1752, 2293.00
1753, 2291.00
1754, 2294.00
1755, 2292.00
1756, 2294.00
1757, 2291.00
1758, 2293.00
1759, 2292.00
1760, 2290.00
1761, 2291.00
1762, 2291.00
1763, 2291.00
1764, 2291.00
1765, 2293.00
1766, 2291.00
1767, 2291.00
1768, 2288.00
1769, 2289.00
1770, 2289.00
1771, 2289.00
1772, 2290.00
1773, 2289.00
1774, 2287.00
1775, 2288.00
1776, 2286.00
1777, 2287.00
1778, 2285.00
1779, 2288.00
1780, 2287.00
1781, 2286.00
1782, 2286.00
1783, 2285.00
1784, 2284.00
1785, 2284.00
1786, 2282.00
1787, 2282.00
1788, 2282.00
1789, 2283.00
1790, 2283.00
1791, 2281.00
1792, 2282.00
1793, 2279.00
1794, 2280.00
1795, 2281.00
1796, 2279.00
1797, 2279.00
1798, 2280.00
1799, 2279.00
1800, 2277.00
1801, 2278.00
1802, 2276.00
1803, 2276.00
1804, 2274.00
1805, 2274.00
1806, 2275.00
1807, 2275.00
1808, 2276.00
1809, 2275.00
1810, 2273.00
1811, 2273.00
1812, 2273.00
1813, 2270.00
1814, 2268.00
1815, 2269.00
1816, 2267.00
1817, 2268.00
1818, 2267.00
1819, 2267.00
1820, 2266.00
1821, 2267.00
1822, 2266.00
1823, 2263.00
1824, 2265.00
1825, 2260.00
1826, 2260.00
1827, 2259.00
1828, 2258.00
1829, 2255.00
1830, 2255.00
1831, 2256.00
1832, 2254.00
1833, 2251.00
1834, 2249.00
1835, 2251.00
1836, 2248.00
1837, 2247.00
1838, 2246.00
1839, 2244.00
1840, 2243.00
1841, 2244.00
1842, 2239.00
1843, 2240.00
1844, 2238.00
1845, 2235.00
1846, 2235.00
1847, 2234.00
1848, 2231.00
1849, 2232.00
1850, 2231.00
1851, 2229.00
1852, 2227.00
1853, 2225.00
1854, 2224.00
1855, 2225.00
1856, 2221.00
1857, 2220.00
1858, 2219.00
1859, 2218.00
1860, 2218.00
1861, 2217.00
1862, 2216.00
1863, 2214.00
1864, 2215.00
1865, 2211.00
1866, 2211.00
1867, 2213.00
1868, 2211.00
1869, 2212.00
1870, 2209.00
1871, 2207.00
1872, 2209.00
1873, 2205.00
1874, 2206.00
1875, 2204.00
1876, 2205.00
1877, 2203.00
1878, 2204.00
1879, 2203.00
1880, 2202.00
1881, 2204.00
1882, 2201.00
1883, 2200.00
1884, 2201.00
1885, 2200.00
1886, 2200.00
1887, 2200.00
1888, 2198.00
1889, 2197.00
1890, 2199.00
1891, 2198.00
1892, 2198.00
1893, 2197.00
1894, 2197.00
1895, 2196.00
1896, 2196.00
1897, 2193.00
1898, 2195.00
1899, 2194.00
1900, 2193.00
1901, 2195.00
1902, 2195.00
1903, 2195.00
1904, 2194.00
1905, 2193.00
1906, 2194.00
1907, 2194.00
1908, 2194.00
1909, 2195.00
1910, 2191.00
1911, 2194.00
1912, 2190.00
1913, 2194.00
1914, 2193.00
1915, 2192.00
1916, 2189.00
1917, 2192.00
1918, 2191.00
1919, 2190.00
1920, 2191.00
1921, 2189.00
1922, 2192.00
1923, 2191.00
1924, 2192.00
1925, 2191.00
1926, 2191.00
1927, 2190.00
1928, 2190.00
1929, 2189.00
1930, 2190.00
1931, 2192.00
1932, 2189.00
1933, 2191.00
1934, 2190.00
1935, 2192.00
1936, 2189.00
1937, 2190.00
1938, 2189.00
1939, 2190.00
1940, 2189.00
1941, 2189.00
1942, 2190.00
1943, 2191.00
1944, 2190.00
1945, 2190.00
1946, 2191.00
1947, 2190.00
1948, 2190.00
1949, 2191.00
1950, 2192.00
1951, 2191.00
1952, 2192.00
1953, 2192.00
1954, 2191.00
1955, 2193.00
1956, 2193.00
1957, 2193.00
1958, 2194.00
1959, 2193.00
1960, 2192.00
1961, 2193.00
1962, 2192.00
1963, 2194.00
1964, 2196.00
1965, 2193.00
1966, 2193.00
1967, 2194.00
1968, 2194.00
1969, 2193.00
1970, 2196.00
1971, 2195.00
1972, 2195.00
1973, 2196.00
1974, 2197.00
1975, 2198.00
1976, 2195.00
1977, 2197.00
1978, 2197.00
1979, 2197.00
1980, 2195.00
1981, 2198.00
1982, 2199.00
1983, 2197.00
1984, 2198.00
1985, 2200.00
1986, 2200.00
1987, 2200.00
1988, 2200.00
1989, 2201.00
1990, 2200.00
1991, 2202.00
1992, 2201.00
1993, 2199.00
1994, 2202.00
1995, 2201.00
1996, 2201.00
1997, 2203.00
1998, 2203.00
1999, 2204.00
2000, 2201.00
2001, 2203.00
2002, 2203.00
2003, 2204.00
2004, 2206.00
2005, 2207.00
2006, 2206.00
2007, 2208.00
2008, 2206.00
2009, 2207.00
2010, 2205.00
2011, 2207.00
2012, 2205.00
2013, 2207.00
2014, 2209.00
2015, 2207.00
2016, 2209.00
2017, 2208.00
2018, 2208.00
2019, 2210.00
2020, 2208.00
2021, 2210.00
2022, 2210.00
2023, 2209.00
2024, 2211.00
2025, 2211.00
2026, 2210.00
2027, 2210.00
2028, 2212.00
2029, 2212.00
2030, 2213.00
2031, 2213.00
2032, 2214.00
2033, 2213.00
2034, 2215.00
2035, 2214.00
2036, 2215.00
2037, 2216.00
2038, 2217.00
2039, 2216.00
2040, 2217.00
2041, 2215.00
2042, 2216.00
2043, 2217.00
2044, 2219.00
2045, 2219.00
2046, 2219.00
2047, 2220.00
2048, 2218.00
2049, 2221.00
2050, 2222.00
2051, 2222.00
2052, 2219.00
2053, 2222.00
2054, 2222.00
2055, 2224.00
2056, 2222.00
2057, 2224.00
2058, 2224.00
2059, 2225.00
2060, 2225.00
2061, 2227.00
2062, 2226.00
2063, 2227.00
2064, 2228.00
2065, 2229.00
2066, 2229.00
2067, 2229.00
2068, 2230.00
2069, 2231.00
2070, 2231.00
2071, 2232.00
2072, 2233.00
2073, 2231.00
2074, 2232.00
2075, 2231.00
2076, 2235.00
2077, 2235.00
2078, 2234.00
2079, 2236.00
2080, 2236.00
2081, 2238.00
2082, 2237.00
2083, 2239.00
2084, 2238.00
2085, 2237.00
2086, 2237.00
2087, 2237.00
2088, 2239.00
2089, 2241.00
2090, 2240.00
2091, 2241.00
2092, 2241.00
2093, 2242.00
2094, 2241.00
2095, 2243.00
2096, 2242.00
2097, 2244.00
2098, 2243.00
2099, 2244.00
2100, 2244.00
2101, 2244.00
2102, 2246.00
2103, 2246.00
2104, 2247.00
2105, 2247.00
2106, 2246.00
2107, 2246.00
2108, 2248.00
2109, 2248.00
2110, 2247.00
2111, 2247.00
2112, 2247.00
2113, 2248.00
2114, 2248.00
2115, 2250.00
2116, 2250.00
2117, 2248.00
2118, 2248.00
2119, 2249.00
2120, 2250.00
2121, 2249.00
2122, 2252.00
2123, 2251.00
2124, 2253.00
2125, 2251.00
2126, 2251.00
2127, 2251.00
2128, 2252.00
2129, 2252.00
2130, 2253.00
2131, 2253.00
2132, 2253.00
2133, 2254.00
2134, 2253.00
2135, 2253.00
2136, 2255.00
2137, 2257.00
2138, 2257.00
2139, 2257.00
2140, 2258.00
2141, 2258.00
2142, 2258.00
2143, 2257.00
2144, 2257.00
2145, 2258.00
2146, 2257.00
2147, 2258.00
2148, 2259.00
2149, 2257.00
2150, 2260.00
