FW version: 24
Log Version: 3.0.3

General Info:
       Command/Macro Performed,            Timestamp,             Device ID, COM Port, UART/I2C, Test Name, Host Major, Host Minor, Host Revision, Host Git Commit
            Single_measurement,  2023_07_11_11_56_19,       Insight2_F4_xxx,    USB-C,      USB,          ,          0,          1,             1,      4031237645

Show Spectrometer Status:
l0_version, f4_version, battery_perc, battery_mVolt, accelerometer_temp, accelerometer_x, accelerometer_y, accelerometer_z, compass_temp, compass_x, compass_y, compass_z, lamp_0, lamp_1, gain_0, gain_1
        17,         24,           52,          1917,               7008,           64816,            1600,           18756,            0,     65339,     65368,     18791,   2457,   2457,      1,      1

Temperature Statistic Info:
NTC AVG [°C], NTC2 AVG [°C]
      42.192,        41.833

Statistic Info:
M1:  num,      min,      max,   median,      AVG,      STD,M2:  num,      min,      max,   median,      AVG,      STD
     301,  1254.00,  1411.00,  1284.00,  1303.50,  48.3384,     401,  1690.00,  1773.00,  1719.00,  1723.43,  25.1749,

Measurements:
Wavelength, Data Amplitude
1350, 1284.00
1351, 1283.00
1352, 1282.00
1353, 1283.00
1354, 1280.00
1355, 1280.00
1356, 1279.00
1357, 1277.00
1358, 1277.00
1359, 1276.00
1360, 1276.00
1361, 1275.00
1362, 1275.00
1363, 1273.00
1364, 1272.00
1365, 1272.00
1366, 1272.00
1367, 1270.00
1368, 1269.00
1369, 1268.00
1370, 1268.00
1371, 1266.00
1372, 1266.00
1373, 1265.00
1374, 1265.00
1375, 1265.00
1376, 1263.00
1377, 1263.00
1378, 1262.00
1379, 1262.00
1380, 1262.00
1381, 1261.00
1382, 1260.00
1383, 1260.00
1384, 1260.00
1385, 1259.00
1386, 1259.00
1387, 1259.00
1388, 1259.00
1389, 1259.00
1390, 1257.00
1391, 1257.00
1392, 1257.00
1393, 1258.00
1394, 1257.00
1395, 1257.00
1396, 1257.00
1397, 1256.00
1398, 1256.00
1399, 1256.00
1400, 1255.00
1401, 1255.00
1402, 1256.00
1403, 1256.00
1404, 1256.00
1405, 1256.00
1406, 1255.00
1407, 1255.00
1408, 1255.00
1409, 1255.00
1410, 1254.00
1411, 1255.00
1412, 1256.00
1413, 1254.00
1414, 1255.00
1415, 1254.00
1416, 1254.00
1417, 1255.00
1418, 1254.00
1419, 1255.00
1420, 1255.00
1421, 1254.00
1422, 1255.00
1423, 1254.00
1424, 1256.00
1425, 1255.00
1426, 1255.00
1427, 1254.00
1428, 1255.00
1429, 1254.00
1430, 1256.00
1431, 1254.00
1432, 1256.00
1433, 1255.00
1434, 1256.00
1435, 1256.00
1436, 1256.00
1437, 1256.00
1438, 1256.00
1439, 1257.00
1440, 1258.00
1441, 1256.00
1442, 1257.00
1443, 1258.00
1444, 1257.00
1445, 1258.00
1446, 1258.00
1447, 1258.00
1448, 1258.00
1449, 1258.00
1450, 1259.00
1451, 1259.00
1452, 1259.00
1453, 1260.00
1454, 1260.00
1455, 1261.00
1456, 1260.00
1457, 1261.00
1458, 1260.00
1459, 1261.00
1460, 1262.00
1461, 1262.00
1462, 1262.00
1463, 1262.00
1464, 1263.00
1465, 1263.00
1466, 1264.00
1467, 1264.00
1468, 1265.00
1469, 1266.00
1470, 1265.00
1471, 1265.00
1472, 1267.00
1473, 1267.00
1474, 1268.00
1475, 1268.00
1476, 1269.00
1477, 1268.00
1478, 1271.00
1479, 1270.00
1480, 1270.00
1481, 1271.00
1482, 1271.00
1483, 1273.00
1484, 1273.00
1485, 1274.00
1486, 1273.00
1487, 1274.00
1488, 1274.00
1489, 1275.00
1490, 1276.00
1491, 1278.00
1492, 1278.00
1493, 1279.00
1494, 1278.00
1495, 1279.00
1496, 1280.00
1497, 1280.00
1498, 1281.00
1499, 1281.00
1500, 1282.00
1501, 1284.00
1502, 1284.00
1503, 1285.00
1504, 1285.00
1505, 1285.00
1506, 1287.00
1507, 1286.00
1508, 1288.00
1509, 1288.00
1510, 1289.00
1511, 1290.00
1512, 1291.00
1513, 1291.00
1514, 1292.00
1515, 1292.00
1516, 1294.00
1517, 1294.00
1518, 1294.00
1519, 1295.00
1520, 1297.00
1521, 1297.00
1522, 1297.00
1523, 1299.00
1524, 1300.00
1525, 1301.00
1526, 1300.00
1527, 1303.00
1528, 1303.00
1529, 1303.00
1530, 1305.00
1531, 1305.00
1532, 1307.00
1533, 1306.00
1534, 1307.00
1535, 1306.00
1536, 1309.00
1537, 1309.00
1538, 1310.00
1539, 1312.00
1540, 1312.00
1541, 1314.00
1542, 1313.00
1543, 1314.00
1544, 1316.00
1545, 1316.00
1546, 1317.00
1547, 1317.00
1548, 1319.00
1549, 1320.00
1550, 1321.00
1551, 1322.00
1552, 1321.00
1553, 1323.00
1554, 1324.00
1555, 1323.00
1556, 1325.00
1557, 1326.00
1558, 1327.00
1559, 1327.00
1560, 1330.00
1561, 1329.00
1562, 1331.00
1563, 1332.00
1564, 1332.00
1565, 1332.00
1566, 1334.00
1567, 1336.00
1568, 1335.00
1569, 1337.00
1570, 1338.00
1571, 1339.00
1572, 1339.00
1573, 1340.00
1574, 1340.00
1575, 1341.00
1576, 1343.00
1577, 1344.00
1578, 1345.00
1579, 1346.00
1580, 1346.00
1581, 1347.00
1582, 1346.00
1583, 1349.00
1584, 1350.00
1585, 1351.00
1586, 1351.00
1587, 1352.00
1588, 1353.00
1589, 1354.00
1590, 1355.00
1591, 1355.00
1592, 1356.00
1593, 1357.00
1594, 1357.00
1595, 1358.00
1596, 1361.00
1597, 1360.00
1598, 1361.00
1599, 1362.00
1600, 1363.00
1601, 1364.00
1602, 1364.00
1603, 1365.00
1604, 1366.00
1605, 1366.00
1606, 1368.00
1607, 1369.00
1608, 1369.00
1609, 1372.00
1610, 1373.00
1611, 1373.00
1612, 1375.00
1613, 1376.00
1614, 1376.00
1615, 1377.00
1616, 1379.00
1617, 1379.00
1618, 1380.00
1619, 1381.00
1620, 1383.00
1621, 1384.00
1622, 1384.00
1623, 1385.00
1624, 1387.00
1625, 1388.00
1626, 1389.00
1627, 1389.00
1628, 1391.00
1629, 1391.00
1630, 1393.00
1631, 1394.00
1632, 1394.00
1633, 1395.00
1634, 1397.00
1635, 1397.00
1636, 1398.00
1637, 1399.00
1638, 1399.00
1639, 1401.00
1640, 1402.00
1641, 1401.00
1642, 1402.00
1643, 1403.00
1644, 1405.00
1645, 1405.00
1646, 1407.00
1647, 1409.00
1648, 1408.00
1649, 1410.00
1650, 1411.00

1750, 1771.00
1751, 1771.00
1752, 1771.00
1753, 1769.00
1754, 1771.00
1755, 1771.00
1756, 1773.00
1757, 1770.00
1758, 1771.00
1759, 1769.00
1760, 1771.00
1761, 1771.00
1762, 1769.00
1763, 1770.00
1764, 1769.00
1765, 1771.00
1766, 1769.00
1767, 1770.00
1768, 1770.00
1769, 1769.00
1770, 1768.00
1771, 1769.00
1772, 1770.00
1773, 1769.00
1774, 1767.00
1775, 1768.00
1776, 1767.00
1777, 1767.00
1778, 1768.00
1779, 1767.00
1780, 1767.00
1781, 1766.00
1782, 1764.00
1783, 1766.00
1784, 1767.00
1785, 1764.00
1786, 1764.00
1787, 1765.00
1788, 1764.00
1789, 1764.00
1790, 1764.00
1791, 1764.00
1792, 1763.00
1793, 1761.00
1794, 1763.00
1795, 1761.00
1796, 1760.00
1797, 1761.00
1798, 1762.00
1799, 1759.00
1800, 1759.00
1801, 1759.00
1802, 1760.00
1803, 1761.00
1804, 1756.00
1805, 1758.00
1806, 1758.00
1807, 1757.00
1808, 1756.00
1809, 1757.00
1810, 1757.00
1811, 1755.00
1812, 1756.00
1813, 1755.00
1814, 1753.00
1815, 1753.00
1816, 1753.00
1817, 1751.00
1818, 1752.00
1819, 1751.00
1820, 1751.00
1821, 1751.00
1822, 1750.00
1823, 1749.00
1824, 1749.00
1825, 1748.00
1826, 1747.00
1827, 1747.00
1828, 1745.00
1829, 1743.00
1830, 1743.00
1831, 1743.00
1832, 1742.00
1833, 1741.00
1834, 1738.00
1835, 1739.00
1836, 1739.00
1837, 1737.00
1838, 1737.00
1839, 1735.00
1840, 1732.00
1841, 1735.00
1842, 1733.00
1843, 1729.00
1844, 1728.00
1845, 1728.00
1846, 1729.00
1847, 1726.00
1848, 1725.00
1849, 1725.00
1850, 1723.00
1851, 1723.00
1852, 1722.00
1853, 1719.00
1854, 1718.00
1855, 1717.00
1856, 1718.00
1857, 1715.00
1858, 1717.00
1859, 1715.00
1860, 1714.00
1861, 1714.00
1862, 1711.00
1863, 1711.00
1864, 1710.00
1865, 1710.00
1866, 1709.00
1867, 1709.00
1868, 1707.00
1869, 1708.00
1870, 1707.00
1871, 1706.00
1872, 1705.00
1873, 1704.00
1874, 1704.00
1875, 1704.00
1876, 1704.00
1877, 1704.00
1878, 1701.00
1879, 1703.00
1880, 1701.00
1881, 1702.00
1882, 1702.00
1883, 1700.00
1884, 1702.00
1885, 1700.00
1886, 1700.00
1887, 1700.00
1888, 1700.00
1889, 1699.00
1890, 1699.00
1891, 1698.00
1892, 1697.00
1893, 1698.00
1894, 1698.00
1895, 1697.00
1896, 1697.00
1897, 1696.00
1898, 1698.00
1899, 1698.00
1900, 1697.00
1901, 1697.00
1902, 1697.00
1903, 1697.00
1904, 1695.00
1905, 1694.00
1906, 1695.00
1907, 1696.00
1908, 1695.00
1909, 1696.00
1910, 1695.00
1911, 1695.00
1912, 1693.00
1913, 1692.00
1914, 1695.00
1915, 1693.00
1916, 1692.00
1917, 1692.00
1918, 1694.00
1919, 1694.00
1920, 1694.00
1921, 1692.00
1922, 1692.00
1923, 1693.00
1924, 1693.00
1925, 1696.00
1926, 1693.00
1927, 1692.00
1928, 1692.00
1929, 1693.00
1930, 1692.00
1931, 1690.00
1932, 1693.00
1933, 1693.00
1934, 1691.00
1935, 1694.00
1936, 1694.00
1937, 1691.00
1938, 1693.00
1939, 1692.00
1940, 1692.00
1941, 1693.00
1942, 1692.00
1943, 1693.00
1944, 1693.00
1945, 1694.00
1946, 1693.00
1947, 1692.00
1948, 1694.00
1949, 1695.00
1950, 1694.00
1951, 1693.00
1952, 1693.00
1953, 1693.00
1954, 1693.00
1955, 1693.00
1956, 1693.00
1957, 1694.00
1958, 1694.00
1959, 1696.00
1960, 1694.00
1961, 1695.00
1962, 1695.00
1963, 1694.00
1964, 1694.00
1965, 1697.00
1966, 1696.00
1967, 1696.00
1968, 1696.00
1969, 1696.00
1970, 1698.00
1971, 1697.00
1972, 1697.00
1973, 1697.00
1974, 1698.00
1975, 1697.00
1976, 1699.00
1977, 1698.00
1978, 1698.00
1979, 1699.00
1980, 1699.00
1981, 1699.00
1982, 1701.00
1983, 1700.00
1984, 1698.00
1985, 1698.00
1986, 1699.00
1987, 1698.00
1988, 1698.00
1989, 1701.00
1990, 1700.00
1991, 1701.00
1992, 1701.00
1993, 1701.00
1994, 1704.00
1995, 1704.00
1996, 1702.00
1997, 1702.00
1998, 1702.00
1999, 1703.00
2000, 1702.00
2001, 1704.00
2002, 1704.00
2003, 1702.00
2004, 1702.00
2005, 1704.00
2006, 1705.00
2007, 1704.00
2008, 1704.00
2009, 1705.00
2010, 1704.00
2011, 1706.00
2012, 1705.00
2013, 1704.00
2014, 1706.00
2015, 1706.00
2016, 1705.00
2017, 1707.00
2018, 1707.00
2019, 1708.00
2020, 1709.00
2021, 1707.00
2022, 1707.00
2023, 1708.00
2024, 1708.00
2025, 1709.00
2026, 1711.00
2027, 1708.00
2028, 1710.00
2029, 1710.00
2030, 1710.00
2031, 1709.00
2032, 1711.00
2033, 1711.00
2034, 1711.00
2035, 1711.00
2036, 1710.00
2037, 1713.00
2038, 1713.00
2039, 1715.00
2040, 1713.00
2041, 1713.00
2042, 1714.00
2043, 1715.00
2044, 1716.00
2045, 1715.00
2046, 1715.00
2047, 1716.00
2048, 1716.00
2049, 1717.00
2050, 1717.00
2051, 1717.00
2052, 1716.00
2053, 1719.00
2054, 1719.00
2055, 1719.00
2056, 1720.00
2057, 1719.00
2058, 1721.00
2059, 1720.00
2060, 1721.00
2061, 1721.00
2062, 1722.00
2063, 1724.00
2064, 1724.00
2065, 1723.00
2066, 1723.00
2067, 1726.00
2068, 1725.00
2069, 1723.00
2070, 1726.00
2071, 1725.00
2072, 1725.00
2073, 1726.00
2074, 1726.00
2075, 1726.00
2076, 1727.00
2077, 1729.00
2078, 1729.00
2079, 1729.00
2080, 1729.00
2081, 1729.00
2082, 1729.00
2083, 1729.00
2084, 1729.00
2085, 1730.00
2086, 1731.00
2087, 1733.00
2088, 1733.00
2089, 1731.00
2090, 1732.00
2091, 1734.00
2092, 1731.00
2093, 1732.00
2094, 1735.00
2095, 1735.00
2096, 1734.00
2097, 1733.00
2098, 1735.00
2099, 1736.00
2100, 1736.00
2101, 1737.00
2102, 1735.00
2103, 1737.00
2104, 1736.00
2105, 1737.00
2106, 1737.00
2107, 1737.00
2108, 1737.00
2109, 1738.00
2110, 1738.00
2111, 1738.00
2112, 1737.00
2113, 1741.00
2114, 1738.00
2115, 1739.00
2116, 1738.00
2117, 1739.00
2118, 1739.00
2119, 1741.00
2120, 1740.00
2121, 1742.00
2122, 1743.00
2123, 1741.00
2124, 1742.00
2125, 1741.00
2126, 1741.00
2127, 1742.00
2128, 1742.00
2129, 1741.00
2130, 1744.00
2131, 1743.00
2132, 1743.00
2133, 1743.00
2134, 1745.00
2135, 1745.00
2136, 1744.00
2137, 1744.00
2138, 1744.00
2139, 1745.00
2140, 1745.00
2141, 1745.00
2142, 1746.00
2143, 1746.00
2144, 1747.00
2145, 1747.00
2146, 1746.00
2147, 1747.00
2148, 1747.00
2149, 1747.00
2150, 1746.00
