FW version: 24
Log Version: 3.0.3

General Info:
       Command/Macro Performed,            Timestamp,             Device ID, COM Port, UART/I2C, Test Name, Host Major, Host Minor, Host Revision, Host Git Commit
            Single_measurement,  2023_06_27_11_02_17,       Insight2_F4_xxx,    USB-C,      USB,          ,          0,          1,             1,      4031237645

Show Spectrometer Status:
l0_version, f4_version, battery_perc, battery_mVolt, accelerometer_temp, accelerometer_x, accelerometer_y, accelerometer_z, compass_temp, compass_x, compass_y, compass_z, lamp_0, lamp_1, gain_0, gain_1
        17,         24,           95,          2074,               5568,           65348,             144,           18272,            0,     65397,     65501,     65403,   3276,   3276,    1,    1

Temperature Statistic Info:
NTC AVG [°C], NTC2 AVG [°C]
      37.726,        37.439

Statistic Info:
M1:  num,      min,      max,   median,      AVG,      STD,M2:  num,      min,      max,   median,      AVG,      STD
     301,  1650.00,  1882.00,  1698.00,  1726.02,  71.7348,     401,  2192.00,  2331.00,  2249.00,  2252.64,  44.9278,

Measurements:
Wavelength, Data Amplitude
1350, 1691.00
1351, 1691.00
1352, 1689.00
1353, 1690.00
1354, 1689.00
1355, 1688.00
1356, 1688.00
1357, 1687.00
1358, 1687.00
1359, 1685.00
1360, 1685.00
1361, 1683.00
1362, 1682.00
1363, 1681.00
1364, 1680.00
1365, 1679.00
1366, 1677.00
1367, 1677.00
1368, 1676.00
1369, 1674.00
1370, 1674.00
1371, 1673.00
1372, 1672.00
1373, 1670.00
1374, 1670.00
1375, 1668.00
1376, 1666.00
1377, 1666.00
1378, 1664.00
1379, 1663.00
1380, 1663.00
1381, 1663.00
1382, 1662.00
1383, 1661.00
1384, 1659.00
1385, 1660.00
1386, 1658.00
1387, 1659.00
1388, 1658.00
1389, 1657.00
1390, 1657.00
1391, 1657.00
1392, 1655.00
1393, 1655.00
1394, 1655.00
1395, 1655.00
1396, 1655.00
1397, 1654.00
1398, 1654.00
1399, 1653.00
1400, 1653.00
1401, 1653.00
1402, 1653.00
1403, 1652.00
1404, 1653.00
1405, 1653.00
1406, 1652.00
1407, 1652.00
1408, 1651.00
1409, 1651.00
1410, 1651.00
1411, 1651.00
1412, 1652.00
1413, 1651.00
1414, 1651.00
1415, 1650.00
1416, 1651.00
1417, 1651.00
1418, 1650.00
1419, 1650.00
1420, 1651.00
1421, 1650.00
1422, 1651.00
1423, 1650.00
1424, 1651.00
1425, 1651.00
1426, 1651.00
1427, 1651.00
1428, 1650.00
1429, 1651.00
1430, 1651.00
1431, 1652.00
1432, 1652.00
1433, 1653.00
1434, 1653.00
1435, 1653.00
1436, 1653.00
1437, 1653.00
1438, 1654.00
1439, 1654.00
1440, 1654.00
1441, 1654.00
1442, 1655.00
1443, 1655.00
1444, 1655.00
1445, 1657.00
1446, 1658.00
1447, 1657.00
1448, 1657.00
1449, 1659.00
1450, 1660.00
1451, 1659.00
1452, 1659.00
1453, 1660.00
1454, 1661.00
1455, 1661.00
1456, 1662.00
1457, 1663.00
1458, 1663.00
1459, 1663.00
1460, 1663.00
1461, 1664.00
1462, 1665.00
1463, 1666.00
1464, 1666.00
1465, 1667.00
1466, 1667.00
1467, 1668.00
1468, 1669.00
1469, 1669.00
1470, 1671.00
1471, 1673.00
1472, 1672.00
1473, 1673.00
1474, 1674.00
1475, 1675.00
1476, 1675.00
1477, 1676.00
1478, 1678.00
1479, 1677.00
1480, 1678.00
1481, 1679.00
1482, 1680.00
1483, 1681.00
1484, 1682.00
1485, 1683.00
1486, 1685.00
1487, 1685.00
1488, 1686.00
1489, 1688.00
1490, 1688.00
1491, 1690.00
1492, 1691.00
1493, 1692.00
1494, 1691.00
1495, 1694.00
1496, 1694.00
1497, 1695.00
1498, 1696.00
1499, 1698.00
1500, 1697.00
1501, 1698.00
1502, 1700.00
1503, 1700.00
1504, 1701.00
1505, 1702.00
1506, 1704.00
1507, 1705.00
1508, 1705.00
1509, 1706.00
1510, 1708.00
1511, 1708.00
1512, 1709.00
1513, 1711.00
1514, 1712.00
1515, 1713.00
1516, 1715.00
1517, 1715.00
1518, 1717.00
1519, 1718.00
1520, 1718.00
1521, 1720.00
1522, 1721.00
1523, 1721.00
1524, 1723.00
1525, 1725.00
1526, 1725.00
1527, 1727.00
1528, 1727.00
1529, 1729.00
1530, 1729.00
1531, 1731.00
1532, 1733.00
1533, 1733.00
1534, 1735.00
1535, 1735.00
1536, 1737.00
1537, 1738.00
1538, 1738.00
1539, 1740.00
1540, 1741.00
1541, 1742.00
1542, 1743.00
1543, 1744.00
1544, 1746.00
1545, 1747.00
1546, 1747.00
1547, 1749.00
1548, 1751.00
1549, 1752.00
1550, 1752.00
1551, 1754.00
1552, 1755.00
1553, 1757.00
1554, 1757.00
1555, 1759.00
1556, 1760.00
1557, 1760.00
1558, 1764.00
1559, 1764.00
1560, 1765.00
1561, 1766.00
1562, 1767.00
1563, 1769.00
1564, 1770.00
1565, 1772.00
1566, 1773.00
1567, 1774.00
1568, 1775.00
1569, 1777.00
1570, 1778.00
1571, 1779.00
1572, 1779.00
1573, 1782.00
1574, 1783.00
1575, 1785.00
1576, 1785.00
1577, 1788.00
1578, 1788.00
1579, 1790.00
1580, 1791.00
1581, 1791.00
1582, 1793.00
1583, 1794.00
1584, 1795.00
1585, 1797.00
1586, 1798.00
1587, 1799.00
1588, 1800.00
1589, 1801.00
1590, 1803.00
1591, 1804.00
1592, 1806.00
1593, 1805.00
1594, 1807.00
1595, 1809.00
1596, 1809.00
1597, 1811.00
1598, 1812.00
1599, 1812.00
1600, 1814.00
1601, 1816.00
1602, 1816.00
1603, 1817.00
1604, 1819.00
1605, 1821.00
1606, 1821.00
1607, 1822.00
1608, 1824.00
1609, 1825.00
1610, 1827.00
1611, 1829.00
1612, 1830.00
1613, 1832.00
1614, 1833.00
1615, 1834.00
1616, 1835.00
1617, 1837.00
1618, 1839.00
1619, 1840.00
1620, 1842.00
1621, 1843.00
1622, 1845.00
1623, 1846.00
1624, 1847.00
1625, 1849.00
1626, 1851.00
1627, 1851.00
1628, 1853.00
1629, 1854.00
1630, 1856.00
1631, 1857.00
1632, 1860.00
1633, 1860.00
1634, 1861.00
1635, 1863.00
1636, 1864.00
1637, 1865.00
1638, 1867.00
1639, 1868.00
1640, 1868.00
1641, 1870.00
1642, 1872.00
1643, 1872.00
1644, 1873.00
1645, 1875.00
1646, 1876.00
1647, 1878.00
1648, 1880.00
1649, 1881.00
1650, 1882.00

1750, 2330.00
1751, 2331.00
1752, 2329.00
1753, 2331.00
1754, 2329.00
1755, 2330.00
1756, 2330.00
1757, 2329.00
1758, 2330.00
1759, 2329.00
1760, 2329.00
1761, 2328.00
1762, 2331.00
1763, 2328.00
1764, 2329.00
1765, 2328.00
1766, 2328.00
1767, 2328.00
1768, 2330.00
1769, 2329.00
1770, 2326.00
1771, 2327.00
1772, 2326.00
1773, 2326.00
1774, 2325.00
1775, 2326.00
1776, 2324.00
1777, 2323.00
1778, 2325.00
1779, 2323.00
1780, 2322.00
1781, 2322.00
1782, 2322.00
1783, 2322.00
1784, 2320.00
1785, 2320.00
1786, 2320.00
1787, 2321.00
1788, 2319.00
1789, 2320.00
1790, 2318.00
1791, 2319.00
1792, 2319.00
1793, 2318.00
1794, 2317.00
1795, 2317.00
1796, 2316.00
1797, 2315.00
1798, 2315.00
1799, 2315.00
1800, 2314.00
1801, 2314.00
1802, 2314.00
1803, 2313.00
1804, 2312.00
1805, 2312.00
1806, 2312.00
1807, 2312.00
1808, 2310.00
1809, 2309.00
1810, 2309.00
1811, 2307.00
1812, 2309.00
1813, 2308.00
1814, 2307.00
1815, 2307.00
1816, 2306.00
1817, 2307.00
1818, 2305.00
1819, 2305.00
1820, 2302.00
1821, 2302.00
1822, 2301.00
1823, 2301.00
1824, 2300.00
1825, 2297.00
1826, 2297.00
1827, 2295.00
1828, 2295.00
1829, 2291.00
1830, 2291.00
1831, 2290.00
1832, 2292.00
1833, 2289.00
1834, 2287.00
1835, 2284.00
1836, 2284.00
1837, 2280.00
1838, 2279.00
1839, 2279.00
1840, 2276.00
1841, 2275.00
1842, 2272.00
1843, 2270.00
1844, 2268.00
1845, 2266.00
1846, 2265.00
1847, 2262.00
1848, 2260.00
1849, 2257.00
1850, 2256.00
1851, 2254.00
1852, 2252.00
1853, 2250.00
1854, 2246.00
1855, 2243.00
1856, 2242.00
1857, 2242.00
1858, 2239.00
1859, 2237.00
1860, 2236.00
1861, 2233.00
1862, 2230.00
1863, 2229.00
1864, 2228.00
1865, 2225.00
1866, 2224.00
1867, 2221.00
1868, 2221.00
1869, 2221.00
1870, 2219.00
1871, 2218.00
1872, 2218.00
1873, 2216.00
1874, 2217.00
1875, 2213.00
1876, 2212.00
1877, 2211.00
1878, 2210.00
1879, 2209.00
1880, 2206.00
1881, 2207.00
1882, 2206.00
1883, 2206.00
1884, 2206.00
1885, 2205.00
1886, 2203.00
1887, 2204.00
1888, 2203.00
1889, 2202.00
1890, 2203.00
1891, 2200.00
1892, 2200.00
1893, 2200.00
1894, 2201.00
1895, 2200.00
1896, 2200.00
1897, 2199.00
1898, 2200.00
1899, 2199.00
1900, 2196.00
1901, 2197.00
1902, 2198.00
1903, 2197.00
1904, 2197.00
1905, 2198.00
1906, 2197.00
1907, 2197.00
1908, 2199.00
1909, 2195.00
1910, 2195.00
1911, 2194.00
1912, 2196.00
1913, 2196.00
1914, 2194.00
1915, 2195.00
1916, 2194.00
1917, 2194.00
1918, 2195.00
1919, 2194.00
1920, 2196.00
1921, 2195.00
1922, 2196.00
1923, 2192.00
1924, 2193.00
1925, 2193.00
1926, 2195.00
1927, 2193.00
1928, 2193.00
1929, 2193.00
1930, 2193.00
1931, 2193.00
1932, 2192.00
1933, 2195.00
1934, 2195.00
1935, 2195.00
1936, 2194.00
1937, 2195.00
1938, 2196.00
1939, 2196.00
1940, 2196.00
1941, 2195.00
1942, 2195.00
1943, 2193.00
1944, 2196.00
1945, 2197.00
1946, 2195.00
1947, 2195.00
1948, 2196.00
1949, 2196.00
1950, 2197.00
1951, 2199.00
1952, 2196.00
1953, 2196.00
1954, 2198.00
1955, 2199.00
1956, 2198.00
1957, 2200.00
1958, 2199.00
1959, 2200.00
1960, 2199.00
1961, 2200.00
1962, 2201.00
1963, 2201.00
1964, 2201.00
1965, 2200.00
1966, 2203.00
1967, 2201.00
1968, 2202.00
1969, 2204.00
1970, 2206.00
1971, 2203.00
1972, 2206.00
1973, 2205.00
1974, 2206.00
1975, 2207.00
1976, 2206.00
1977, 2208.00
1978, 2210.00
1979, 2208.00
1980, 2209.00
1981, 2210.00
1982, 2211.00
1983, 2210.00
1984, 2210.00
1985, 2210.00
1986, 2212.00
1987, 2212.00
1988, 2212.00
1989, 2212.00
1990, 2213.00
1991, 2213.00
1992, 2216.00
1993, 2215.00
1994, 2217.00
1995, 2215.00
1996, 2215.00
1997, 2218.00
1998, 2217.00
1999, 2217.00
2000, 2219.00
2001, 2218.00
2002, 2219.00
2003, 2219.00
2004, 2222.00
2005, 2221.00
2006, 2221.00
2007, 2221.00
2008, 2223.00
2009, 2221.00
2010, 2221.00
2011, 2221.00
2012, 2224.00
2013, 2228.00
2014, 2225.00
2015, 2228.00
2016, 2225.00
2017, 2225.00
2018, 2226.00
2019, 2228.00
2020, 2226.00
2021, 2229.00
2022, 2228.00
2023, 2229.00
2024, 2230.00
2025, 2232.00
2026, 2231.00
2027, 2231.00
2028, 2233.00
2029, 2231.00
2030, 2233.00
2031, 2232.00
2032, 2235.00
2033, 2235.00
2034, 2235.00
2035, 2234.00
2036, 2236.00
2037, 2237.00
2038, 2239.00
2039, 2238.00
2040, 2241.00
2041, 2241.00
2042, 2239.00
2043, 2240.00
2044, 2241.00
2045, 2241.00
2046, 2244.00
2047, 2245.00
2048, 2243.00
2049, 2245.00
2050, 2246.00
2051, 2248.00
2052, 2247.00
2053, 2249.00
2054, 2249.00
2055, 2250.00
2056, 2249.00
2057, 2252.00
2058, 2252.00
2059, 2253.00
2060, 2252.00
2061, 2254.00
2062, 2254.00
2063, 2256.00
2064, 2257.00
2065, 2259.00
2066, 2257.00
2067, 2258.00
2068, 2259.00
2069, 2261.00
2070, 2263.00
2071, 2263.00
2072, 2263.00
2073, 2266.00
2074, 2262.00
2075, 2266.00
2076, 2265.00
2077, 2267.00
2078, 2267.00
2079, 2267.00
2080, 2267.00
2081, 2268.00
2082, 2268.00
2083, 2270.00
2084, 2271.00
2085, 2270.00
2086, 2273.00
2087, 2272.00
2088, 2274.00
2089, 2274.00
2090, 2275.00
2091, 2275.00
2092, 2274.00
2093, 2276.00
2094, 2276.00
2095, 2277.00
2096, 2276.00
2097, 2278.00
2098, 2277.00
2099, 2280.00
2100, 2279.00
2101, 2279.00
2102, 2279.00
2103, 2281.00
2104, 2281.00
2105, 2280.00
2106, 2282.00
2107, 2283.00
2108, 2283.00
2109, 2282.00
2110, 2284.00
2111, 2283.00
2112, 2284.00
2113, 2286.00
2114, 2286.00
2115, 2285.00
2116, 2285.00
2117, 2287.00
2118, 2286.00
2119, 2286.00
2120, 2288.00
2121, 2288.00
2122, 2287.00
2123, 2289.00
2124, 2288.00
2125, 2288.00
2126, 2289.00
2127, 2290.00
2128, 2288.00
2129, 2290.00
2130, 2289.00
2131, 2289.00
2132, 2289.00
2133, 2290.00
2134, 2289.00
2135, 2290.00
2136, 2292.00
2137, 2291.00
2138, 2293.00
2139, 2292.00
2140, 2293.00
2141, 2293.00
2142, 2293.00
2143, 2293.00
2144, 2294.00
2145, 2294.00
2146, 2294.00
2147, 2294.00
2148, 2295.00
2149, 2295.00
2150, 2295.00
