FW version: 24
Log Version: 3.0.3

General Info:
       Command/Macro Performed,            Timestamp,             Device ID, COM Port, UART/I2C, Test Name, Host Major, Host Minor, Host Revision, Host Git Commit
            Single_measurement,  2023_06_27_11_01_59,       Insight2_F4_xxx,    USB-C,      USB,          ,          0,          1,             1,      4031237645

Show Spectrometer Status:
l0_version, f4_version, battery_perc, battery_mVolt, accelerometer_temp, accelerometer_x, accelerometer_y, accelerometer_z, compass_temp, compass_x, compass_y, compass_z, lamp_0, lamp_1, gain_0, gain_1
        17,         24,           95,          2074,               5552,           65396,             108,           18436,            0,     65397,     65407,     65373,   2866,   2866,    1,    1

Temperature Statistic Info:
NTC AVG [°C], NTC2 AVG [°C]
      37.554,        37.208

Statistic Info:
M1:  num,      min,      max,   median,      AVG,      STD,M2:  num,      min,      max,   median,      AVG,      STD
     301,  1285.00,  1474.00,  1325.00,  1346.99,  57.9656,     401,  1768.00,  1879.00,  1815.00,  1817.62,  36.3695,

Measurements:
Wavelength, Data Amplitude
1350, 1317.00
1351, 1316.00
1352, 1316.00
1353, 1315.00
1354, 1315.00
1355, 1315.00
1356, 1315.00
1357, 1314.00
1358, 1313.00
1359, 1312.00
1360, 1313.00
1361, 1310.00
1362, 1310.00
1363, 1309.00
1364, 1308.00
1365, 1308.00
1366, 1308.00
1367, 1307.00
1368, 1305.00
1369, 1305.00
1370, 1304.00
1371, 1302.00
1372, 1300.00
1373, 1301.00
1374, 1301.00
1375, 1300.00
1376, 1298.00
1377, 1297.00
1378, 1296.00
1379, 1296.00
1380, 1296.00
1381, 1295.00
1382, 1293.00
1383, 1294.00
1384, 1293.00
1385, 1292.00
1386, 1292.00
1387, 1291.00
1388, 1291.00
1389, 1290.00
1390, 1290.00
1391, 1291.00
1392, 1290.00
1393, 1291.00
1394, 1290.00
1395, 1289.00
1396, 1289.00
1397, 1289.00
1398, 1289.00
1399, 1288.00
1400, 1288.00
1401, 1287.00
1402, 1288.00
1403, 1287.00
1404, 1287.00
1405, 1287.00
1406, 1287.00
1407, 1286.00
1408, 1287.00
1409, 1287.00
1410, 1287.00
1411, 1286.00
1412, 1286.00
1413, 1286.00
1414, 1286.00
1415, 1285.00
1416, 1286.00
1417, 1286.00
1418, 1286.00
1419, 1286.00
1420, 1285.00
1421, 1286.00
1422, 1286.00
1423, 1286.00
1424, 1286.00
1425, 1287.00
1426, 1286.00
1427, 1286.00
1428, 1286.00
1429, 1287.00
1430, 1287.00
1431, 1288.00
1432, 1289.00
1433, 1287.00
1434, 1288.00
1435, 1288.00
1436, 1288.00
1437, 1289.00
1438, 1290.00
1439, 1289.00
1440, 1289.00
1441, 1290.00
1442, 1289.00
1443, 1290.00
1444, 1291.00
1445, 1291.00
1446, 1291.00
1447, 1292.00
1448, 1293.00
1449, 1293.00
1450, 1293.00
1451, 1294.00
1452, 1294.00
1453, 1295.00
1454, 1294.00
1455, 1295.00
1456, 1296.00
1457, 1295.00
1458, 1296.00
1459, 1297.00
1460, 1297.00
1461, 1298.00
1462, 1297.00
1463, 1298.00
1464, 1299.00
1465, 1299.00
1466, 1300.00
1467, 1301.00
1468, 1302.00
1469, 1302.00
1470, 1302.00
1471, 1303.00
1472, 1304.00
1473, 1305.00
1474, 1304.00
1475, 1306.00
1476, 1307.00
1477, 1307.00
1478, 1308.00
1479, 1308.00
1480, 1310.00
1481, 1310.00
1482, 1312.00
1483, 1313.00
1484, 1313.00
1485, 1313.00
1486, 1313.00
1487, 1315.00
1488, 1315.00
1489, 1317.00
1490, 1317.00
1491, 1317.00
1492, 1318.00
1493, 1319.00
1494, 1320.00
1495, 1320.00
1496, 1322.00
1497, 1322.00
1498, 1324.00
1499, 1325.00
1500, 1325.00
1501, 1326.00
1502, 1326.00
1503, 1327.00
1504, 1328.00
1505, 1329.00
1506, 1330.00
1507, 1330.00
1508, 1332.00
1509, 1333.00
1510, 1334.00
1511, 1333.00
1512, 1335.00
1513, 1335.00
1514, 1336.00
1515, 1336.00
1516, 1338.00
1517, 1339.00
1518, 1340.00
1519, 1341.00
1520, 1341.00
1521, 1343.00
1522, 1344.00
1523, 1344.00
1524, 1345.00
1525, 1346.00
1526, 1347.00
1527, 1348.00
1528, 1348.00
1529, 1350.00
1530, 1350.00
1531, 1352.00
1532, 1353.00
1533, 1354.00
1534, 1354.00
1535, 1355.00
1536, 1356.00
1537, 1357.00
1538, 1359.00
1539, 1359.00
1540, 1360.00
1541, 1361.00
1542, 1362.00
1543, 1362.00
1544, 1364.00
1545, 1364.00
1546, 1365.00
1547, 1366.00
1548, 1366.00
1549, 1368.00
1550, 1369.00
1551, 1369.00
1552, 1371.00
1553, 1371.00
1554, 1373.00
1555, 1373.00
1556, 1374.00
1557, 1376.00
1558, 1377.00
1559, 1377.00
1560, 1379.00
1561, 1379.00
1562, 1381.00
1563, 1381.00
1564, 1383.00
1565, 1384.00
1566, 1386.00
1567, 1386.00
1568, 1386.00
1569, 1388.00
1570, 1390.00
1571, 1390.00
1572, 1390.00
1573, 1393.00
1574, 1393.00
1575, 1394.00
1576, 1396.00
1577, 1396.00
1578, 1397.00
1579, 1398.00
1580, 1398.00
1581, 1400.00
1582, 1401.00
1583, 1402.00
1584, 1404.00
1585, 1404.00
1586, 1404.00
1587, 1405.00
1588, 1406.00
1589, 1408.00
1590, 1409.00
1591, 1409.00
1592, 1410.00
1593, 1410.00
1594, 1412.00
1595, 1414.00
1596, 1414.00
1597, 1415.00
1598, 1416.00
1599, 1417.00
1600, 1418.00
1601, 1418.00
1602, 1420.00
1603, 1421.00
1604, 1421.00
1605, 1423.00
1606, 1423.00
1607, 1424.00
1608, 1427.00
1609, 1427.00
1610, 1429.00
1611, 1430.00
1612, 1430.00
1613, 1431.00
1614, 1433.00
1615, 1434.00
1616, 1435.00
1617, 1436.00
1618, 1438.00
1619, 1439.00
1620, 1441.00
1621, 1441.00
1622, 1442.00
1623, 1444.00
1624, 1444.00
1625, 1446.00
1626, 1447.00
1627, 1449.00
1628, 1450.00
1629, 1451.00
1630, 1452.00
1631, 1453.00
1632, 1453.00
1633, 1455.00
1634, 1456.00
1635, 1457.00
1636, 1459.00
1637, 1460.00
1638, 1461.00
1639, 1463.00
1640, 1462.00
1641, 1463.00
1642, 1464.00
1643, 1466.00
1644, 1466.00
1645, 1469.00
1646, 1468.00
1647, 1471.00
1648, 1471.00
1649, 1472.00
1650, 1474.00

1750, 1878.00
1751, 1879.00
1752, 1879.00
1753, 1878.00
1754, 1879.00
1755, 1878.00
1756, 1878.00
1757, 1879.00
1758, 1879.00
1759, 1879.00
1760, 1879.00
1761, 1877.00
1762, 1877.00
1763, 1878.00
1764, 1877.00
1765, 1877.00
1766, 1877.00
1767, 1877.00
1768, 1878.00
1769, 1876.00
1770, 1877.00
1771, 1875.00
1772, 1879.00
1773, 1877.00
1774, 1877.00
1775, 1877.00
1776, 1877.00
1777, 1876.00
1778, 1874.00
1779, 1875.00
1780, 1873.00
1781, 1874.00
1782, 1874.00
1783, 1872.00
1784, 1873.00
1785, 1872.00
1786, 1871.00
1787, 1872.00
1788, 1870.00
1789, 1870.00
1790, 1870.00
1791, 1870.00
1792, 1869.00
1793, 1868.00
1794, 1868.00
1795, 1869.00
1796, 1866.00
1797, 1867.00
1798, 1868.00
1799, 1866.00
1800, 1866.00
1801, 1867.00
1802, 1864.00
1803, 1865.00
1804, 1864.00
1805, 1865.00
1806, 1865.00
1807, 1866.00
1808, 1865.00
1809, 1862.00
1810, 1863.00
1811, 1863.00
1812, 1863.00
1813, 1862.00
1814, 1862.00
1815, 1861.00
1816, 1859.00
1817, 1860.00
1818, 1859.00
1819, 1859.00
1820, 1859.00
1821, 1857.00
1822, 1857.00
1823, 1856.00
1824, 1855.00
1825, 1852.00
1826, 1853.00
1827, 1852.00
1828, 1851.00
1829, 1850.00
1830, 1849.00
1831, 1849.00
1832, 1847.00
1833, 1847.00
1834, 1844.00
1835, 1843.00
1836, 1842.00
1837, 1841.00
1838, 1840.00
1839, 1837.00
1840, 1835.00
1841, 1835.00
1842, 1834.00
1843, 1831.00
1844, 1830.00
1845, 1827.00
1846, 1828.00
1847, 1825.00
1848, 1824.00
1849, 1822.00
1850, 1818.00
1851, 1819.00
1852, 1816.00
1853, 1815.00
1854, 1812.00
1855, 1811.00
1856, 1809.00
1857, 1807.00
1858, 1806.00
1859, 1803.00
1860, 1805.00
1861, 1803.00
1862, 1801.00
1863, 1799.00
1864, 1797.00
1865, 1797.00
1866, 1794.00
1867, 1793.00
1868, 1793.00
1869, 1791.00
1870, 1789.00
1871, 1788.00
1872, 1787.00
1873, 1788.00
1874, 1787.00
1875, 1785.00
1876, 1786.00
1877, 1784.00
1878, 1784.00
1879, 1783.00
1880, 1782.00
1881, 1778.00
1882, 1780.00
1883, 1781.00
1884, 1780.00
1885, 1778.00
1886, 1777.00
1887, 1778.00
1888, 1779.00
1889, 1776.00
1890, 1776.00
1891, 1777.00
1892, 1775.00
1893, 1775.00
1894, 1775.00
1895, 1775.00
1896, 1775.00
1897, 1775.00
1898, 1774.00
1899, 1776.00
1900, 1773.00
1901, 1773.00
1902, 1773.00
1903, 1773.00
1904, 1773.00
1905, 1774.00
1906, 1773.00
1907, 1771.00
1908, 1773.00
1909, 1771.00
1910, 1771.00
1911, 1771.00
1912, 1770.00
1913, 1769.00
1914, 1770.00
1915, 1771.00
1916, 1772.00
1917, 1769.00
1918, 1769.00
1919, 1771.00
1920, 1771.00
1921, 1769.00
1922, 1770.00
1923, 1768.00
1924, 1770.00
1925, 1769.00
1926, 1770.00
1927, 1770.00
1928, 1769.00
1929, 1770.00
1930, 1770.00
1931, 1769.00
1932, 1770.00
1933, 1770.00
1934, 1771.00
1935, 1769.00
1936, 1772.00
1937, 1771.00
1938, 1770.00
1939, 1771.00
1940, 1770.00
1941, 1769.00
1942, 1771.00
1943, 1770.00
1944, 1771.00
1945, 1772.00
1946, 1772.00
1947, 1773.00
1948, 1771.00
1949, 1773.00
1950, 1772.00
1951, 1770.00
1952, 1773.00
1953, 1772.00
1954, 1773.00
1955, 1774.00
1956, 1774.00
1957, 1774.00
1958, 1775.00
1959, 1775.00
1960, 1775.00
1961, 1775.00
1962, 1774.00
1963, 1775.00
1964, 1774.00
1965, 1778.00
1966, 1775.00
1967, 1778.00
1968, 1777.00
1969, 1777.00
1970, 1777.00
1971, 1779.00
1972, 1777.00
1973, 1778.00
1974, 1779.00
1975, 1779.00
1976, 1781.00
1977, 1781.00
1978, 1781.00
1979, 1781.00
1980, 1782.00
1981, 1784.00
1982, 1783.00
1983, 1785.00
1984, 1784.00
1985, 1784.00
1986, 1783.00
1987, 1785.00
1988, 1783.00
1989, 1785.00
1990, 1786.00
1991, 1788.00
1992, 1785.00
1993, 1788.00
1994, 1788.00
1995, 1787.00
1996, 1789.00
1997, 1788.00
1998, 1789.00
1999, 1789.00
2000, 1789.00
2001, 1789.00
2002, 1791.00
2003, 1791.00
2004, 1791.00
2005, 1792.00
2006, 1791.00
2007, 1791.00
2008, 1792.00
2009, 1791.00
2010, 1791.00
2011, 1794.00
2012, 1793.00
2013, 1796.00
2014, 1795.00
2015, 1795.00
2016, 1794.00
2017, 1796.00
2018, 1797.00
2019, 1798.00
2020, 1798.00
2021, 1798.00
2022, 1797.00
2023, 1799.00
2024, 1799.00
2025, 1801.00
2026, 1801.00
2027, 1798.00
2028, 1802.00
2029, 1801.00
2030, 1801.00
2031, 1801.00
2032, 1801.00
2033, 1803.00
2034, 1803.00
2035, 1804.00
2036, 1804.00
2037, 1806.00
2038, 1807.00
2039, 1808.00
2040, 1807.00
2041, 1807.00
2042, 1808.00
2043, 1808.00
2044, 1809.00
2045, 1811.00
2046, 1810.00
2047, 1810.00
2048, 1813.00
2049, 1813.00
2050, 1811.00
2051, 1812.00
2052, 1815.00
2053, 1813.00
2054, 1817.00
2055, 1816.00
2056, 1816.00
2057, 1817.00
2058, 1817.00
2059, 1819.00
2060, 1820.00
2061, 1819.00
2062, 1820.00
2063, 1819.00
2064, 1822.00
2065, 1823.00
2066, 1823.00
2067, 1823.00
2068, 1825.00
2069, 1824.00
2070, 1824.00
2071, 1825.00
2072, 1826.00
2073, 1826.00
2074, 1829.00
2075, 1828.00
2076, 1829.00
2077, 1829.00
2078, 1830.00
2079, 1831.00
2080, 1831.00
2081, 1831.00
2082, 1832.00
2083, 1833.00
2084, 1832.00
2085, 1834.00
2086, 1833.00
2087, 1835.00
2088, 1835.00
2089, 1837.00
2090, 1837.00
2091, 1837.00
2092, 1836.00
2093, 1837.00
2094, 1837.00
2095, 1838.00
2096, 1838.00
2097, 1838.00
2098, 1840.00
2099, 1841.00
2100, 1841.00
2101, 1840.00
2102, 1841.00
2103, 1842.00
2104, 1844.00
2105, 1841.00
2106, 1842.00
2107, 1843.00
2108, 1845.00
2109, 1846.00
2110, 1844.00
2111, 1844.00
2112, 1843.00
2113, 1844.00
2114, 1844.00
2115, 1846.00
2116, 1846.00
2117, 1845.00
2118, 1847.00
2119, 1847.00
2120, 1847.00
2121, 1846.00
2122, 1848.00
2123, 1848.00
2124, 1848.00
2125, 1849.00
2126, 1849.00
2127, 1847.00
2128, 1849.00
2129, 1849.00
2130, 1849.00
2131, 1848.00
2132, 1850.00
2133, 1849.00
2134, 1850.00
2135, 1850.00
2136, 1852.00
2137, 1853.00
2138, 1852.00
2139, 1850.00
2140, 1852.00
2141, 1851.00
2142, 1853.00
2143, 1852.00
2144, 1851.00
2145, 1853.00
2146, 1852.00
2147, 1853.00
2148, 1853.00
2149, 1852.00
2150, 1853.00
