FW version: 24
Log Version: 3.0.3

General Info:
       Command/Macro Performed,            Timestamp,             Device ID, COM Port, UART/I2C, Test Name, Host Major, Host Minor, Host Revision, Host Git Commit
            Single_measurement,  2023_06_27_11_01_28,       Insight2_F4_xxx,    USB-C,      USB,          ,          0,          1,             1,      4031237645

Show Spectrometer Status:
l0_version, f4_version, battery_perc, battery_mVolt, accelerometer_temp, accelerometer_x, accelerometer_y, accelerometer_z, compass_temp, compass_x, compass_y, compass_z, lamp_0, lamp_1, gain_0, gain_1
        17,         24,           95,          2074,               5520,           65376,              92,           18480,            0,     65397,     65372,     65405,   3276,   3276,    0,    0

Temperature Statistic Info:
NTC AVG [°C], NTC2 AVG [°C]
      37.324,        37.004

Statistic Info:
M1:  num,      min,      max,   median,      AVG,      STD,M2:  num,      min,      max,   median,      AVG,      STD
     301,   572.00,   652.00,   589.00,   598.32,  24.8401,     401,   760.00,   808.00,   780.00,   781.20,  15.5947,

Measurements:
Wavelength, Data Amplitude
1350, 587.00
1351, 586.00
1352, 586.00
1353, 586.00
1354, 585.00
1355, 586.00
1356, 585.00
1357, 585.00
1358, 585.00
1359, 584.00
1360, 584.00
1361, 584.00
1362, 583.00
1363, 583.00
1364, 583.00
1365, 582.00
1366, 582.00
1367, 581.00
1368, 581.00
1369, 580.00
1370, 580.00
1371, 580.00
1372, 579.00
1373, 579.00
1374, 579.00
1375, 579.00
1376, 578.00
1377, 578.00
1378, 577.00
1379, 577.00
1380, 577.00
1381, 576.00
1382, 577.00
1383, 576.00
1384, 576.00
1385, 576.00
1386, 576.00
1387, 575.00
1388, 575.00
1389, 575.00
1390, 574.00
1391, 575.00
1392, 574.00
1393, 574.00
1394, 574.00
1395, 573.00
1396, 573.00
1397, 573.00
1398, 573.00
1399, 573.00
1400, 573.00
1401, 573.00
1402, 573.00
1403, 573.00
1404, 573.00
1405, 573.00
1406, 573.00
1407, 573.00
1408, 572.00
1409, 572.00
1410, 573.00
1411, 572.00
1412, 572.00
1413, 572.00
1414, 572.00
1415, 572.00
1416, 573.00
1417, 572.00
1418, 572.00
1419, 572.00
1420, 572.00
1421, 572.00
1422, 572.00
1423, 572.00
1424, 572.00
1425, 572.00
1426, 572.00
1427, 573.00
1428, 572.00
1429, 572.00
1430, 573.00
1431, 572.00
1432, 573.00
1433, 573.00
1434, 573.00
1435, 573.00
1436, 573.00
1437, 573.00
1438, 573.00
1439, 574.00
1440, 573.00
1441, 573.00
1442, 573.00
1443, 574.00
1444, 574.00
1445, 574.00
1446, 574.00
1447, 574.00
1448, 575.00
1449, 575.00
1450, 575.00
1451, 575.00
1452, 576.00
1453, 576.00
1454, 576.00
1455, 576.00
1456, 576.00
1457, 576.00
1458, 576.00
1459, 577.00
1460, 577.00
1461, 577.00
1462, 577.00
1463, 577.00
1464, 578.00
1465, 578.00
1466, 578.00
1467, 578.00
1468, 578.00
1469, 578.00
1470, 579.00
1471, 579.00
1472, 580.00
1473, 580.00
1474, 580.00
1475, 580.00
1476, 581.00
1477, 581.00
1478, 581.00
1479, 582.00
1480, 582.00
1481, 582.00
1482, 582.00
1483, 583.00
1484, 583.00
1485, 584.00
1486, 584.00
1487, 584.00
1488, 584.00
1489, 585.00
1490, 585.00
1491, 586.00
1492, 586.00
1493, 586.00
1494, 586.00
1495, 586.00
1496, 587.00
1497, 588.00
1498, 588.00
1499, 588.00
1500, 589.00
1501, 589.00
1502, 589.00
1503, 589.00
1504, 590.00
1505, 590.00
1506, 591.00
1507, 591.00
1508, 591.00
1509, 591.00
1510, 592.00
1511, 592.00
1512, 593.00
1513, 593.00
1514, 593.00
1515, 594.00
1516, 594.00
1517, 595.00
1518, 595.00
1519, 595.00
1520, 596.00
1521, 596.00
1522, 596.00
1523, 597.00
1524, 597.00
1525, 598.00
1526, 598.00
1527, 598.00
1528, 599.00
1529, 599.00
1530, 600.00
1531, 600.00
1532, 600.00
1533, 600.00
1534, 601.00
1535, 601.00
1536, 601.00
1537, 602.00
1538, 603.00
1539, 604.00
1540, 604.00
1541, 605.00
1542, 604.00
1543, 605.00
1544, 604.00
1545, 606.00
1546, 606.00
1547, 606.00
1548, 606.00
1549, 607.00
1550, 607.00
1551, 608.00
1552, 608.00
1553, 609.00
1554, 609.00
1555, 610.00
1556, 610.00
1557, 611.00
1558, 611.00
1559, 612.00
1560, 612.00
1561, 613.00
1562, 613.00
1563, 614.00
1564, 614.00
1565, 614.00
1566, 615.00
1567, 615.00
1568, 616.00
1569, 616.00
1570, 616.00
1571, 616.00
1572, 617.00
1573, 618.00
1574, 618.00
1575, 619.00
1576, 619.00
1577, 619.00
1578, 620.00
1579, 621.00
1580, 621.00
1581, 621.00
1582, 621.00
1583, 622.00
1584, 622.00
1585, 623.00
1586, 623.00
1587, 624.00
1588, 624.00
1589, 624.00
1590, 625.00
1591, 625.00
1592, 625.00
1593, 626.00
1594, 626.00
1595, 627.00
1596, 627.00
1597, 628.00
1598, 628.00
1599, 628.00
1600, 629.00
1601, 629.00
1602, 630.00
1603, 630.00
1604, 630.00
1605, 631.00
1606, 632.00
1607, 632.00
1608, 632.00
1609, 633.00
1610, 633.00
1611, 633.00
1612, 635.00
1613, 635.00
1614, 635.00
1615, 635.00
1616, 636.00
1617, 637.00
1618, 637.00
1619, 638.00
1620, 639.00
1621, 639.00
1622, 640.00
1623, 640.00
1624, 640.00
1625, 641.00
1626, 641.00
1627, 642.00
1628, 642.00
1629, 643.00
1630, 643.00
1631, 644.00
1632, 644.00
1633, 644.00
1634, 645.00
1635, 646.00
1636, 646.00
1637, 647.00
1638, 647.00
1639, 647.00
1640, 648.00
1641, 648.00
1642, 649.00
1643, 649.00
1644, 650.00
1645, 650.00
1646, 650.00
1647, 651.00
1648, 651.00
1649, 652.00
1650, 652.00

1750, 808.00
1751, 807.00
1752, 808.00
1753, 807.00
1754, 808.00
1755, 807.00
1756, 808.00
1757, 808.00
1758, 807.00
1759, 808.00
1760, 808.00
1761, 808.00
1762, 807.00
1763, 807.00
1764, 808.00
1765, 807.00
1766, 808.00
1767, 807.00
1768, 808.00
1769, 808.00
1770, 807.00
1771, 808.00
1772, 807.00
1773, 807.00
1774, 807.00
1775, 806.00
1776, 807.00
1777, 807.00
1778, 807.00
1779, 806.00
1780, 807.00
1781, 806.00
1782, 805.00
1783, 806.00
1784, 806.00
1785, 805.00
1786, 805.00
1787, 805.00
1788, 804.00
1789, 805.00
1790, 805.00
1791, 804.00
1792, 804.00
1793, 803.00
1794, 803.00
1795, 804.00
1796, 803.00
1797, 803.00
1798, 803.00
1799, 803.00
1800, 802.00
1801, 802.00
1802, 802.00
1803, 802.00
1804, 802.00
1805, 802.00
1806, 801.00
1807, 802.00
1808, 801.00
1809, 801.00
1810, 801.00
1811, 801.00
1812, 801.00
1813, 800.00
1814, 800.00
1815, 799.00
1816, 800.00
1817, 800.00
1818, 799.00
1819, 799.00
1820, 798.00
1821, 798.00
1822, 799.00
1823, 798.00
1824, 797.00
1825, 798.00
1826, 797.00
1827, 796.00
1828, 796.00
1829, 796.00
1830, 796.00
1831, 794.00
1832, 794.00
1833, 794.00
1834, 793.00
1835, 793.00
1836, 792.00
1837, 791.00
1838, 791.00
1839, 790.00
1840, 789.00
1841, 789.00
1842, 788.00
1843, 788.00
1844, 787.00
1845, 786.00
1846, 785.00
1847, 785.00
1848, 784.00
1849, 783.00
1850, 782.00
1851, 782.00
1852, 781.00
1853, 780.00
1854, 780.00
1855, 779.00
1856, 778.00
1857, 778.00
1858, 777.00
1859, 776.00
1860, 775.00
1861, 774.00
1862, 774.00
1863, 773.00
1864, 772.00
1865, 772.00
1866, 772.00
1867, 771.00
1868, 770.00
1869, 771.00
1870, 769.00
1871, 770.00
1872, 769.00
1873, 768.00
1874, 768.00
1875, 767.00
1876, 767.00
1877, 767.00
1878, 767.00
1879, 767.00
1880, 767.00
1881, 766.00
1882, 766.00
1883, 765.00
1884, 765.00
1885, 764.00
1886, 764.00
1887, 764.00
1888, 765.00
1889, 764.00
1890, 763.00
1891, 763.00
1892, 763.00
1893, 763.00
1894, 763.00
1895, 763.00
1896, 763.00
1897, 763.00
1898, 763.00
1899, 762.00
1900, 762.00
1901, 762.00
1902, 762.00
1903, 762.00
1904, 762.00
1905, 762.00
1906, 763.00
1907, 762.00
1908, 761.00
1909, 762.00
1910, 762.00
1911, 762.00
1912, 761.00
1913, 760.00
1914, 761.00
1915, 761.00
1916, 761.00
1917, 761.00
1918, 761.00
1919, 761.00
1920, 761.00
1921, 761.00
1922, 761.00
1923, 761.00
1924, 761.00
1925, 761.00
1926, 760.00
1927, 761.00
1928, 760.00
1929, 761.00
1930, 760.00
1931, 760.00
1932, 761.00
1933, 761.00
1934, 761.00
1935, 761.00
1936, 761.00
1937, 762.00
1938, 761.00
1939, 761.00
1940, 761.00
1941, 761.00
1942, 761.00
1943, 762.00
1944, 762.00
1945, 762.00
1946, 762.00
1947, 761.00
1948, 762.00
1949, 762.00
1950, 762.00
1951, 762.00
1952, 762.00
1953, 762.00
1954, 763.00
1955, 762.00
1956, 763.00
1957, 763.00
1958, 763.00
1959, 762.00
1960, 763.00
1961, 763.00
1962, 763.00
1963, 764.00
1964, 764.00
1965, 764.00
1966, 764.00
1967, 764.00
1968, 764.00
1969, 763.00
1970, 764.00
1971, 765.00
1972, 765.00
1973, 765.00
1974, 765.00
1975, 765.00
1976, 765.00
1977, 766.00
1978, 766.00
1979, 765.00
1980, 766.00
1981, 766.00
1982, 766.00
1983, 766.00
1984, 766.00
1985, 767.00
1986, 767.00
1987, 767.00
1988, 767.00
1989, 767.00
1990, 768.00
1991, 768.00
1992, 767.00
1993, 768.00
1994, 768.00
1995, 767.00
1996, 768.00
1997, 768.00
1998, 769.00
1999, 769.00
2000, 769.00
2001, 769.00
2002, 770.00
2003, 769.00
2004, 770.00
2005, 770.00
2006, 770.00
2007, 771.00
2008, 770.00
2009, 771.00
2010, 771.00
2011, 771.00
2012, 771.00
2013, 772.00
2014, 772.00
2015, 771.00
2016, 771.00
2017, 772.00
2018, 772.00
2019, 773.00
2020, 773.00
2021, 773.00
2022, 773.00
2023, 773.00
2024, 773.00
2025, 773.00
2026, 774.00
2027, 774.00
2028, 774.00
2029, 774.00
2030, 775.00
2031, 775.00
2032, 774.00
2033, 775.00
2034, 775.00
2035, 775.00
2036, 775.00
2037, 775.00
2038, 776.00
2039, 776.00
2040, 777.00
2041, 777.00
2042, 777.00
2043, 777.00
2044, 777.00
2045, 778.00
2046, 778.00
2047, 778.00
2048, 778.00
2049, 778.00
2050, 778.00
2051, 779.00
2052, 779.00
2053, 780.00
2054, 780.00
2055, 780.00
2056, 780.00
2057, 781.00
2058, 781.00
2059, 781.00
2060, 781.00
2061, 781.00
2062, 781.00
2063, 782.00
2064, 782.00
2065, 782.00
2066, 782.00
2067, 783.00
2068, 784.00
2069, 784.00
2070, 784.00
2071, 784.00
2072, 784.00
2073, 785.00
2074, 785.00
2075, 785.00
2076, 786.00
2077, 786.00
2078, 786.00
2079, 786.00
2080, 786.00
2081, 787.00
2082, 787.00
2083, 788.00
2084, 787.00
2085, 787.00
2086, 788.00
2087, 788.00
2088, 788.00
2089, 789.00
2090, 788.00
2091, 789.00
2092, 789.00
2093, 789.00
2094, 790.00
2095, 789.00
2096, 789.00
2097, 790.00
2098, 790.00
2099, 790.00
2100, 790.00
2101, 790.00
2102, 791.00
2103, 791.00
2104, 791.00
2105, 791.00
2106, 791.00
2107, 791.00
2108, 792.00
2109, 792.00
2110, 792.00
2111, 791.00
2112, 792.00
2113, 792.00
2114, 792.00
2115, 792.00
2116, 792.00
2117, 793.00
2118, 792.00
2119, 793.00
2120, 793.00
2121, 793.00
2122, 793.00
2123, 792.00
2124, 793.00
2125, 794.00
2126, 793.00
2127, 793.00
2128, 794.00
2129, 794.00
2130, 794.00
2131, 794.00
2132, 794.00
2133, 795.00
2134, 794.00
2135, 794.00
2136, 795.00
2137, 795.00
2138, 794.00
2139, 795.00
2140, 795.00
2141, 795.00
2142, 795.00
2143, 795.00
2144, 795.00
2145, 796.00
2146, 796.00
2147, 796.00
2148, 796.00
2149, 796.00
2150, 796.00
