FW version: 24
Log Version: 3.0.3

General Info:
       Command/Macro Performed,            Timestamp,             Device ID, COM Port, UART/I2C, Test Name, Host Major, Host Minor, Host Revision, Host Git Commit
            Single_measurement,  2023_06_27_11_02_11,       Insight2_F4_xxx,    USB-C,      USB,          ,          0,          1,             1,      4031237645

Show Spectrometer Status:
l0_version, f4_version, battery_perc, battery_mVolt, accelerometer_temp, accelerometer_x, accelerometer_y, accelerometer_z, compass_temp, compass_x, compass_y, compass_z, lamp_0, lamp_1, gain_0, gain_1
        17,         24,           95,          2075,               5568,           65368,             140,           18568,            0,     65402,     65503,     65513,   3276,   3276,    1,    1

Temperature Statistic Info:
NTC AVG [°C], NTC2 AVG [°C]
      37.669,        37.324

Statistic Info:
M1:  num,      min,      max,   median,      AVG,      STD,M2:  num,      min,      max,   median,      AVG,      STD
     301,  1651.00,  1883.00,  1698.00,  1727.28,  71.8965,     401,  2193.00,  2332.00,  2251.00,  2254.09,  44.8278,

Measurements:
Wavelength, Data Amplitude
1350, 1693.00
1351, 1692.00
1352, 1691.00
1353, 1691.00
1354, 1690.00
1355, 1688.00
1356, 1689.00
1357, 1688.00
1358, 1687.00
1359, 1685.00
1360, 1685.00
1361, 1685.00
1362, 1683.00
1363, 1683.00
1364, 1681.00
1365, 1679.00
1366, 1678.00
1367, 1678.00
1368, 1676.00
1369, 1675.00
1370, 1675.00
1371, 1674.00
1372, 1673.00
1373, 1671.00
1374, 1670.00
1375, 1668.00
1376, 1667.00
1377, 1667.00
1378, 1665.00
1379, 1665.00
1380, 1664.00
1381, 1663.00
1382, 1663.00
1383, 1662.00
1384, 1662.00
1385, 1661.00
1386, 1661.00
1387, 1660.00
1388, 1659.00
1389, 1658.00
1390, 1658.00
1391, 1657.00
1392, 1656.00
1393, 1657.00
1394, 1657.00
1395, 1656.00
1396, 1655.00
1397, 1655.00
1398, 1655.00
1399, 1655.00
1400, 1655.00
1401, 1654.00
1402, 1655.00
1403, 1654.00
1404, 1653.00
1405, 1653.00
1406, 1652.00
1407, 1654.00
1408, 1653.00
1409, 1652.00
1410, 1653.00
1411, 1652.00
1412, 1652.00
1413, 1652.00
1414, 1652.00
1415, 1651.00
1416, 1651.00
1417, 1652.00
1418, 1652.00
1419, 1652.00
1420, 1653.00
1421, 1651.00
1422, 1651.00
1423, 1652.00
1424, 1652.00
1425, 1652.00
1426, 1652.00
1427, 1653.00
1428, 1653.00
1429, 1653.00
1430, 1652.00
1431, 1653.00
1432, 1653.00
1433, 1653.00
1434, 1655.00
1435, 1654.00
1436, 1655.00
1437, 1655.00
1438, 1655.00
1439, 1656.00
1440, 1657.00
1441, 1655.00
1442, 1656.00
1443, 1657.00
1444, 1656.00
1445, 1657.00
1446, 1658.00
1447, 1658.00
1448, 1659.00
1449, 1658.00
1450, 1659.00
1451, 1660.00
1452, 1660.00
1453, 1661.00
1454, 1662.00
1455, 1662.00
1456, 1663.00
1457, 1664.00
1458, 1663.00
1459, 1665.00
1460, 1665.00
1461, 1665.00
1462, 1667.00
1463, 1666.00
1464, 1667.00
1465, 1668.00
1466, 1668.00
1467, 1669.00
1468, 1670.00
1469, 1671.00
1470, 1673.00
1471, 1672.00
1472, 1673.00
1473, 1673.00
1474, 1675.00
1475, 1677.00
1476, 1676.00
1477, 1677.00
1478, 1679.00
1479, 1680.00
1480, 1681.00
1481, 1681.00
1482, 1682.00
1483, 1683.00
1484, 1684.00
1485, 1685.00
1486, 1687.00
1487, 1687.00
1488, 1687.00
1489, 1687.00
1490, 1690.00
1491, 1690.00
1492, 1691.00
1493, 1692.00
1494, 1693.00
1495, 1695.00
1496, 1695.00
1497, 1696.00
1498, 1697.00
1499, 1698.00
1500, 1698.00
1501, 1700.00
1502, 1701.00
1503, 1701.00
1504, 1703.00
1505, 1704.00
1506, 1705.00
1507, 1705.00
1508, 1707.00
1509, 1707.00
1510, 1709.00
1511, 1710.00
1512, 1711.00
1513, 1712.00
1514, 1713.00
1515, 1714.00
1516, 1715.00
1517, 1715.00
1518, 1717.00
1519, 1718.00
1520, 1719.00
1521, 1721.00
1522, 1721.00
1523, 1723.00
1524, 1724.00
1525, 1725.00
1526, 1726.00
1527, 1728.00
1528, 1729.00
1529, 1729.00
1530, 1731.00
1531, 1731.00
1532, 1733.00
1533, 1735.00
1534, 1735.00
1535, 1737.00
1536, 1738.00
1537, 1739.00
1538, 1741.00
1539, 1741.00
1540, 1742.00
1541, 1744.00
1542, 1745.00
1543, 1747.00
1544, 1747.00
1545, 1748.00
1546, 1749.00
1547, 1749.00
1548, 1752.00
1549, 1752.00
1550, 1753.00
1551, 1755.00
1552, 1757.00
1553, 1758.00
1554, 1759.00
1555, 1760.00
1556, 1762.00
1557, 1764.00
1558, 1765.00
1559, 1767.00
1560, 1766.00
1561, 1767.00
1562, 1769.00
1563, 1770.00
1564, 1772.00
1565, 1773.00
1566, 1774.00
1567, 1775.00
1568, 1777.00
1569, 1778.00
1570, 1780.00
1571, 1780.00
1572, 1782.00
1573, 1783.00
1574, 1785.00
1575, 1786.00
1576, 1787.00
1577, 1788.00
1578, 1790.00
1579, 1791.00
1580, 1792.00
1581, 1794.00
1582, 1794.00
1583, 1796.00
1584, 1796.00
1585, 1799.00
1586, 1800.00
1587, 1801.00
1588, 1801.00
1589, 1802.00
1590, 1804.00
1591, 1804.00
1592, 1807.00
1593, 1808.00
1594, 1809.00
1595, 1810.00
1596, 1811.00
1597, 1812.00
1598, 1813.00
1599, 1815.00
1600, 1816.00
1601, 1817.00
1602, 1817.00
1603, 1819.00
1604, 1820.00
1605, 1822.00
1606, 1823.00
1607, 1825.00
1608, 1825.00
1609, 1828.00
1610, 1829.00
1611, 1830.00
1612, 1832.00
1613, 1833.00
1614, 1834.00
1615, 1836.00
1616, 1837.00
1617, 1838.00
1618, 1841.00
1619, 1842.00
1620, 1843.00
1621, 1845.00
1622, 1847.00
1623, 1847.00
1624, 1849.00
1625, 1850.00
1626, 1851.00
1627, 1854.00
1628, 1855.00
1629, 1856.00
1630, 1858.00
1631, 1859.00
1632, 1860.00
1633, 1861.00
1634, 1863.00
1635, 1865.00
1636, 1866.00
1637, 1868.00
1638, 1867.00
1639, 1869.00
1640, 1871.00
1641, 1871.00
1642, 1873.00
1643, 1873.00
1644, 1875.00
1645, 1876.00
1646, 1878.00
1647, 1879.00
1648, 1881.00
1649, 1881.00
1650, 1883.00

1750, 2330.00
1751, 2332.00
1752, 2331.00
1753, 2332.00
1754, 2330.00
1755, 2330.00
1756, 2329.00
1757, 2330.00
1758, 2330.00
1759, 2331.00
1760, 2331.00
1761, 2330.00
1762, 2330.00
1763, 2330.00
1764, 2329.00
1765, 2330.00
1766, 2329.00
1767, 2328.00
1768, 2329.00
1769, 2328.00
1770, 2328.00
1771, 2327.00
1772, 2330.00
1773, 2326.00
1774, 2327.00
1775, 2328.00
1776, 2327.00
1777, 2326.00
1778, 2327.00
1779, 2325.00
1780, 2322.00
1781, 2324.00
1782, 2324.00
1783, 2323.00
1784, 2322.00
1785, 2322.00
1786, 2321.00
1787, 2322.00
1788, 2320.00
1789, 2320.00
1790, 2320.00
1791, 2319.00
1792, 2319.00
1793, 2318.00
1794, 2317.00
1795, 2318.00
1796, 2318.00
1797, 2315.00
1798, 2317.00
1799, 2315.00
1800, 2314.00
1801, 2317.00
1802, 2312.00
1803, 2314.00
1804, 2313.00
1805, 2315.00
1806, 2313.00
1807, 2312.00
1808, 2312.00
1809, 2312.00
1810, 2311.00
1811, 2310.00
1812, 2309.00
1813, 2309.00
1814, 2309.00
1815, 2310.00
1816, 2307.00
1817, 2308.00
1818, 2307.00
1819, 2303.00
1820, 2304.00
1821, 2302.00
1822, 2303.00
1823, 2304.00
1824, 2300.00
1825, 2302.00
1826, 2298.00
1827, 2298.00
1828, 2297.00
1829, 2295.00
1830, 2292.00
1831, 2293.00
1832, 2293.00
1833, 2291.00
1834, 2288.00
1835, 2285.00
1836, 2284.00
1837, 2285.00
1838, 2281.00
1839, 2279.00
1840, 2278.00
1841, 2275.00
1842, 2273.00
1843, 2271.00
1844, 2271.00
1845, 2267.00
1846, 2265.00
1847, 2265.00
1848, 2261.00
1849, 2259.00
1850, 2258.00
1851, 2256.00
1852, 2253.00
1853, 2253.00
1854, 2248.00
1855, 2246.00
1856, 2244.00
1857, 2242.00
1858, 2241.00
1859, 2238.00
1860, 2238.00
1861, 2235.00
1862, 2231.00
1863, 2229.00
1864, 2231.00
1865, 2229.00
1866, 2226.00
1867, 2225.00
1868, 2224.00
1869, 2222.00
1870, 2218.00
1871, 2221.00
1872, 2216.00
1873, 2217.00
1874, 2216.00
1875, 2216.00
1876, 2214.00
1877, 2212.00
1878, 2213.00
1879, 2210.00
1880, 2211.00
1881, 2208.00
1882, 2209.00
1883, 2208.00
1884, 2208.00
1885, 2206.00
1886, 2207.00
1887, 2204.00
1888, 2204.00
1889, 2204.00
1890, 2204.00
1891, 2201.00
1892, 2204.00
1893, 2203.00
1894, 2202.00
1895, 2201.00
1896, 2201.00
1897, 2201.00
1898, 2202.00
1899, 2200.00
1900, 2200.00
1901, 2200.00
1902, 2198.00
1903, 2199.00
1904, 2199.00
1905, 2197.00
1906, 2196.00
1907, 2198.00
1908, 2197.00
1909, 2197.00
1910, 2199.00
1911, 2198.00
1912, 2197.00
1913, 2197.00
1914, 2196.00
1915, 2194.00
1916, 2196.00
1917, 2197.00
1918, 2196.00
1919, 2196.00
1920, 2195.00
1921, 2196.00
1922, 2196.00
1923, 2194.00
1924, 2194.00
1925, 2196.00
1926, 2195.00
1927, 2196.00
1928, 2195.00
1929, 2194.00
1930, 2193.00
1931, 2196.00
1932, 2196.00
1933, 2195.00
1934, 2196.00
1935, 2195.00
1936, 2197.00
1937, 2195.00
1938, 2197.00
1939, 2195.00
1940, 2198.00
1941, 2198.00
1942, 2197.00
1943, 2197.00
1944, 2198.00
1945, 2198.00
1946, 2198.00
1947, 2197.00
1948, 2199.00
1949, 2197.00
1950, 2198.00
1951, 2199.00
1952, 2198.00
1953, 2199.00
1954, 2199.00
1955, 2202.00
1956, 2199.00
1957, 2200.00
1958, 2200.00
1959, 2203.00
1960, 2202.00
1961, 2202.00
1962, 2203.00
1963, 2202.00
1964, 2204.00
1965, 2205.00
1966, 2204.00
1967, 2205.00
1968, 2205.00
1969, 2205.00
1970, 2206.00
1971, 2205.00
1972, 2207.00
1973, 2207.00
1974, 2207.00
1975, 2208.00
1976, 2208.00
1977, 2208.00
1978, 2210.00
1979, 2211.00
1980, 2210.00
1981, 2212.00
1982, 2208.00
1983, 2212.00
1984, 2214.00
1985, 2214.00
1986, 2213.00
1987, 2213.00
1988, 2213.00
1989, 2213.00
1990, 2216.00
1991, 2215.00
1992, 2215.00
1993, 2216.00
1994, 2216.00
1995, 2219.00
1996, 2216.00
1997, 2220.00
1998, 2218.00
1999, 2217.00
2000, 2219.00
2001, 2219.00
2002, 2220.00
2003, 2220.00
2004, 2223.00
2005, 2220.00
2006, 2223.00
2007, 2223.00
2008, 2225.00
2009, 2223.00
2010, 2224.00
2011, 2224.00
2012, 2223.00
2013, 2225.00
2014, 2226.00
2015, 2227.00
2016, 2227.00
2017, 2228.00
2018, 2228.00
2019, 2227.00
2020, 2228.00
2021, 2230.00
2022, 2230.00
2023, 2231.00
2024, 2232.00
2025, 2231.00
2026, 2231.00
2027, 2234.00
2028, 2231.00
2029, 2234.00
2030, 2234.00
2031, 2236.00
2032, 2235.00
2033, 2235.00
2034, 2236.00
2035, 2236.00
2036, 2239.00
2037, 2239.00
2038, 2240.00
2039, 2240.00
2040, 2240.00
2041, 2243.00
2042, 2242.00
2043, 2241.00
2044, 2243.00
2045, 2244.00
2046, 2244.00
2047, 2245.00
2048, 2248.00
2049, 2247.00
2050, 2247.00
2051, 2247.00
2052, 2248.00
2053, 2251.00
2054, 2250.00
2055, 2251.00
2056, 2253.00
2057, 2253.00
2058, 2253.00
2059, 2254.00
2060, 2254.00
2061, 2256.00
2062, 2257.00
2063, 2258.00
2064, 2258.00
2065, 2259.00
2066, 2259.00
2067, 2262.00
2068, 2259.00
2069, 2261.00
2070, 2263.00
2071, 2262.00
2072, 2264.00
2073, 2265.00
2074, 2265.00
2075, 2265.00
2076, 2267.00
2077, 2267.00
2078, 2269.00
2079, 2269.00
2080, 2268.00
2081, 2269.00
2082, 2270.00
2083, 2272.00
2084, 2273.00
2085, 2273.00
2086, 2277.00
2087, 2274.00
2088, 2275.00
2089, 2275.00
2090, 2276.00
2091, 2277.00
2092, 2277.00
2093, 2277.00
2094, 2278.00
2095, 2279.00
2096, 2279.00
2097, 2280.00
2098, 2279.00
2099, 2280.00
2100, 2280.00
2101, 2281.00
2102, 2281.00
2103, 2281.00
2104, 2282.00
2105, 2285.00
2106, 2285.00
2107, 2285.00
2108, 2285.00
2109, 2285.00
2110, 2284.00
2111, 2285.00
2112, 2287.00
2113, 2285.00
2114, 2286.00
2115, 2287.00
2116, 2288.00
2117, 2288.00
2118, 2287.00
2119, 2287.00
2120, 2288.00
2121, 2287.00
2122, 2289.00
2123, 2288.00
2124, 2288.00
2125, 2289.00
2126, 2290.00
2127, 2290.00
2128, 2289.00
2129, 2292.00
2130, 2291.00
2131, 2293.00
2132, 2293.00
2133, 2291.00
2134, 2292.00
2135, 2294.00
2136, 2292.00
2137, 2292.00
2138, 2294.00
2139, 2295.00
2140, 2293.00
2141, 2294.00
2142, 2295.00
2143, 2295.00
2144, 2297.00
2145, 2294.00
2146, 2296.00
2147, 2296.00
2148, 2296.00
2149, 2296.00
2150, 2296.00
