FW version: 24
Log Version: 3.0.3

General Info:
       Command/Macro Performed,            Timestamp,             Device ID, COM Port, UART/I2C, Test Name, Host Major, Host Minor, Host Revision, Host Git Commit
            Single_measurement,  2023_06_30_11_14_48,       Insight2_F4_xxx,    USB-C,      USB,          ,          0,          1,             1,      4031237645

Show Spectrometer Status:
l0_version, f4_version, battery_perc, battery_mVolt, accelerometer_temp, accelerometer_x, accelerometer_y, accelerometer_z, compass_temp, compass_x, compass_y, compass_z, lamp_0, lamp_1, gain_0, gain_1
        17,         24,           94,          2073,               6144,           65356,             476,           18460,            0,     65407,     65501,     65532,   2866,   2866,      1,      1

Temperature Statistic Info:
NTC AVG [°C], NTC2 AVG [°C]
      38.968,        38.623

Statistic Info:
M1:  num,      min,      max,   median,      AVG,      STD,M2:  num,      min,      max,   median,      AVG,      STD
     301,  1591.00,  1845.00,  1642.00,  1674.20,  78.7644,     401,  2085.00,  2240.00,  2146.00,  2152.17,  49.9806,

Measurements:
Wavelength, Data Amplitude
1350, 1639.00
1351, 1638.00
1352, 1636.00
1353, 1636.00
1354, 1635.00
1355, 1634.00
1356, 1633.00
1357, 1632.00
1358, 1631.00
1359, 1629.00
1360, 1628.00
1361, 1626.00
1362, 1627.00
1363, 1625.00
1364, 1623.00
1365, 1623.00
1366, 1622.00
1367, 1620.00
1368, 1619.00
1369, 1617.00
1370, 1617.00
1371, 1615.00
1372, 1614.00
1373, 1612.00
1374, 1612.00
1375, 1611.00
1376, 1610.00
1377, 1607.00
1378, 1608.00
1379, 1607.00
1380, 1605.00
1381, 1604.00
1382, 1604.00
1383, 1603.00
1384, 1602.00
1385, 1602.00
1386, 1601.00
1387, 1600.00
1388, 1600.00
1389, 1599.00
1390, 1599.00
1391, 1598.00
1392, 1598.00
1393, 1597.00
1394, 1596.00
1395, 1596.00
1396, 1597.00
1397, 1596.00
1398, 1596.00
1399, 1594.00
1400, 1595.00
1401, 1595.00
1402, 1593.00
1403, 1594.00
1404, 1594.00
1405, 1594.00
1406, 1594.00
1407, 1593.00
1408, 1592.00
1409, 1593.00
1410, 1592.00
1411, 1593.00
1412, 1591.00
1413, 1593.00
1414, 1591.00
1415, 1592.00
1416, 1592.00
1417, 1591.00
1418, 1592.00
1419, 1592.00
1420, 1593.00
1421, 1591.00
1422, 1592.00
1423, 1592.00
1424, 1593.00
1425, 1591.00
1426, 1591.00
1427, 1593.00
1428, 1592.00
1429, 1592.00
1430, 1593.00
1431, 1594.00
1432, 1594.00
1433, 1594.00
1434, 1594.00
1435, 1594.00
1436, 1594.00
1437, 1595.00
1438, 1595.00
1439, 1595.00
1440, 1596.00
1441, 1597.00
1442, 1597.00
1443, 1597.00
1444, 1597.00
1445, 1599.00
1446, 1598.00
1447, 1598.00
1448, 1599.00
1449, 1599.00
1450, 1601.00
1451, 1600.00
1452, 1601.00
1453, 1601.00
1454, 1601.00
1455, 1605.00
1456, 1603.00
1457, 1604.00
1458, 1605.00
1459, 1605.00
1460, 1606.00
1461, 1607.00
1462, 1607.00
1463, 1607.00
1464, 1609.00
1465, 1609.00
1466, 1610.00
1467, 1612.00
1468, 1612.00
1469, 1613.00
1470, 1612.00
1471, 1614.00
1472, 1615.00
1473, 1615.00
1474, 1616.00
1475, 1618.00
1476, 1619.00
1477, 1619.00
1478, 1621.00
1479, 1621.00
1480, 1623.00
1481, 1622.00
1482, 1623.00
1483, 1626.00
1484, 1626.00
1485, 1627.00
1486, 1628.00
1487, 1629.00
1488, 1630.00
1489, 1632.00
1490, 1632.00
1491, 1632.00
1492, 1635.00
1493, 1635.00
1494, 1636.00
1495, 1637.00
1496, 1638.00
1497, 1639.00
1498, 1640.00
1499, 1642.00
1500, 1642.00
1501, 1643.00
1502, 1645.00
1503, 1645.00
1504, 1646.00
1505, 1648.00
1506, 1649.00
1507, 1651.00
1508, 1651.00
1509, 1652.00
1510, 1652.00
1511, 1655.00
1512, 1655.00
1513, 1657.00
1514, 1657.00
1515, 1658.00
1516, 1660.00
1517, 1662.00
1518, 1663.00
1519, 1665.00
1520, 1664.00
1521, 1665.00
1522, 1667.00
1523, 1669.00
1524, 1669.00
1525, 1671.00
1526, 1672.00
1527, 1674.00
1528, 1675.00
1529, 1675.00
1530, 1677.00
1531, 1679.00
1532, 1679.00
1533, 1681.00
1534, 1683.00
1535, 1684.00
1536, 1686.00
1537, 1687.00
1538, 1688.00
1539, 1689.00
1540, 1691.00
1541, 1692.00
1542, 1693.00
1543, 1693.00
1544, 1695.00
1545, 1697.00
1546, 1698.00
1547, 1699.00
1548, 1701.00
1549, 1701.00
1550, 1703.00
1551, 1703.00
1552, 1705.00
1553, 1707.00
1554, 1708.00
1555, 1709.00
1556, 1711.00
1557, 1713.00
1558, 1715.00
1559, 1716.00
1560, 1717.00
1561, 1718.00
1562, 1721.00
1563, 1722.00
1564, 1723.00
1565, 1724.00
1566, 1726.00
1567, 1726.00
1568, 1729.00
1569, 1731.00
1570, 1731.00
1571, 1733.00
1572, 1734.00
1573, 1736.00
1574, 1737.00
1575, 1739.00
1576, 1739.00
1577, 1742.00
1578, 1742.00
1579, 1745.00
1580, 1745.00
1581, 1748.00
1582, 1749.00
1583, 1749.00
1584, 1751.00
1585, 1752.00
1586, 1752.00
1587, 1753.00
1588, 1755.00
1589, 1757.00
1590, 1758.00
1591, 1759.00
1592, 1760.00
1593, 1762.00
1594, 1764.00
1595, 1763.00
1596, 1766.00
1597, 1767.00
1598, 1768.00
1599, 1769.00
1600, 1772.00
1601, 1773.00
1602, 1774.00
1603, 1774.00
1604, 1777.00
1605, 1778.00
1606, 1779.00
1607, 1781.00
1608, 1782.00
1609, 1785.00
1610, 1785.00
1611, 1787.00
1612, 1789.00
1613, 1790.00
1614, 1792.00
1615, 1794.00
1616, 1795.00
1617, 1797.00
1618, 1798.00
1619, 1800.00
1620, 1801.00
1621, 1804.00
1622, 1804.00
1623, 1806.00
1624, 1807.00
1625, 1810.00
1626, 1811.00
1627, 1813.00
1628, 1814.00
1629, 1816.00
1630, 1817.00
1631, 1820.00
1632, 1821.00
1633, 1821.00
1634, 1823.00
1635, 1824.00
1636, 1825.00
1637, 1827.00
1638, 1829.00
1639, 1830.00
1640, 1831.00
1641, 1833.00
1642, 1834.00
1643, 1836.00
1644, 1837.00
1645, 1837.00
1646, 1839.00
1647, 1841.00
1648, 1842.00
1649, 1844.00
1650, 1845.00

1750, 2237.00
1751, 2236.00
1752, 2240.00
1753, 2235.00
1754, 2239.00
1755, 2238.00
1756, 2237.00
1757, 2237.00
1758, 2237.00
1759, 2237.00
1760, 2239.00
1761, 2238.00
1762, 2237.00
1763, 2237.00
1764, 2236.00
1765, 2238.00
1766, 2235.00
1767, 2235.00
1768, 2235.00
1769, 2236.00
1770, 2237.00
1771, 2233.00
1772, 2233.00
1773, 2235.00
1774, 2234.00
1775, 2232.00
1776, 2232.00
1777, 2232.00
1778, 2231.00
1779, 2231.00
1780, 2230.00
1781, 2230.00
1782, 2230.00
1783, 2230.00
1784, 2230.00
1785, 2228.00
1786, 2229.00
1787, 2225.00
1788, 2227.00
1789, 2226.00
1790, 2225.00
1791, 2226.00
1792, 2224.00
1793, 2225.00
1794, 2221.00
1795, 2224.00
1796, 2223.00
1797, 2222.00
1798, 2221.00
1799, 2221.00
1800, 2220.00
1801, 2220.00
1802, 2220.00
1803, 2219.00
1804, 2219.00
1805, 2218.00
1806, 2218.00
1807, 2216.00
1808, 2217.00
1809, 2215.00
1810, 2216.00
1811, 2215.00
1812, 2214.00
1813, 2212.00
1814, 2212.00
1815, 2213.00
1816, 2211.00
1817, 2211.00
1818, 2211.00
1819, 2210.00
1820, 2207.00
1821, 2208.00
1822, 2206.00
1823, 2204.00
1824, 2205.00
1825, 2201.00
1826, 2201.00
1827, 2199.00
1828, 2199.00
1829, 2195.00
1830, 2195.00
1831, 2193.00
1832, 2192.00
1833, 2190.00
1834, 2187.00
1835, 2186.00
1836, 2184.00
1837, 2182.00
1838, 2180.00
1839, 2179.00
1840, 2177.00
1841, 2177.00
1842, 2174.00
1843, 2169.00
1844, 2167.00
1845, 2166.00
1846, 2161.00
1847, 2160.00
1848, 2159.00
1849, 2156.00
1850, 2155.00
1851, 2152.00
1852, 2151.00
1853, 2146.00
1854, 2143.00
1855, 2141.00
1856, 2140.00
1857, 2137.00
1858, 2135.00
1859, 2133.00
1860, 2130.00
1861, 2129.00
1862, 2129.00
1863, 2126.00
1864, 2124.00
1865, 2122.00
1866, 2119.00
1867, 2118.00
1868, 2117.00
1869, 2116.00
1870, 2115.00
1871, 2113.00
1872, 2111.00
1873, 2110.00
1874, 2110.00
1875, 2108.00
1876, 2105.00
1877, 2105.00
1878, 2106.00
1879, 2105.00
1880, 2103.00
1881, 2101.00
1882, 2102.00
1883, 2102.00
1884, 2101.00
1885, 2098.00
1886, 2099.00
1887, 2097.00
1888, 2097.00
1889, 2096.00
1890, 2096.00
1891, 2094.00
1892, 2094.00
1893, 2093.00
1894, 2096.00
1895, 2094.00
1896, 2093.00
1897, 2093.00
1898, 2093.00
1899, 2091.00
1900, 2092.00
1901, 2091.00
1902, 2092.00
1903, 2091.00
1904, 2090.00
1905, 2091.00
1906, 2089.00
1907, 2089.00
1908, 2090.00
1909, 2087.00
1910, 2090.00
1911, 2090.00
1912, 2088.00
1913, 2090.00
1914, 2087.00
1915, 2088.00
1916, 2089.00
1917, 2087.00
1918, 2088.00
1919, 2088.00
1920, 2086.00
1921, 2087.00
1922, 2088.00
1923, 2087.00
1924, 2086.00
1925, 2088.00
1926, 2088.00
1927, 2085.00
1928, 2088.00
1929, 2089.00
1930, 2087.00
1931, 2089.00
1932, 2088.00
1933, 2089.00
1934, 2087.00
1935, 2087.00
1936, 2086.00
1937, 2087.00
1938, 2088.00
1939, 2087.00
1940, 2088.00
1941, 2089.00
1942, 2089.00
1943, 2090.00
1944, 2089.00
1945, 2089.00
1946, 2089.00
1947, 2091.00
1948, 2089.00
1949, 2091.00
1950, 2090.00
1951, 2091.00
1952, 2091.00
1953, 2091.00
1954, 2093.00
1955, 2092.00
1956, 2093.00
1957, 2093.00
1958, 2095.00
1959, 2093.00
1960, 2094.00
1961, 2093.00
1962, 2095.00
1963, 2094.00
1964, 2096.00
1965, 2096.00
1966, 2096.00
1967, 2096.00
1968, 2097.00
1969, 2098.00
1970, 2098.00
1971, 2099.00
1972, 2098.00
1973, 2100.00
1974, 2099.00
1975, 2099.00
1976, 2100.00
1977, 2103.00
1978, 2103.00
1979, 2101.00
1980, 2106.00
1981, 2104.00
1982, 2103.00
1983, 2105.00
1984, 2104.00
1985, 2106.00
1986, 2106.00
1987, 2107.00
1988, 2107.00
1989, 2108.00
1990, 2109.00
1991, 2110.00
1992, 2108.00
1993, 2109.00
1994, 2110.00
1995, 2110.00
1996, 2112.00
1997, 2112.00
1998, 2113.00
1999, 2112.00
2000, 2115.00
2001, 2114.00
2002, 2114.00
2003, 2115.00
2004, 2117.00
2005, 2115.00
2006, 2117.00
2007, 2116.00
2008, 2119.00
2009, 2119.00
2010, 2120.00
2011, 2119.00
2012, 2120.00
2013, 2120.00
2014, 2120.00
2015, 2123.00
2016, 2123.00
2017, 2124.00
2018, 2125.00
2019, 2123.00
2020, 2127.00
2021, 2125.00
2022, 2124.00
2023, 2125.00
2024, 2127.00
2025, 2127.00
2026, 2128.00
2027, 2130.00
2028, 2129.00
2029, 2127.00
2030, 2129.00
2031, 2132.00
2032, 2131.00
2033, 2133.00
2034, 2131.00
2035, 2134.00
2036, 2134.00
2037, 2137.00
2038, 2133.00
2039, 2136.00
2040, 2135.00
2041, 2136.00
2042, 2138.00
2043, 2138.00
2044, 2140.00
2045, 2140.00
2046, 2141.00
2047, 2141.00
2048, 2144.00
2049, 2144.00
2050, 2145.00
2051, 2146.00
2052, 2145.00
2053, 2146.00
2054, 2149.00
2055, 2148.00
2056, 2149.00
2057, 2151.00
2058, 2151.00
2059, 2153.00
2060, 2151.00
2061, 2154.00
2062, 2154.00
2063, 2158.00
2064, 2157.00
2065, 2157.00
2066, 2158.00
2067, 2159.00
2068, 2160.00
2069, 2160.00
2070, 2161.00
2071, 2162.00
2072, 2163.00
2073, 2164.00
2074, 2165.00
2075, 2166.00
2076, 2169.00
2077, 2165.00
2078, 2168.00
2079, 2169.00
2080, 2169.00
2081, 2171.00
2082, 2171.00
2083, 2171.00
2084, 2172.00
2085, 2174.00
2086, 2172.00
2087, 2175.00
2088, 2175.00
2089, 2176.00
2090, 2177.00
2091, 2176.00
2092, 2179.00
2093, 2177.00
2094, 2180.00
2095, 2179.00
2096, 2181.00
2097, 2180.00
2098, 2180.00
2099, 2183.00
2100, 2184.00
2101, 2184.00
2102, 2182.00
2103, 2182.00
2104, 2183.00
2105, 2185.00
2106, 2186.00
2107, 2184.00
2108, 2185.00
2109, 2187.00
2110, 2186.00
2111, 2189.00
2112, 2188.00
2113, 2189.00
2114, 2190.00
2115, 2189.00
2116, 2189.00
2117, 2189.00
2118, 2191.00
2119, 2191.00
2120, 2192.00
2121, 2191.00
2122, 2194.00
2123, 2192.00
2124, 2191.00
2125, 2194.00
2126, 2194.00
2127, 2195.00
2128, 2195.00
2129, 2195.00
2130, 2194.00
2131, 2195.00
2132, 2194.00
2133, 2197.00
2134, 2195.00
2135, 2197.00
2136, 2200.00
2137, 2198.00
2138, 2197.00
2139, 2198.00
2140, 2199.00
2141, 2199.00
2142, 2199.00
2143, 2199.00
2144, 2199.00
2145, 2199.00
2146, 2198.00
2147, 2201.00
2148, 2200.00
2149, 2200.00
2150, 2200.00
