FW version: 24
Log Version: 3.0.3

General Info:
       Command/Macro Performed,            Timestamp,             Device ID, COM Port, UART/I2C, Test Name, Host Major, Host Minor, Host Revision, Host Git Commit
            Single_measurement,  2023_06_30_11_59_06,       Insight2_F4_xxx,    USB-C,      USB,          ,          0,          1,             1,      4031237645

Show Spectrometer Status:
l0_version, f4_version, battery_perc, battery_mVolt, accelerometer_temp, accelerometer_x, accelerometer_y, accelerometer_z, compass_temp, compass_x, compass_y, compass_z, lamp_0, lamp_1, gain_0, gain_1
        17,         24,           95,          2079,               5904,              48,             888,           18480,            0,     65339,     65405,     65520,   3276,   3276,      1,      1

Temperature Statistic Info:
NTC AVG [°C], NTC2 AVG [°C]
      38.362,        38.040

Statistic Info:
M1:  num,      min,      max,   median,      AVG,      STD,M2:  num,      min,      max,   median,      AVG,      STD
     301,  2378.00,  2732.00,  2449.00,  2494.47, 110.1552,     401,  3065.00,  3283.00,  3151.00,  3158.90,  71.2586,

Measurements:
Wavelength, Data Amplitude
1350, 2448.00
1351, 2448.00
1352, 2445.00
1353, 2444.00
1354, 2442.00
1355, 2441.00
1356, 2440.00
1357, 2438.00
1358, 2438.00
1359, 2436.00
1360, 2434.00
1361, 2433.00
1362, 2431.00
1363, 2429.00
1364, 2428.00
1365, 2427.00
1366, 2423.00
1367, 2424.00
1368, 2420.00
1369, 2418.00
1370, 2418.00
1371, 2415.00
1372, 2413.00
1373, 2411.00
1374, 2410.00
1375, 2408.00
1376, 2407.00
1377, 2404.00
1378, 2403.00
1379, 2402.00
1380, 2401.00
1381, 2399.00
1382, 2398.00
1383, 2396.00
1384, 2395.00
1385, 2394.00
1386, 2393.00
1387, 2392.00
1388, 2391.00
1389, 2390.00
1390, 2390.00
1391, 2390.00
1392, 2388.00
1393, 2389.00
1394, 2387.00
1395, 2386.00
1396, 2386.00
1397, 2385.00
1398, 2386.00
1399, 2385.00
1400, 2383.00
1401, 2384.00
1402, 2382.00
1403, 2382.00
1404, 2382.00
1405, 2381.00
1406, 2381.00
1407, 2380.00
1408, 2381.00
1409, 2381.00
1410, 2380.00
1411, 2380.00
1412, 2380.00
1413, 2381.00
1414, 2379.00
1415, 2378.00
1416, 2378.00
1417, 2379.00
1418, 2378.00
1419, 2379.00
1420, 2378.00
1421, 2379.00
1422, 2380.00
1423, 2379.00
1424, 2379.00
1425, 2379.00
1426, 2380.00
1427, 2379.00
1428, 2379.00
1429, 2380.00
1430, 2380.00
1431, 2381.00
1432, 2381.00
1433, 2382.00
1434, 2380.00
1435, 2382.00
1436, 2381.00
1437, 2382.00
1438, 2382.00
1439, 2384.00
1440, 2384.00
1441, 2386.00
1442, 2385.00
1443, 2386.00
1444, 2387.00
1445, 2387.00
1446, 2388.00
1447, 2389.00
1448, 2389.00
1449, 2390.00
1450, 2391.00
1451, 2391.00
1452, 2391.00
1453, 2391.00
1454, 2393.00
1455, 2394.00
1456, 2396.00
1457, 2395.00
1458, 2396.00
1459, 2398.00
1460, 2398.00
1461, 2399.00
1462, 2400.00
1463, 2401.00
1464, 2402.00
1465, 2404.00
1466, 2403.00
1467, 2405.00
1468, 2406.00
1469, 2407.00
1470, 2407.00
1471, 2410.00
1472, 2410.00
1473, 2412.00
1474, 2413.00
1475, 2414.00
1476, 2415.00
1477, 2417.00
1478, 2418.00
1479, 2419.00
1480, 2420.00
1481, 2422.00
1482, 2425.00
1483, 2424.00
1484, 2426.00
1485, 2427.00
1486, 2428.00
1487, 2430.00
1488, 2433.00
1489, 2433.00
1490, 2434.00
1491, 2435.00
1492, 2437.00
1493, 2438.00
1494, 2441.00
1495, 2442.00
1496, 2443.00
1497, 2444.00
1498, 2446.00
1499, 2447.00
1500, 2449.00
1501, 2451.00
1502, 2451.00
1503, 2453.00
1504, 2455.00
1505, 2456.00
1506, 2458.00
1507, 2460.00
1508, 2461.00
1509, 2463.00
1510, 2463.00
1511, 2466.00
1512, 2466.00
1513, 2468.00
1514, 2471.00
1515, 2472.00
1516, 2474.00
1517, 2474.00
1518, 2476.00
1519, 2478.00
1520, 2480.00
1521, 2481.00
1522, 2481.00
1523, 2485.00
1524, 2487.00
1525, 2488.00
1526, 2490.00
1527, 2493.00
1528, 2494.00
1529, 2497.00
1530, 2498.00
1531, 2499.00
1532, 2501.00
1533, 2502.00
1534, 2505.00
1535, 2506.00
1536, 2509.00
1537, 2511.00
1538, 2513.00
1539, 2514.00
1540, 2515.00
1541, 2518.00
1542, 2520.00
1543, 2521.00
1544, 2523.00
1545, 2523.00
1546, 2526.00
1547, 2527.00
1548, 2531.00
1549, 2532.00
1550, 2533.00
1551, 2536.00
1552, 2537.00
1553, 2539.00
1554, 2541.00
1555, 2544.00
1556, 2545.00
1557, 2547.00
1558, 2550.00
1559, 2552.00
1560, 2554.00
1561, 2556.00
1562, 2558.00
1563, 2560.00
1564, 2562.00
1565, 2564.00
1566, 2567.00
1567, 2568.00
1568, 2570.00
1569, 2573.00
1570, 2574.00
1571, 2577.00
1572, 2579.00
1573, 2582.00
1574, 2584.00
1575, 2584.00
1576, 2586.00
1577, 2588.00
1578, 2589.00
1579, 2592.00
1580, 2595.00
1581, 2597.00
1582, 2598.00
1583, 2599.00
1584, 2600.00
1585, 2603.00
1586, 2605.00
1587, 2607.00
1588, 2608.00
1589, 2611.00
1590, 2611.00
1591, 2614.00
1592, 2615.00
1593, 2617.00
1594, 2619.00
1595, 2621.00
1596, 2624.00
1597, 2625.00
1598, 2627.00
1599, 2629.00
1600, 2630.00
1601, 2632.00
1602, 2634.00
1603, 2637.00
1604, 2639.00
1605, 2641.00
1606, 2643.00
1607, 2645.00
1608, 2646.00
1609, 2649.00
1610, 2651.00
1611, 2653.00
1612, 2655.00
1613, 2658.00
1614, 2660.00
1615, 2661.00
1616, 2664.00
1617, 2666.00
1618, 2669.00
1619, 2671.00
1620, 2674.00
1621, 2676.00
1622, 2677.00
1623, 2679.00
1624, 2682.00
1625, 2684.00
1626, 2687.00
1627, 2688.00
1628, 2691.00
1629, 2692.00
1630, 2695.00
1631, 2697.00
1632, 2698.00
1633, 2701.00
1634, 2704.00
1635, 2704.00
1636, 2706.00
1637, 2709.00
1638, 2710.00
1639, 2713.00
1640, 2713.00
1641, 2717.00
1642, 2718.00
1643, 2720.00
1644, 2721.00
1645, 2723.00
1646, 2725.00
1647, 2727.00
1648, 2729.00
1649, 2731.00
1650, 2732.00

1750, 3283.00
1751, 3282.00
1752, 3283.00
1753, 3282.00
1754, 3281.00
1755, 3281.00
1756, 3283.00
1757, 3283.00
1758, 3281.00
1759, 3282.00
1760, 3282.00
1761, 3281.00
1762, 3283.00
1763, 3281.00
1764, 3279.00
1765, 3278.00
1766, 3282.00
1767, 3280.00
1768, 3277.00
1769, 3280.00
1770, 3279.00
1771, 3277.00
1772, 3276.00
1773, 3276.00
1774, 3275.00
1775, 3276.00
1776, 3275.00
1777, 3273.00
1778, 3273.00
1779, 3275.00
1780, 3272.00
1781, 3271.00
1782, 3272.00
1783, 3270.00
1784, 3270.00
1785, 3269.00
1786, 3267.00
1787, 3267.00
1788, 3266.00
1789, 3266.00
1790, 3265.00
1791, 3263.00
1792, 3263.00
1793, 3263.00
1794, 3262.00
1795, 3260.00
1796, 3259.00
1797, 3258.00
1798, 3257.00
1799, 3259.00
1800, 3258.00
1801, 3259.00
1802, 3255.00
1803, 3256.00
1804, 3255.00
1805, 3255.00
1806, 3253.00
1807, 3251.00
1808, 3251.00
1809, 3250.00
1810, 3250.00
1811, 3251.00
1812, 3248.00
1813, 3248.00
1814, 3246.00
1815, 3245.00
1816, 3245.00
1817, 3245.00
1818, 3243.00
1819, 3241.00
1820, 3239.00
1821, 3240.00
1822, 3239.00
1823, 3236.00
1824, 3235.00
1825, 3231.00
1826, 3229.00
1827, 3229.00
1828, 3224.00
1829, 3225.00
1830, 3222.00
1831, 3220.00
1832, 3218.00
1833, 3216.00
1834, 3212.00
1835, 3211.00
1836, 3207.00
1837, 3208.00
1838, 3201.00
1839, 3198.00
1840, 3197.00
1841, 3195.00
1842, 3191.00
1843, 3185.00
1844, 3181.00
1845, 3183.00
1846, 3178.00
1847, 3174.00
1848, 3172.00
1849, 3167.00
1850, 3163.00
1851, 3158.00
1852, 3156.00
1853, 3154.00
1854, 3149.00
1855, 3146.00
1856, 3143.00
1857, 3141.00
1858, 3138.00
1859, 3132.00
1860, 3132.00
1861, 3127.00
1862, 3125.00
1863, 3123.00
1864, 3119.00
1865, 3115.00
1866, 3117.00
1867, 3112.00
1868, 3109.00
1869, 3109.00
1870, 3106.00
1871, 3104.00
1872, 3101.00
1873, 3099.00
1874, 3098.00
1875, 3098.00
1876, 3094.00
1877, 3095.00
1878, 3091.00
1879, 3091.00
1880, 3090.00
1881, 3089.00
1882, 3088.00
1883, 3084.00
1884, 3086.00
1885, 3084.00
1886, 3084.00
1887, 3083.00
1888, 3081.00
1889, 3080.00
1890, 3080.00
1891, 3078.00
1892, 3079.00
1893, 3079.00
1894, 3078.00
1895, 3077.00
1896, 3075.00
1897, 3074.00
1898, 3075.00
1899, 3074.00
1900, 3072.00
1901, 3074.00
1902, 3072.00
1903, 3071.00
1904, 3070.00
1905, 3072.00
1906, 3071.00
1907, 3071.00
1908, 3071.00
1909, 3070.00
1910, 3069.00
1911, 3069.00
1912, 3070.00
1913, 3068.00
1914, 3069.00
1915, 3066.00
1916, 3068.00
1917, 3066.00
1918, 3067.00
1919, 3066.00
1920, 3066.00
1921, 3065.00
1922, 3066.00
1923, 3066.00
1924, 3066.00
1925, 3066.00
1926, 3067.00
1927, 3065.00
1928, 3066.00
1929, 3068.00
1930, 3066.00
1931, 3066.00
1932, 3066.00
1933, 3065.00
1934, 3067.00
1935, 3067.00
1936, 3068.00
1937, 3067.00
1938, 3070.00
1939, 3067.00
1940, 3068.00
1941, 3066.00
1942, 3070.00
1943, 3068.00
1944, 3069.00
1945, 3069.00
1946, 3068.00
1947, 3071.00
1948, 3070.00
1949, 3070.00
1950, 3070.00
1951, 3071.00
1952, 3074.00
1953, 3072.00
1954, 3073.00
1955, 3073.00
1956, 3073.00
1957, 3075.00
1958, 3073.00
1959, 3077.00
1960, 3075.00
1961, 3077.00
1962, 3078.00
1963, 3076.00
1964, 3077.00
1965, 3080.00
1966, 3077.00
1967, 3081.00
1968, 3081.00
1969, 3081.00
1970, 3081.00
1971, 3081.00
1972, 3085.00
1973, 3085.00
1974, 3084.00
1975, 3084.00
1976, 3084.00
1977, 3087.00
1978, 3087.00
1979, 3088.00
1980, 3091.00
1981, 3091.00
1982, 3091.00
1983, 3090.00
1984, 3094.00
1985, 3092.00
1986, 3093.00
1987, 3094.00
1988, 3095.00
1989, 3096.00
1990, 3096.00
1991, 3097.00
1992, 3097.00
1993, 3095.00
1994, 3098.00
1995, 3100.00
1996, 3100.00
1997, 3104.00
1998, 3103.00
1999, 3103.00
2000, 3104.00
2001, 3104.00
2002, 3106.00
2003, 3107.00
2004, 3106.00
2005, 3110.00
2006, 3109.00
2007, 3109.00
2008, 3110.00
2009, 3112.00
2010, 3110.00
2011, 3111.00
2012, 3114.00
2013, 3114.00
2014, 3116.00
2015, 3113.00
2016, 3116.00
2017, 3116.00
2018, 3119.00
2019, 3118.00
2020, 3118.00
2021, 3119.00
2022, 3121.00
2023, 3121.00
2024, 3123.00
2025, 3123.00
2026, 3125.00
2027, 3126.00
2028, 3124.00
2029, 3127.00
2030, 3127.00
2031, 3129.00
2032, 3130.00
2033, 3131.00
2034, 3133.00
2035, 3130.00
2036, 3133.00
2037, 3133.00
2038, 3136.00
2039, 3135.00
2040, 3135.00
2041, 3137.00
2042, 3139.00
2043, 3141.00
2044, 3142.00
2045, 3141.00
2046, 3142.00
2047, 3144.00
2048, 3146.00
2049, 3147.00
2050, 3147.00
2051, 3149.00
2052, 3149.00
2053, 3151.00
2054, 3153.00
2055, 3151.00
2056, 3152.00
2057, 3155.00
2058, 3158.00
2059, 3158.00
2060, 3159.00
2061, 3161.00
2062, 3163.00
2063, 3163.00
2064, 3161.00
2065, 3165.00
2066, 3166.00
2067, 3166.00
2068, 3168.00
2069, 3169.00
2070, 3170.00
2071, 3172.00
2072, 3174.00
2073, 3173.00
2074, 3177.00
2075, 3176.00
2076, 3178.00
2077, 3178.00
2078, 3179.00
2079, 3181.00
2080, 3181.00
2081, 3182.00
2082, 3184.00
2083, 3183.00
2084, 3186.00
2085, 3185.00
2086, 3188.00
2087, 3189.00
2088, 3189.00
2089, 3191.00
2090, 3191.00
2091, 3192.00
2092, 3194.00
2093, 3195.00
2094, 3194.00
2095, 3197.00
2096, 3197.00
2097, 3197.00
2098, 3199.00
2099, 3199.00
2100, 3199.00
2101, 3200.00
2102, 3200.00
2103, 3202.00
2104, 3202.00
2105, 3203.00
2106, 3202.00
2107, 3206.00
2108, 3205.00
2109, 3205.00
2110, 3207.00
2111, 3208.00
2112, 3208.00
2113, 3208.00
2114, 3208.00
2115, 3209.00
2116, 3210.00
2117, 3211.00
2118, 3209.00
2119, 3212.00
2120, 3212.00
2121, 3211.00
2122, 3213.00
2123, 3213.00
2124, 3213.00
2125, 3214.00
2126, 3215.00
2127, 3216.00
2128, 3216.00
2129, 3217.00
2130, 3217.00
2131, 3217.00
2132, 3218.00
2133, 3219.00
2134, 3218.00
2135, 3218.00
2136, 3219.00
2137, 3218.00
2138, 3220.00
2139, 3221.00
2140, 3221.00
2141, 3224.00
2142, 3223.00
2143, 3222.00
2144, 3222.00
2145, 3224.00
2146, 3224.00
2147, 3225.00
2148, 3226.00
2149, 3225.00
2150, 3225.00
