FW version: 24
Log Version: 3.0.3

General Info:
       Command/Macro Performed,            Timestamp,             Device ID, COM Port, UART/I2C, Test Name, Host Major, Host Minor, Host Revision, Host Git Commit
            Single_measurement,  2023_06_30_11_58_58,       Insight2_F4_xxx,    USB-C,      USB,          ,          0,          1,             1,      4031237645

Show Spectrometer Status:
l0_version, f4_version, battery_perc, battery_mVolt, accelerometer_temp, accelerometer_x, accelerometer_y, accelerometer_z, compass_temp, compass_x, compass_y, compass_z, lamp_0, lamp_1, gain_0, gain_1
        17,         24,           95,          2079,               5904,             112,             872,           18596,            0,     65401,     65406,     65526,   3276,   3276,      1,      1

Temperature Statistic Info:
NTC AVG [°C], NTC2 AVG [°C]
      38.275,        37.982

Statistic Info:
M1:  num,      min,      max,   median,      AVG,      STD,M2:  num,      min,      max,   median,      AVG,      STD
     301,  2379.00,  2734.00,  2449.00,  2495.40, 110.2756,     401,  3065.00,  3286.00,  3152.00,  3159.72,  71.3393,

Measurements:
Wavelength, Data Amplitude
1350, 2449.00
1351, 2448.00
1352, 2446.00
1353, 2445.00
1354, 2443.00
1355, 2443.00
1356, 2443.00
1357, 2440.00
1358, 2439.00
1359, 2436.00
1360, 2436.00
1361, 2433.00
1362, 2432.00
1363, 2430.00
1364, 2428.00
1365, 2428.00
1366, 2424.00
1367, 2423.00
1368, 2421.00
1369, 2419.00
1370, 2417.00
1371, 2416.00
1372, 2413.00
1373, 2412.00
1374, 2411.00
1375, 2410.00
1376, 2407.00
1377, 2405.00
1378, 2403.00
1379, 2403.00
1380, 2401.00
1381, 2401.00
1382, 2399.00
1383, 2397.00
1384, 2396.00
1385, 2395.00
1386, 2394.00
1387, 2394.00
1388, 2392.00
1389, 2391.00
1390, 2391.00
1391, 2388.00
1392, 2388.00
1393, 2390.00
1394, 2388.00
1395, 2387.00
1396, 2387.00
1397, 2386.00
1398, 2384.00
1399, 2385.00
1400, 2384.00
1401, 2384.00
1402, 2384.00
1403, 2384.00
1404, 2382.00
1405, 2382.00
1406, 2382.00
1407, 2383.00
1408, 2380.00
1409, 2381.00
1410, 2382.00
1411, 2381.00
1412, 2382.00
1413, 2379.00
1414, 2379.00
1415, 2381.00
1416, 2380.00
1417, 2380.00
1418, 2380.00
1419, 2380.00
1420, 2380.00
1421, 2379.00
1422, 2380.00
1423, 2381.00
1424, 2379.00
1425, 2379.00
1426, 2379.00
1427, 2380.00
1428, 2380.00
1429, 2380.00
1430, 2381.00
1431, 2381.00
1432, 2381.00
1433, 2382.00
1434, 2382.00
1435, 2383.00
1436, 2383.00
1437, 2384.00
1438, 2385.00
1439, 2383.00
1440, 2385.00
1441, 2385.00
1442, 2385.00
1443, 2388.00
1444, 2387.00
1445, 2388.00
1446, 2388.00
1447, 2391.00
1448, 2389.00
1449, 2390.00
1450, 2392.00
1451, 2391.00
1452, 2391.00
1453, 2394.00
1454, 2394.00
1455, 2395.00
1456, 2396.00
1457, 2397.00
1458, 2396.00
1459, 2400.00
1460, 2399.00
1461, 2399.00
1462, 2401.00
1463, 2402.00
1464, 2403.00
1465, 2404.00
1466, 2405.00
1467, 2407.00
1468, 2407.00
1469, 2408.00
1470, 2409.00
1471, 2410.00
1472, 2411.00
1473, 2413.00
1474, 2413.00
1475, 2415.00
1476, 2415.00
1477, 2418.00
1478, 2419.00
1479, 2421.00
1480, 2422.00
1481, 2423.00
1482, 2425.00
1483, 2425.00
1484, 2427.00
1485, 2429.00
1486, 2429.00
1487, 2431.00
1488, 2432.00
1489, 2434.00
1490, 2436.00
1491, 2436.00
1492, 2437.00
1493, 2438.00
1494, 2442.00
1495, 2441.00
1496, 2445.00
1497, 2445.00
1498, 2447.00
1499, 2449.00
1500, 2449.00
1501, 2451.00
1502, 2453.00
1503, 2455.00
1504, 2456.00
1505, 2457.00
1506, 2459.00
1507, 2460.00
1508, 2462.00
1509, 2464.00
1510, 2465.00
1511, 2465.00
1512, 2468.00
1513, 2469.00
1514, 2470.00
1515, 2473.00
1516, 2474.00
1517, 2476.00
1518, 2477.00
1519, 2479.00
1520, 2480.00
1521, 2482.00
1522, 2485.00
1523, 2486.00
1524, 2488.00
1525, 2490.00
1526, 2491.00
1527, 2493.00
1528, 2495.00
1529, 2495.00
1530, 2499.00
1531, 2500.00
1532, 2502.00
1533, 2503.00
1534, 2505.00
1535, 2509.00
1536, 2509.00
1537, 2511.00
1538, 2513.00
1539, 2514.00
1540, 2517.00
1541, 2519.00
1542, 2520.00
1543, 2523.00
1544, 2523.00
1545, 2525.00
1546, 2528.00
1547, 2530.00
1548, 2532.00
1549, 2532.00
1550, 2535.00
1551, 2537.00
1552, 2540.00
1553, 2540.00
1554, 2543.00
1555, 2543.00
1556, 2547.00
1557, 2548.00
1558, 2551.00
1559, 2553.00
1560, 2555.00
1561, 2557.00
1562, 2559.00
1563, 2561.00
1564, 2563.00
1565, 2566.00
1566, 2566.00
1567, 2569.00
1568, 2571.00
1569, 2574.00
1570, 2575.00
1571, 2578.00
1572, 2580.00
1573, 2582.00
1574, 2583.00
1575, 2585.00
1576, 2587.00
1577, 2590.00
1578, 2591.00
1579, 2594.00
1580, 2596.00
1581, 2598.00
1582, 2600.00
1583, 2600.00
1584, 2602.00
1585, 2605.00
1586, 2606.00
1587, 2607.00
1588, 2610.00
1589, 2611.00
1590, 2612.00
1591, 2615.00
1592, 2617.00
1593, 2619.00
1594, 2620.00
1595, 2622.00
1596, 2624.00
1597, 2625.00
1598, 2628.00
1599, 2630.00
1600, 2632.00
1601, 2633.00
1602, 2635.00
1603, 2637.00
1604, 2639.00
1605, 2642.00
1606, 2644.00
1607, 2645.00
1608, 2647.00
1609, 2650.00
1610, 2651.00
1611, 2654.00
1612, 2656.00
1613, 2658.00
1614, 2661.00
1615, 2663.00
1616, 2667.00
1617, 2668.00
1618, 2670.00
1619, 2673.00
1620, 2674.00
1621, 2677.00
1622, 2678.00
1623, 2681.00
1624, 2683.00
1625, 2685.00
1626, 2686.00
1627, 2690.00
1628, 2692.00
1629, 2693.00
1630, 2697.00
1631, 2697.00
1632, 2699.00
1633, 2701.00
1634, 2704.00
1635, 2706.00
1636, 2709.00
1637, 2710.00
1638, 2711.00
1639, 2714.00
1640, 2715.00
1641, 2716.00
1642, 2720.00
1643, 2721.00
1644, 2723.00
1645, 2725.00
1646, 2726.00
1647, 2729.00
1648, 2730.00
1649, 2732.00
1650, 2734.00

1750, 3282.00
1751, 3282.00
1752, 3282.00
1753, 3284.00
1754, 3283.00
1755, 3283.00
1756, 3286.00
1757, 3283.00
1758, 3283.00
1759, 3282.00
1760, 3280.00
1761, 3282.00
1762, 3283.00
1763, 3280.00
1764, 3282.00
1765, 3282.00
1766, 3281.00
1767, 3279.00
1768, 3278.00
1769, 3280.00
1770, 3282.00
1771, 3277.00
1772, 3278.00
1773, 3280.00
1774, 3275.00
1775, 3276.00
1776, 3277.00
1777, 3274.00
1778, 3273.00
1779, 3275.00
1780, 3273.00
1781, 3273.00
1782, 3274.00
1783, 3271.00
1784, 3271.00
1785, 3270.00
1786, 3268.00
1787, 3267.00
1788, 3269.00
1789, 3269.00
1790, 3266.00
1791, 3266.00
1792, 3264.00
1793, 3263.00
1794, 3263.00
1795, 3263.00
1796, 3259.00
1797, 3260.00
1798, 3259.00
1799, 3258.00
1800, 3257.00
1801, 3259.00
1802, 3258.00
1803, 3257.00
1804, 3256.00
1805, 3255.00
1806, 3254.00
1807, 3255.00
1808, 3253.00
1809, 3255.00
1810, 3251.00
1811, 3250.00
1812, 3250.00
1813, 3247.00
1814, 3247.00
1815, 3247.00
1816, 3246.00
1817, 3246.00
1818, 3243.00
1819, 3244.00
1820, 3242.00
1821, 3238.00
1822, 3238.00
1823, 3237.00
1824, 3234.00
1825, 3234.00
1826, 3232.00
1827, 3230.00
1828, 3227.00
1829, 3227.00
1830, 3223.00
1831, 3220.00
1832, 3218.00
1833, 3215.00
1834, 3216.00
1835, 3212.00
1836, 3209.00
1837, 3206.00
1838, 3203.00
1839, 3201.00
1840, 3196.00
1841, 3195.00
1842, 3192.00
1843, 3186.00
1844, 3185.00
1845, 3181.00
1846, 3178.00
1847, 3176.00
1848, 3170.00
1849, 3166.00
1850, 3165.00
1851, 3160.00
1852, 3159.00
1853, 3154.00
1854, 3151.00
1855, 3147.00
1856, 3144.00
1857, 3142.00
1858, 3137.00
1859, 3135.00
1860, 3133.00
1861, 3130.00
1862, 3127.00
1863, 3123.00
1864, 3122.00
1865, 3120.00
1866, 3115.00
1867, 3113.00
1868, 3110.00
1869, 3109.00
1870, 3105.00
1871, 3104.00
1872, 3101.00
1873, 3101.00
1874, 3099.00
1875, 3097.00
1876, 3097.00
1877, 3095.00
1878, 3094.00
1879, 3092.00
1880, 3091.00
1881, 3089.00
1882, 3089.00
1883, 3087.00
1884, 3087.00
1885, 3086.00
1886, 3086.00
1887, 3083.00
1888, 3083.00
1889, 3083.00
1890, 3079.00
1891, 3081.00
1892, 3078.00
1893, 3077.00
1894, 3078.00
1895, 3077.00
1896, 3076.00
1897, 3076.00
1898, 3075.00
1899, 3075.00
1900, 3075.00
1901, 3073.00
1902, 3074.00
1903, 3074.00
1904, 3071.00
1905, 3073.00
1906, 3073.00
1907, 3070.00
1908, 3071.00
1909, 3071.00
1910, 3069.00
1911, 3070.00
1912, 3069.00
1913, 3069.00
1914, 3069.00
1915, 3069.00
1916, 3065.00
1917, 3068.00
1918, 3066.00
1919, 3067.00
1920, 3067.00
1921, 3069.00
1922, 3067.00
1923, 3067.00
1924, 3067.00
1925, 3067.00
1926, 3066.00
1927, 3066.00
1928, 3067.00
1929, 3066.00
1930, 3067.00
1931, 3066.00
1932, 3067.00
1933, 3067.00
1934, 3067.00
1935, 3066.00
1936, 3067.00
1937, 3066.00
1938, 3069.00
1939, 3069.00
1940, 3067.00
1941, 3068.00
1942, 3070.00
1943, 3069.00
1944, 3069.00
1945, 3069.00
1946, 3070.00
1947, 3072.00
1948, 3071.00
1949, 3072.00
1950, 3070.00
1951, 3072.00
1952, 3072.00
1953, 3073.00
1954, 3073.00
1955, 3073.00
1956, 3075.00
1957, 3074.00
1958, 3075.00
1959, 3075.00
1960, 3077.00
1961, 3078.00
1962, 3077.00
1963, 3081.00
1964, 3080.00
1965, 3079.00
1966, 3080.00
1967, 3080.00
1968, 3081.00
1969, 3084.00
1970, 3082.00
1971, 3083.00
1972, 3083.00
1973, 3084.00
1974, 3086.00
1975, 3086.00
1976, 3087.00
1977, 3088.00
1978, 3090.00
1979, 3089.00
1980, 3091.00
1981, 3089.00
1982, 3090.00
1983, 3094.00
1984, 3095.00
1985, 3095.00
1986, 3094.00
1987, 3094.00
1988, 3098.00
1989, 3097.00
1990, 3095.00
1991, 3098.00
1992, 3098.00
1993, 3099.00
1994, 3100.00
1995, 3104.00
1996, 3102.00
1997, 3104.00
1998, 3104.00
1999, 3104.00
2000, 3105.00
2001, 3105.00
2002, 3105.00
2003, 3106.00
2004, 3109.00
2005, 3107.00
2006, 3111.00
2007, 3111.00
2008, 3110.00
2009, 3111.00
2010, 3112.00
2011, 3113.00
2012, 3113.00
2013, 3113.00
2014, 3115.00
2015, 3115.00
2016, 3118.00
2017, 3117.00
2018, 3118.00
2019, 3120.00
2020, 3120.00
2021, 3121.00
2022, 3122.00
2023, 3120.00
2024, 3123.00
2025, 3123.00
2026, 3124.00
2027, 3127.00
2028, 3125.00
2029, 3128.00
2030, 3127.00
2031, 3127.00
2032, 3131.00
2033, 3131.00
2034, 3131.00
2035, 3132.00
2036, 3133.00
2037, 3134.00
2038, 3136.00
2039, 3136.00
2040, 3137.00
2041, 3138.00
2042, 3140.00
2043, 3141.00
2044, 3141.00
2045, 3142.00
2046, 3142.00
2047, 3144.00
2048, 3146.00
2049, 3146.00
2050, 3148.00
2051, 3149.00
2052, 3152.00
2053, 3151.00
2054, 3151.00
2055, 3154.00
2056, 3154.00
2057, 3157.00
2058, 3156.00
2059, 3158.00
2060, 3159.00
2061, 3161.00
2062, 3161.00
2063, 3165.00
2064, 3165.00
2065, 3165.00
2066, 3167.00
2067, 3168.00
2068, 3170.00
2069, 3170.00
2070, 3173.00
2071, 3172.00
2072, 3175.00
2073, 3174.00
2074, 3175.00
2075, 3175.00
2076, 3177.00
2077, 3179.00
2078, 3179.00
2079, 3181.00
2080, 3182.00
2081, 3183.00
2082, 3183.00
2083, 3185.00
2084, 3187.00
2085, 3187.00
2086, 3188.00
2087, 3189.00
2088, 3189.00
2089, 3191.00
2090, 3192.00
2091, 3193.00
2092, 3195.00
2093, 3195.00
2094, 3195.00
2095, 3197.00
2096, 3197.00
2097, 3199.00
2098, 3200.00
2099, 3200.00
2100, 3200.00
2101, 3202.00
2102, 3203.00
2103, 3201.00
2104, 3203.00
2105, 3204.00
2106, 3205.00
2107, 3206.00
2108, 3207.00
2109, 3206.00
2110, 3205.00
2111, 3208.00
2112, 3207.00
2113, 3208.00
2114, 3210.00
2115, 3212.00
2116, 3210.00
2117, 3212.00
2118, 3212.00
2119, 3213.00
2120, 3210.00
2121, 3214.00
2122, 3214.00
2123, 3216.00
2124, 3214.00
2125, 3215.00
2126, 3216.00
2127, 3216.00
2128, 3216.00
2129, 3217.00
2130, 3218.00
2131, 3218.00
2132, 3216.00
2133, 3218.00
2134, 3219.00
2135, 3218.00
2136, 3220.00
2137, 3220.00
2138, 3221.00
2139, 3222.00
2140, 3223.00
2141, 3223.00
2142, 3223.00
2143, 3223.00
2144, 3225.00
2145, 3224.00
2146, 3225.00
2147, 3224.00
2148, 3226.00
2149, 3227.00
2150, 3224.00
