FW version: 24
Log Version: 3.0.3

General Info:
       Command/Macro Performed,            Timestamp,             Device ID, COM Port, UART/I2C, Test Name, Host Major, Host Minor, Host Revision, Host Git Commit
            Single_measurement,  2023_06_30_11_57_48,       Insight2_F4_xxx,    USB-C,      USB,          ,          0,          1,             1,      4031237645

Show Spectrometer Status:
l0_version, f4_version, battery_perc, battery_mVolt, accelerometer_temp, accelerometer_x, accelerometer_y, accelerometer_z, compass_temp, compass_x, compass_y, compass_z, lamp_0, lamp_1, gain_0, gain_1
        17,         24,           95,          2080,               5856,           65456,             856,           18484,            0,     65469,     65375,     65524,   3276,   3276,      0,      0

Temperature Statistic Info:
NTC AVG [°C], NTC2 AVG [°C]
      37.897,        37.612

Statistic Info:
M1:  num,      min,      max,   median,      AVG,      STD,M2:  num,      min,      max,   median,      AVG,      STD
     301,   820.00,   943.00,   845.00,   860.95,  37.9112,     401,  1060.00,  1136.00,  1090.00,  1092.63,  24.7191,

Measurements:
Wavelength, Data Amplitude
1350, 845.00
1351, 845.00
1352, 845.00
1353, 844.00
1354, 843.00
1355, 843.00
1356, 843.00
1357, 842.00
1358, 842.00
1359, 841.00
1360, 841.00
1361, 840.00
1362, 839.00
1363, 839.00
1364, 838.00
1365, 838.00
1366, 837.00
1367, 837.00
1368, 836.00
1369, 835.00
1370, 835.00
1371, 833.00
1372, 833.00
1373, 833.00
1374, 832.00
1375, 831.00
1376, 831.00
1377, 830.00
1378, 829.00
1379, 829.00
1380, 829.00
1381, 828.00
1382, 828.00
1383, 828.00
1384, 826.00
1385, 827.00
1386, 826.00
1387, 826.00
1388, 826.00
1389, 825.00
1390, 825.00
1391, 825.00
1392, 824.00
1393, 825.00
1394, 824.00
1395, 824.00
1396, 823.00
1397, 823.00
1398, 823.00
1399, 823.00
1400, 822.00
1401, 823.00
1402, 823.00
1403, 823.00
1404, 822.00
1405, 823.00
1406, 822.00
1407, 822.00
1408, 822.00
1409, 822.00
1410, 822.00
1411, 822.00
1412, 821.00
1413, 821.00
1414, 821.00
1415, 821.00
1416, 821.00
1417, 821.00
1418, 821.00
1419, 821.00
1420, 821.00
1421, 821.00
1422, 820.00
1423, 821.00
1424, 821.00
1425, 822.00
1426, 821.00
1427, 821.00
1428, 821.00
1429, 821.00
1430, 821.00
1431, 821.00
1432, 821.00
1433, 822.00
1434, 822.00
1435, 822.00
1436, 822.00
1437, 823.00
1438, 822.00
1439, 823.00
1440, 823.00
1441, 823.00
1442, 823.00
1443, 823.00
1444, 823.00
1445, 824.00
1446, 824.00
1447, 824.00
1448, 824.00
1449, 825.00
1450, 825.00
1451, 826.00
1452, 825.00
1453, 826.00
1454, 826.00
1455, 826.00
1456, 826.00
1457, 827.00
1458, 827.00
1459, 827.00
1460, 828.00
1461, 828.00
1462, 828.00
1463, 829.00
1464, 829.00
1465, 829.00
1466, 829.00
1467, 830.00
1468, 831.00
1469, 831.00
1470, 832.00
1471, 831.00
1472, 832.00
1473, 832.00
1474, 833.00
1475, 834.00
1476, 833.00
1477, 835.00
1478, 835.00
1479, 835.00
1480, 836.00
1481, 836.00
1482, 837.00
1483, 837.00
1484, 837.00
1485, 837.00
1486, 838.00
1487, 839.00
1488, 839.00
1489, 839.00
1490, 839.00
1491, 841.00
1492, 841.00
1493, 842.00
1494, 842.00
1495, 843.00
1496, 844.00
1497, 844.00
1498, 845.00
1499, 845.00
1500, 845.00
1501, 845.00
1502, 846.00
1503, 847.00
1504, 847.00
1505, 848.00
1506, 848.00
1507, 849.00
1508, 849.00
1509, 850.00
1510, 851.00
1511, 851.00
1512, 851.00
1513, 852.00
1514, 853.00
1515, 853.00
1516, 854.00
1517, 854.00
1518, 855.00
1519, 856.00
1520, 855.00
1521, 856.00
1522, 858.00
1523, 858.00
1524, 859.00
1525, 859.00
1526, 859.00
1527, 860.00
1528, 861.00
1529, 861.00
1530, 862.00
1531, 863.00
1532, 863.00
1533, 864.00
1534, 865.00
1535, 865.00
1536, 866.00
1537, 866.00
1538, 867.00
1539, 867.00
1540, 869.00
1541, 869.00
1542, 870.00
1543, 870.00
1544, 871.00
1545, 871.00
1546, 872.00
1547, 872.00
1548, 873.00
1549, 874.00
1550, 875.00
1551, 875.00
1552, 876.00
1553, 877.00
1554, 877.00
1555, 878.00
1556, 878.00
1557, 879.00
1558, 880.00
1559, 880.00
1560, 882.00
1561, 882.00
1562, 883.00
1563, 884.00
1564, 884.00
1565, 885.00
1566, 886.00
1567, 886.00
1568, 887.00
1569, 888.00
1570, 888.00
1571, 889.00
1572, 889.00
1573, 891.00
1574, 891.00
1575, 892.00
1576, 893.00
1577, 893.00
1578, 894.00
1579, 895.00
1580, 895.00
1581, 896.00
1582, 897.00
1583, 897.00
1584, 898.00
1585, 898.00
1586, 899.00
1587, 900.00
1588, 900.00
1589, 901.00
1590, 902.00
1591, 902.00
1592, 903.00
1593, 903.00
1594, 904.00
1595, 905.00
1596, 905.00
1597, 906.00
1598, 906.00
1599, 907.00
1600, 908.00
1601, 908.00
1602, 909.00
1603, 910.00
1604, 910.00
1605, 910.00
1606, 912.00
1607, 912.00
1608, 913.00
1609, 914.00
1610, 915.00
1611, 916.00
1612, 916.00
1613, 917.00
1614, 918.00
1615, 918.00
1616, 920.00
1617, 920.00
1618, 921.00
1619, 922.00
1620, 922.00
1621, 923.00
1622, 924.00
1623, 925.00
1624, 925.00
1625, 926.00
1626, 926.00
1627, 928.00
1628, 928.00
1629, 929.00
1630, 930.00
1631, 931.00
1632, 932.00
1633, 932.00
1634, 933.00
1635, 933.00
1636, 934.00
1637, 935.00
1638, 935.00
1639, 936.00
1640, 936.00
1641, 937.00
1642, 938.00
1643, 939.00
1644, 939.00
1645, 939.00
1646, 940.00
1647, 941.00
1648, 942.00
1649, 942.00
1650, 943.00

1750, 1136.00
1751, 1134.00
1752, 1135.00
1753, 1135.00
1754, 1136.00
1755, 1135.00
1756, 1135.00
1757, 1136.00
1758, 1135.00
1759, 1135.00
1760, 1135.00
1761, 1136.00
1762, 1135.00
1763, 1135.00
1764, 1135.00
1765, 1135.00
1766, 1134.00
1767, 1135.00
1768, 1135.00
1769, 1135.00
1770, 1135.00
1771, 1134.00
1772, 1134.00
1773, 1134.00
1774, 1133.00
1775, 1133.00
1776, 1133.00
1777, 1133.00
1778, 1132.00
1779, 1132.00
1780, 1132.00
1781, 1132.00
1782, 1132.00
1783, 1131.00
1784, 1131.00
1785, 1130.00
1786, 1131.00
1787, 1130.00
1788, 1131.00
1789, 1129.00
1790, 1130.00
1791, 1130.00
1792, 1129.00
1793, 1129.00
1794, 1129.00
1795, 1128.00
1796, 1127.00
1797, 1128.00
1798, 1127.00
1799, 1127.00
1800, 1127.00
1801, 1127.00
1802, 1127.00
1803, 1126.00
1804, 1126.00
1805, 1125.00
1806, 1126.00
1807, 1125.00
1808, 1126.00
1809, 1125.00
1810, 1124.00
1811, 1124.00
1812, 1124.00
1813, 1124.00
1814, 1123.00
1815, 1123.00
1816, 1123.00
1817, 1121.00
1818, 1122.00
1819, 1121.00
1820, 1121.00
1821, 1120.00
1822, 1120.00
1823, 1120.00
1824, 1118.00
1825, 1118.00
1826, 1118.00
1827, 1117.00
1828, 1115.00
1829, 1116.00
1830, 1115.00
1831, 1114.00
1832, 1114.00
1833, 1112.00
1834, 1111.00
1835, 1111.00
1836, 1111.00
1837, 1109.00
1838, 1108.00
1839, 1107.00
1840, 1106.00
1841, 1105.00
1842, 1104.00
1843, 1103.00
1844, 1102.00
1845, 1100.00
1846, 1099.00
1847, 1099.00
1848, 1096.00
1849, 1096.00
1850, 1095.00
1851, 1093.00
1852, 1092.00
1853, 1091.00
1854, 1089.00
1855, 1089.00
1856, 1088.00
1857, 1086.00
1858, 1085.00
1859, 1085.00
1860, 1083.00
1861, 1082.00
1862, 1081.00
1863, 1080.00
1864, 1079.00
1865, 1078.00
1866, 1077.00
1867, 1076.00
1868, 1076.00
1869, 1076.00
1870, 1074.00
1871, 1074.00
1872, 1073.00
1873, 1073.00
1874, 1072.00
1875, 1070.00
1876, 1071.00
1877, 1070.00
1878, 1069.00
1879, 1069.00
1880, 1068.00
1881, 1069.00
1882, 1068.00
1883, 1068.00
1884, 1067.00
1885, 1067.00
1886, 1066.00
1887, 1067.00
1888, 1066.00
1889, 1066.00
1890, 1065.00
1891, 1065.00
1892, 1064.00
1893, 1065.00
1894, 1065.00
1895, 1065.00
1896, 1064.00
1897, 1064.00
1898, 1063.00
1899, 1064.00
1900, 1063.00
1901, 1063.00
1902, 1063.00
1903, 1063.00
1904, 1062.00
1905, 1062.00
1906, 1062.00
1907, 1062.00
1908, 1062.00
1909, 1061.00
1910, 1061.00
1911, 1062.00
1912, 1062.00
1913, 1061.00
1914, 1061.00
1915, 1061.00
1916, 1061.00
1917, 1061.00
1918, 1061.00
1919, 1061.00
1920, 1060.00
1921, 1061.00
1922, 1061.00
1923, 1061.00
1924, 1060.00
1925, 1060.00
1926, 1062.00
1927, 1061.00
1928, 1061.00
1929, 1060.00
1930, 1060.00
1931, 1060.00
1932, 1061.00
1933, 1061.00
1934, 1061.00
1935, 1061.00
1936, 1061.00
1937, 1061.00
1938, 1061.00
1939, 1061.00
1940, 1061.00
1941, 1061.00
1942, 1061.00
1943, 1061.00
1944, 1062.00
1945, 1061.00
1946, 1062.00
1947, 1062.00
1948, 1062.00
1949, 1062.00
1950, 1062.00
1951, 1062.00
1952, 1063.00
1953, 1062.00
1954, 1064.00
1955, 1064.00
1956, 1063.00
1957, 1064.00
1958, 1063.00
1959, 1063.00
1960, 1064.00
1961, 1064.00
1962, 1064.00
1963, 1064.00
1964, 1064.00
1965, 1065.00
1966, 1065.00
1967, 1065.00
1968, 1065.00
1969, 1066.00
1970, 1066.00
1971, 1066.00
1972, 1066.00
1973, 1066.00
1974, 1067.00
1975, 1067.00
1976, 1068.00
1977, 1067.00
1978, 1067.00
1979, 1068.00
1980, 1068.00
1981, 1068.00
1982, 1069.00
1983, 1069.00
1984, 1069.00
1985, 1069.00
1986, 1070.00
1987, 1070.00
1988, 1071.00
1989, 1071.00
1990, 1070.00
1991, 1072.00
1992, 1072.00
1993, 1071.00
1994, 1072.00
1995, 1072.00
1996, 1073.00
1997, 1072.00
1998, 1073.00
1999, 1073.00
2000, 1074.00
2001, 1074.00
2002, 1073.00
2003, 1074.00
2004, 1075.00
2005, 1075.00
2006, 1075.00
2007, 1075.00
2008, 1075.00
2009, 1076.00
2010, 1076.00
2011, 1077.00
2012, 1077.00
2013, 1077.00
2014, 1077.00
2015, 1077.00
2016, 1078.00
2017, 1078.00
2018, 1078.00
2019, 1078.00
2020, 1079.00
2021, 1079.00
2022, 1079.00
2023, 1079.00
2024, 1079.00
2025, 1080.00
2026, 1080.00
2027, 1081.00
2028, 1081.00
2029, 1081.00
2030, 1082.00
2031, 1081.00
2032, 1082.00
2033, 1082.00
2034, 1083.00
2035, 1083.00
2036, 1083.00
2037, 1084.00
2038, 1084.00
2039, 1084.00
2040, 1085.00
2041, 1085.00
2042, 1086.00
2043, 1086.00
2044, 1086.00
2045, 1088.00
2046, 1086.00
2047, 1087.00
2048, 1088.00
2049, 1088.00
2050, 1088.00
2051, 1089.00
2052, 1089.00
2053, 1090.00
2054, 1089.00
2055, 1090.00
2056, 1090.00
2057, 1091.00
2058, 1092.00
2059, 1092.00
2060, 1092.00
2061, 1093.00
2062, 1094.00
2063, 1094.00
2064, 1094.00
2065, 1095.00
2066, 1095.00
2067, 1095.00
2068, 1095.00
2069, 1096.00
2070, 1097.00
2071, 1097.00
2072, 1097.00
2073, 1098.00
2074, 1098.00
2075, 1098.00
2076, 1099.00
2077, 1099.00
2078, 1100.00
2079, 1099.00
2080, 1100.00
2081, 1100.00
2082, 1101.00
2083, 1101.00
2084, 1102.00
2085, 1103.00
2086, 1103.00
2087, 1103.00
2088, 1103.00
2089, 1103.00
2090, 1104.00
2091, 1104.00
2092, 1104.00
2093, 1105.00
2094, 1105.00
2095, 1105.00
2096, 1106.00
2097, 1106.00
2098, 1107.00
2099, 1106.00
2100, 1107.00
2101, 1107.00
2102, 1107.00
2103, 1107.00
2104, 1108.00
2105, 1108.00
2106, 1108.00
2107, 1108.00
2108, 1109.00
2109, 1108.00
2110, 1109.00
2111, 1110.00
2112, 1108.00
2113, 1109.00
2114, 1110.00
2115, 1110.00
2116, 1110.00
2117, 1110.00
2118, 1110.00
2119, 1111.00
2120, 1111.00
2121, 1111.00
2122, 1112.00
2123, 1112.00
2124, 1112.00
2125, 1111.00
2126, 1111.00
2127, 1112.00
2128, 1112.00
2129, 1112.00
2130, 1113.00
2131, 1112.00
2132, 1113.00
2133, 1113.00
2134, 1113.00
2135, 1114.00
2136, 1113.00
2137, 1113.00
2138, 1114.00
2139, 1114.00
2140, 1114.00
2141, 1114.00
2142, 1114.00
2143, 1114.00
2144, 1114.00
2145, 1114.00
2146, 1115.00
2147, 1115.00
2148, 1115.00
2149, 1115.00
2150, 1115.00
