FW version: 24
Log Version: 3.0.3

General Info:
       Command/Macro Performed,            Timestamp,             Device ID, COM Port, UART/I2C, Test Name, Host Major, Host Minor, Host Revision, Host Git Commit
            Single_measurement,  2023_07_11_11_49_04,       Insight2_F4_xxx,    USB-C,      USB,          ,          0,          1,             1,      4031237645

Show Spectrometer Status:
l0_version, f4_version, battery_perc, battery_mVolt, accelerometer_temp, accelerometer_x, accelerometer_y, accelerometer_z, compass_temp, compass_x, compass_y, compass_z, lamp_0, lamp_1, gain_0, gain_1
        17,         24,           51,          1920,               7008,           65284,            1172,           18940,            0,     65335,     65503,     18941,   2047,   2047,      1,      1

Temperature Statistic Info:
NTC AVG [°C], NTC2 AVG [°C]
      42.010,        41.685

Statistic Info:
M1:  num,      min,      max,   median,      AVG,      STD,M2:  num,      min,      max,   median,      AVG,      STD
     301,   893.00,  1031.00,   924.00,   940.01,  43.8494,     401,  1369.00,  1455.00,  1407.00,  1408.27,  27.9504,

Measurements:
Wavelength, Data Amplitude
1350, 913.00
1351, 913.00
1352, 913.00
1353, 912.00
1354, 912.00
1355, 911.00
1356, 911.00
1357, 911.00
1358, 910.00
1359, 909.00
1360, 910.00
1361, 909.00
1362, 909.00
1363, 908.00
1364, 908.00
1365, 906.00
1366, 906.00
1367, 906.00
1368, 905.00
1369, 905.00
1370, 904.00
1371, 904.00
1372, 903.00
1373, 903.00
1374, 902.00
1375, 901.00
1376, 901.00
1377, 900.00
1378, 901.00
1379, 899.00
1380, 899.00
1381, 899.00
1382, 898.00
1383, 898.00
1384, 897.00
1385, 898.00
1386, 897.00
1387, 897.00
1388, 895.00
1389, 896.00
1390, 897.00
1391, 896.00
1392, 896.00
1393, 895.00
1394, 895.00
1395, 895.00
1396, 895.00
1397, 895.00
1398, 894.00
1399, 894.00
1400, 895.00
1401, 895.00
1402, 895.00
1403, 893.00
1404, 895.00
1405, 895.00
1406, 894.00
1407, 895.00
1408, 893.00
1409, 894.00
1410, 894.00
1411, 894.00
1412, 895.00
1413, 894.00
1414, 893.00
1415, 894.00
1416, 894.00
1417, 895.00
1418, 894.00
1419, 895.00
1420, 894.00
1421, 895.00
1422, 895.00
1423, 894.00
1424, 895.00
1425, 894.00
1426, 895.00
1427, 895.00
1428, 894.00
1429, 895.00
1430, 895.00
1431, 894.00
1432, 897.00
1433, 895.00
1434, 895.00
1435, 895.00
1436, 896.00
1437, 896.00
1438, 896.00
1439, 897.00
1440, 898.00
1441, 897.00
1442, 897.00
1443, 897.00
1444, 898.00
1445, 898.00
1446, 898.00
1447, 899.00
1448, 899.00
1449, 899.00
1450, 900.00
1451, 899.00
1452, 901.00
1453, 901.00
1454, 901.00
1455, 902.00
1456, 902.00
1457, 902.00
1458, 903.00
1459, 904.00
1460, 904.00
1461, 904.00
1462, 904.00
1463, 904.00
1464, 905.00
1465, 904.00
1466, 905.00
1467, 906.00
1468, 906.00
1469, 907.00
1470, 907.00
1471, 907.00
1472, 908.00
1473, 908.00
1474, 909.00
1475, 910.00
1476, 911.00
1477, 911.00
1478, 911.00
1479, 912.00
1480, 913.00
1481, 913.00
1482, 913.00
1483, 914.00
1484, 914.00
1485, 915.00
1486, 917.00
1487, 917.00
1488, 918.00
1489, 918.00
1490, 918.00
1491, 919.00
1492, 919.00
1493, 920.00
1494, 920.00
1495, 921.00
1496, 922.00
1497, 922.00
1498, 923.00
1499, 924.00
1500, 925.00
1501, 924.00
1502, 926.00
1503, 926.00
1504, 927.00
1505, 928.00
1506, 928.00
1507, 930.00
1508, 930.00
1509, 929.00
1510, 930.00
1511, 931.00
1512, 932.00
1513, 932.00
1514, 932.00
1515, 934.00
1516, 934.00
1517, 935.00
1518, 936.00
1519, 936.00
1520, 937.00
1521, 938.00
1522, 939.00
1523, 939.00
1524, 940.00
1525, 940.00
1526, 942.00
1527, 941.00
1528, 943.00
1529, 943.00
1530, 944.00
1531, 945.00
1532, 946.00
1533, 945.00
1534, 947.00
1535, 948.00
1536, 949.00
1537, 949.00
1538, 949.00
1539, 950.00
1540, 950.00
1541, 952.00
1542, 953.00
1543, 953.00
1544, 954.00
1545, 953.00
1546, 956.00
1547, 956.00
1548, 957.00
1549, 958.00
1550, 959.00
1551, 959.00
1552, 959.00
1553, 961.00
1554, 961.00
1555, 962.00
1556, 963.00
1557, 963.00
1558, 964.00
1559, 965.00
1560, 966.00
1561, 966.00
1562, 967.00
1563, 968.00
1564, 969.00
1565, 970.00
1566, 971.00
1567, 971.00
1568, 971.00
1569, 972.00
1570, 972.00
1571, 973.00
1572, 975.00
1573, 976.00
1574, 976.00
1575, 976.00
1576, 978.00
1577, 979.00
1578, 980.00
1579, 980.00
1580, 981.00
1581, 982.00
1582, 982.00
1583, 982.00
1584, 984.00
1585, 984.00
1586, 985.00
1587, 983.00
1588, 984.00
1589, 987.00
1590, 986.00
1591, 987.00
1592, 989.00
1593, 989.00
1594, 989.00
1595, 991.00
1596, 992.00
1597, 992.00
1598, 992.00
1599, 993.00
1600, 994.00
1601, 995.00
1602, 995.00
1603, 996.00
1604, 997.00
1605, 998.00
1606, 998.00
1607, 1000.00
1608, 1000.00
1609, 1001.00
1610, 1001.00
1611, 1002.00
1612, 1004.00
1613, 1005.00
1614, 1006.00
1615, 1006.00
1616, 1007.00
1617, 1007.00
1618, 1009.00
1619, 1011.00
1620, 1011.00
1621, 1011.00
1622, 1012.00
1623, 1012.00
1624, 1013.00
1625, 1014.00
1626, 1015.00
1627, 1016.00
1628, 1016.00
1629, 1018.00
1630, 1018.00
1631, 1020.00
1632, 1019.00
1633, 1021.00
1634, 1021.00
1635, 1022.00
1636, 1023.00
1637, 1023.00
1638, 1024.00
1639, 1024.00
1640, 1026.00
1641, 1026.00
1642, 1026.00
1643, 1027.00
1644, 1028.00
1645, 1029.00
1646, 1029.00
1647, 1030.00
1648, 1030.00
1649, 1031.00
1650, 1031.00

1750, 1453.00
1751, 1454.00
1752, 1453.00
1753, 1455.00
1754, 1453.00
1755, 1452.00
1756, 1453.00
1757, 1452.00
1758, 1451.00
1759, 1453.00
1760, 1453.00
1761, 1452.00
1762, 1452.00
1763, 1451.00
1764, 1452.00
1765, 1454.00
1766, 1453.00
1767, 1453.00
1768, 1453.00
1769, 1452.00
1770, 1453.00
1771, 1452.00
1772, 1451.00
1773, 1453.00
1774, 1452.00
1775, 1453.00
1776, 1451.00
1777, 1451.00
1778, 1451.00
1779, 1450.00
1780, 1450.00
1781, 1451.00
1782, 1450.00
1783, 1451.00
1784, 1448.00
1785, 1449.00
1786, 1448.00
1787, 1449.00
1788, 1447.00
1789, 1448.00
1790, 1447.00
1791, 1447.00
1792, 1447.00
1793, 1447.00
1794, 1445.00
1795, 1446.00
1796, 1445.00
1797, 1443.00
1798, 1446.00
1799, 1445.00
1800, 1444.00
1801, 1445.00
1802, 1444.00
1803, 1443.00
1804, 1444.00
1805, 1443.00
1806, 1443.00
1807, 1442.00
1808, 1443.00
1809, 1442.00
1810, 1442.00
1811, 1443.00
1812, 1440.00
1813, 1441.00
1814, 1440.00
1815, 1442.00
1816, 1437.00
1817, 1438.00
1818, 1441.00
1819, 1439.00
1820, 1440.00
1821, 1438.00
1822, 1436.00
1823, 1437.00
1824, 1436.00
1825, 1437.00
1826, 1435.00
1827, 1434.00
1828, 1431.00
1829, 1432.00
1830, 1429.00
1831, 1431.00
1832, 1432.00
1833, 1429.00
1834, 1428.00
1835, 1426.00
1836, 1426.00
1837, 1424.00
1838, 1425.00
1839, 1423.00
1840, 1422.00
1841, 1419.00
1842, 1420.00
1843, 1418.00
1844, 1416.00
1845, 1414.00
1846, 1414.00
1847, 1412.00
1848, 1412.00
1849, 1409.00
1850, 1408.00
1851, 1409.00
1852, 1406.00
1853, 1405.00
1854, 1403.00
1855, 1401.00
1856, 1399.00
1857, 1400.00
1858, 1400.00
1859, 1399.00
1860, 1398.00
1861, 1395.00
1862, 1396.00
1863, 1391.00
1864, 1391.00
1865, 1392.00
1866, 1392.00
1867, 1391.00
1868, 1389.00
1869, 1389.00
1870, 1388.00
1871, 1386.00
1872, 1385.00
1873, 1385.00
1874, 1382.00
1875, 1383.00
1876, 1383.00
1877, 1382.00
1878, 1382.00
1879, 1383.00
1880, 1381.00
1881, 1380.00
1882, 1381.00
1883, 1378.00
1884, 1379.00
1885, 1378.00
1886, 1377.00
1887, 1378.00
1888, 1377.00
1889, 1376.00
1890, 1378.00
1891, 1375.00
1892, 1374.00
1893, 1377.00
1894, 1376.00
1895, 1373.00
1896, 1373.00
1897, 1375.00
1898, 1374.00
1899, 1374.00
1900, 1374.00
1901, 1374.00
1902, 1375.00
1903, 1373.00
1904, 1371.00
1905, 1373.00
1906, 1371.00
1907, 1372.00
1908, 1371.00
1909, 1372.00
1910, 1373.00
1911, 1372.00
1912, 1370.00
1913, 1371.00
1914, 1372.00
1915, 1373.00
1916, 1373.00
1917, 1371.00
1918, 1371.00
1919, 1372.00
1920, 1371.00
1921, 1371.00
1922, 1371.00
1923, 1371.00
1924, 1370.00
1925, 1372.00
1926, 1372.00
1927, 1371.00
1928, 1370.00
1929, 1371.00
1930, 1371.00
1931, 1373.00
1932, 1369.00
1933, 1373.00
1934, 1371.00
1935, 1370.00
1936, 1370.00
1937, 1370.00
1938, 1371.00
1939, 1372.00
1940, 1373.00
1941, 1371.00
1942, 1373.00
1943, 1371.00
1944, 1371.00
1945, 1372.00
1946, 1373.00
1947, 1369.00
1948, 1374.00
1949, 1373.00
1950, 1372.00
1951, 1373.00
1952, 1372.00
1953, 1374.00
1954, 1374.00
1955, 1372.00
1956, 1373.00
1957, 1374.00
1958, 1375.00
1959, 1375.00
1960, 1376.00
1961, 1374.00
1962, 1375.00
1963, 1374.00
1964, 1375.00
1965, 1377.00
1966, 1376.00
1967, 1374.00
1968, 1376.00
1969, 1378.00
1970, 1377.00
1971, 1378.00
1972, 1378.00
1973, 1380.00
1974, 1379.00
1975, 1380.00
1976, 1381.00
1977, 1379.00
1978, 1380.00
1979, 1380.00
1980, 1381.00
1981, 1381.00
1982, 1380.00
1983, 1380.00
1984, 1382.00
1985, 1383.00
1986, 1383.00
1987, 1383.00
1988, 1384.00
1989, 1384.00
1990, 1384.00
1991, 1382.00
1992, 1383.00
1993, 1384.00
1994, 1385.00
1995, 1385.00
1996, 1384.00
1997, 1387.00
1998, 1386.00
1999, 1389.00
2000, 1386.00
2001, 1387.00
2002, 1387.00
2003, 1386.00
2004, 1389.00
2005, 1389.00
2006, 1389.00
2007, 1388.00
2008, 1391.00
2009, 1388.00
2010, 1390.00
2011, 1391.00
2012, 1391.00
2013, 1390.00
2014, 1390.00
2015, 1391.00
2016, 1392.00
2017, 1391.00
2018, 1391.00
2019, 1392.00
2020, 1393.00
2021, 1394.00
2022, 1394.00
2023, 1395.00
2024, 1394.00
2025, 1396.00
2026, 1395.00
2027, 1396.00
2028, 1397.00
2029, 1397.00
2030, 1397.00
2031, 1397.00
2032, 1398.00
2033, 1398.00
2034, 1399.00
2035, 1399.00
2036, 1398.00
2037, 1400.00
2038, 1400.00
2039, 1401.00
2040, 1401.00
2041, 1401.00
2042, 1403.00
2043, 1400.00
2044, 1402.00
2045, 1404.00
2046, 1404.00
2047, 1405.00
2048, 1405.00
2049, 1407.00
2050, 1405.00
2051, 1404.00
2052, 1408.00
2053, 1405.00
2054, 1408.00
2055, 1409.00
2056, 1408.00
2057, 1408.00
2058, 1411.00
2059, 1410.00
2060, 1411.00
2061, 1412.00
2062, 1411.00
2063, 1412.00
2064, 1412.00
2065, 1414.00
2066, 1414.00
2067, 1414.00
2068, 1415.00
2069, 1414.00
2070, 1415.00
2071, 1415.00
2072, 1415.00
2073, 1416.00
2074, 1418.00
2075, 1415.00
2076, 1416.00
2077, 1419.00
2078, 1421.00
2079, 1421.00
2080, 1420.00
2081, 1419.00
2082, 1421.00
2083, 1421.00
2084, 1422.00
2085, 1422.00
2086, 1422.00
2087, 1423.00
2088, 1424.00
2089, 1423.00
2090, 1423.00
2091, 1426.00
2092, 1422.00
2093, 1426.00
2094, 1425.00
2095, 1426.00
2096, 1425.00
2097, 1425.00
2098, 1427.00
2099, 1427.00
2100, 1427.00
2101, 1429.00
2102, 1429.00
2103, 1429.00
2104, 1428.00
2105, 1430.00
2106, 1430.00
2107, 1429.00
2108, 1429.00
2109, 1430.00
2110, 1430.00
2111, 1431.00
2112, 1432.00
2113, 1431.00
2114, 1431.00
2115, 1431.00
2116, 1430.00
2117, 1433.00
2118, 1433.00
2119, 1431.00
2120, 1432.00
2121, 1432.00
2122, 1433.00
2123, 1433.00
2124, 1433.00
2125, 1433.00
2126, 1434.00
2127, 1434.00
2128, 1433.00
2129, 1434.00
2130, 1436.00
2131, 1434.00
2132, 1434.00
2133, 1436.00
2134, 1436.00
2135, 1437.00
2136, 1436.00
2137, 1437.00
2138, 1438.00
2139, 1437.00
2140, 1437.00
2141, 1437.00
2142, 1437.00
2143, 1437.00
2144, 1438.00
2145, 1439.00
2146, 1436.00
2147, 1437.00
2148, 1438.00
2149, 1439.00
2150, 1439.00
