FW version: 24
Log Version: 3.0.3

General Info:
       Command/Macro Performed,            Timestamp,             Device ID, COM Port, UART/I2C, Test Name, Host Major, Host Minor, Host Revision, Host Git Commit
            Single_measurement,  2023_07_11_11_48_56,       Insight2_F4_xxx,    USB-C,      USB,          ,          0,          1,             1,      4031237645

Show Spectrometer Status:
l0_version, f4_version, battery_perc, battery_mVolt, accelerometer_temp, accelerometer_x, accelerometer_y, accelerometer_z, compass_temp, compass_x, compass_y, compass_z, lamp_0, lamp_1, gain_0, gain_1
        17,         24,           51,          1914,               7024,           65264,            1176,           18788,            0,     65526,     65498,     18791,   2047,   2047,      1,      1

Temperature Statistic Info:
NTC AVG [°C], NTC2 AVG [°C]
      41.950,        41.685

Statistic Info:
M1:  num,      min,      max,   median,      AVG,      STD,M2:  num,      min,      max,   median,      AVG,      STD
     301,   893.00,  1031.00,   924.00,   939.38,  43.7981,     401,  1368.00,  1454.00,  1406.00,  1407.31,  27.8481,

Measurements:
Wavelength, Data Amplitude
1350, 912.00
1351, 913.00
1352, 911.00
1353, 912.00
1354, 912.00
1355, 911.00
1356, 910.00
1357, 910.00
1358, 910.00
1359, 909.00
1360, 909.00
1361, 909.00
1362, 908.00
1363, 907.00
1364, 907.00
1365, 905.00
1366, 905.00
1367, 905.00
1368, 904.00
1369, 904.00
1370, 904.00
1371, 904.00
1372, 902.00
1373, 902.00
1374, 902.00
1375, 901.00
1376, 901.00
1377, 900.00
1378, 899.00
1379, 899.00
1380, 899.00
1381, 898.00
1382, 898.00
1383, 898.00
1384, 897.00
1385, 896.00
1386, 896.00
1387, 896.00
1388, 896.00
1389, 895.00
1390, 895.00
1391, 896.00
1392, 894.00
1393, 895.00
1394, 894.00
1395, 894.00
1396, 895.00
1397, 894.00
1398, 895.00
1399, 894.00
1400, 894.00
1401, 894.00
1402, 894.00
1403, 895.00
1404, 894.00
1405, 894.00
1406, 894.00
1407, 894.00
1408, 893.00
1409, 893.00
1410, 893.00
1411, 893.00
1412, 894.00
1413, 893.00
1414, 893.00
1415, 893.00
1416, 893.00
1417, 893.00
1418, 894.00
1419, 893.00
1420, 893.00
1421, 893.00
1422, 893.00
1423, 893.00
1424, 894.00
1425, 894.00
1426, 894.00
1427, 893.00
1428, 893.00
1429, 895.00
1430, 894.00
1431, 894.00
1432, 895.00
1433, 895.00
1434, 895.00
1435, 895.00
1436, 896.00
1437, 896.00
1438, 897.00
1439, 897.00
1440, 897.00
1441, 897.00
1442, 896.00
1443, 897.00
1444, 897.00
1445, 898.00
1446, 897.00
1447, 898.00
1448, 899.00
1449, 900.00
1450, 900.00
1451, 900.00
1452, 901.00
1453, 901.00
1454, 900.00
1455, 901.00
1456, 901.00
1457, 901.00
1458, 901.00
1459, 902.00
1460, 902.00
1461, 902.00
1462, 902.00
1463, 904.00
1464, 905.00
1465, 904.00
1466, 905.00
1467, 905.00
1468, 906.00
1469, 906.00
1470, 908.00
1471, 908.00
1472, 907.00
1473, 908.00
1474, 909.00
1475, 908.00
1476, 910.00
1477, 909.00
1478, 911.00
1479, 912.00
1480, 913.00
1481, 913.00
1482, 913.00
1483, 914.00
1484, 914.00
1485, 915.00
1486, 915.00
1487, 917.00
1488, 916.00
1489, 917.00
1490, 918.00
1491, 918.00
1492, 919.00
1493, 920.00
1494, 921.00
1495, 921.00
1496, 922.00
1497, 922.00
1498, 923.00
1499, 923.00
1500, 924.00
1501, 924.00
1502, 925.00
1503, 925.00
1504, 927.00
1505, 927.00
1506, 928.00
1507, 928.00
1508, 929.00
1509, 929.00
1510, 930.00
1511, 930.00
1512, 931.00
1513, 932.00
1514, 931.00
1515, 933.00
1516, 934.00
1517, 934.00
1518, 934.00
1519, 936.00
1520, 936.00
1521, 936.00
1522, 937.00
1523, 938.00
1524, 939.00
1525, 940.00
1526, 941.00
1527, 941.00
1528, 942.00
1529, 943.00
1530, 943.00
1531, 945.00
1532, 945.00
1533, 946.00
1534, 947.00
1535, 946.00
1536, 948.00
1537, 949.00
1538, 950.00
1539, 950.00
1540, 951.00
1541, 951.00
1542, 952.00
1543, 953.00
1544, 953.00
1545, 953.00
1546, 955.00
1547, 955.00
1548, 955.00
1549, 957.00
1550, 958.00
1551, 958.00
1552, 959.00
1553, 961.00
1554, 961.00
1555, 961.00
1556, 962.00
1557, 962.00
1558, 964.00
1559, 964.00
1560, 965.00
1561, 966.00
1562, 967.00
1563, 967.00
1564, 969.00
1565, 969.00
1566, 969.00
1567, 970.00
1568, 972.00
1569, 971.00
1570, 973.00
1571, 974.00
1572, 975.00
1573, 976.00
1574, 975.00
1575, 976.00
1576, 976.00
1577, 978.00
1578, 978.00
1579, 979.00
1580, 980.00
1581, 980.00
1582, 981.00
1583, 982.00
1584, 982.00
1585, 983.00
1586, 984.00
1587, 984.00
1588, 985.00
1589, 986.00
1590, 986.00
1591, 987.00
1592, 987.00
1593, 988.00
1594, 989.00
1595, 990.00
1596, 990.00
1597, 991.00
1598, 992.00
1599, 992.00
1600, 994.00
1601, 994.00
1602, 995.00
1603, 996.00
1604, 997.00
1605, 997.00
1606, 997.00
1607, 999.00
1608, 999.00
1609, 1000.00
1610, 1002.00
1611, 1002.00
1612, 1003.00
1613, 1003.00
1614, 1005.00
1615, 1006.00
1616, 1006.00
1617, 1007.00
1618, 1009.00
1619, 1009.00
1620, 1009.00
1621, 1011.00
1622, 1011.00
1623, 1012.00
1624, 1013.00
1625, 1014.00
1626, 1015.00
1627, 1015.00
1628, 1016.00
1629, 1016.00
1630, 1017.00
1631, 1018.00
1632, 1019.00
1633, 1019.00
1634, 1021.00
1635, 1021.00
1636, 1022.00
1637, 1021.00
1638, 1024.00
1639, 1024.00
1640, 1024.00
1641, 1025.00
1642, 1026.00
1643, 1026.00
1644, 1027.00
1645, 1028.00
1646, 1029.00
1647, 1029.00
1648, 1029.00
1649, 1029.00
1650, 1031.00

1750, 1451.00
1751, 1452.00
1752, 1452.00
1753, 1452.00
1754, 1453.00
1755, 1452.00
1756, 1451.00
1757, 1452.00
1758, 1453.00
1759, 1452.00
1760, 1450.00
1761, 1449.00
1762, 1452.00
1763, 1453.00
1764, 1452.00
1765, 1453.00
1766, 1452.00
1767, 1452.00
1768, 1451.00
1769, 1452.00
1770, 1451.00
1771, 1454.00
1772, 1449.00
1773, 1452.00
1774, 1450.00
1775, 1449.00
1776, 1449.00
1777, 1449.00
1778, 1449.00
1779, 1449.00
1780, 1448.00
1781, 1447.00
1782, 1447.00
1783, 1447.00
1784, 1448.00
1785, 1447.00
1786, 1446.00
1787, 1446.00
1788, 1446.00
1789, 1447.00
1790, 1447.00
1791, 1445.00
1792, 1445.00
1793, 1446.00
1794, 1445.00
1795, 1443.00
1796, 1444.00
1797, 1442.00
1798, 1445.00
1799, 1443.00
1800, 1443.00
1801, 1444.00
1802, 1444.00
1803, 1445.00
1804, 1444.00
1805, 1443.00
1806, 1443.00
1807, 1441.00
1808, 1441.00
1809, 1441.00
1810, 1440.00
1811, 1440.00
1812, 1439.00
1813, 1441.00
1814, 1441.00
1815, 1440.00
1816, 1439.00
1817, 1440.00
1818, 1439.00
1819, 1436.00
1820, 1438.00
1821, 1436.00
1822, 1437.00
1823, 1436.00
1824, 1437.00
1825, 1433.00
1826, 1433.00
1827, 1432.00
1828, 1432.00
1829, 1430.00
1830, 1429.00
1831, 1429.00
1832, 1429.00
1833, 1428.00
1834, 1426.00
1835, 1426.00
1836, 1425.00
1837, 1424.00
1838, 1424.00
1839, 1421.00
1840, 1420.00
1841, 1420.00
1842, 1417.00
1843, 1415.00
1844, 1418.00
1845, 1413.00
1846, 1415.00
1847, 1411.00
1848, 1409.00
1849, 1409.00
1850, 1407.00
1851, 1407.00
1852, 1404.00
1853, 1404.00
1854, 1403.00
1855, 1401.00
1856, 1400.00
1857, 1399.00
1858, 1400.00
1859, 1396.00
1860, 1395.00
1861, 1394.00
1862, 1394.00
1863, 1392.00
1864, 1392.00
1865, 1391.00
1866, 1391.00
1867, 1387.00
1868, 1389.00
1869, 1388.00
1870, 1386.00
1871, 1384.00
1872, 1386.00
1873, 1383.00
1874, 1384.00
1875, 1384.00
1876, 1382.00
1877, 1380.00
1878, 1382.00
1879, 1381.00
1880, 1380.00
1881, 1378.00
1882, 1379.00
1883, 1379.00
1884, 1378.00
1885, 1377.00
1886, 1378.00
1887, 1376.00
1888, 1376.00
1889, 1375.00
1890, 1376.00
1891, 1374.00
1892, 1376.00
1893, 1375.00
1894, 1374.00
1895, 1374.00
1896, 1374.00
1897, 1375.00
1898, 1373.00
1899, 1372.00
1900, 1373.00
1901, 1372.00
1902, 1370.00
1903, 1372.00
1904, 1371.00
1905, 1373.00
1906, 1370.00
1907, 1372.00
1908, 1371.00
1909, 1372.00
1910, 1371.00
1911, 1371.00
1912, 1369.00
1913, 1372.00
1914, 1373.00
1915, 1371.00
1916, 1370.00
1917, 1370.00
1918, 1369.00
1919, 1372.00
1920, 1371.00
1921, 1370.00
1922, 1371.00
1923, 1372.00
1924, 1369.00
1925, 1371.00
1926, 1368.00
1927, 1370.00
1928, 1369.00
1929, 1370.00
1930, 1371.00
1931, 1370.00
1932, 1371.00
1933, 1370.00
1934, 1371.00
1935, 1370.00
1936, 1371.00
1937, 1371.00
1938, 1371.00
1939, 1370.00
1940, 1371.00
1941, 1370.00
1942, 1369.00
1943, 1369.00
1944, 1372.00
1945, 1372.00
1946, 1371.00
1947, 1370.00
1948, 1371.00
1949, 1373.00
1950, 1370.00
1951, 1372.00
1952, 1373.00
1953, 1372.00
1954, 1373.00
1955, 1373.00
1956, 1372.00
1957, 1373.00
1958, 1374.00
1959, 1373.00
1960, 1377.00
1961, 1376.00
1962, 1374.00
1963, 1373.00
1964, 1377.00
1965, 1376.00
1966, 1375.00
1967, 1377.00
1968, 1376.00
1969, 1375.00
1970, 1376.00
1971, 1377.00
1972, 1377.00
1973, 1375.00
1974, 1377.00
1975, 1380.00
1976, 1377.00
1977, 1379.00
1978, 1378.00
1979, 1380.00
1980, 1380.00
1981, 1380.00
1982, 1381.00
1983, 1381.00
1984, 1381.00
1985, 1382.00
1986, 1382.00
1987, 1382.00
1988, 1382.00
1989, 1383.00
1990, 1381.00
1991, 1383.00
1992, 1382.00
1993, 1384.00
1994, 1385.00
1995, 1384.00
1996, 1385.00
1997, 1384.00
1998, 1386.00
1999, 1386.00
2000, 1385.00
2001, 1386.00
2002, 1387.00
2003, 1389.00
2004, 1388.00
2005, 1388.00
2006, 1387.00
2007, 1389.00
2008, 1390.00
2009, 1387.00
2010, 1389.00
2011, 1390.00
2012, 1388.00
2013, 1391.00
2014, 1391.00
2015, 1391.00
2016, 1391.00
2017, 1391.00
2018, 1391.00
2019, 1392.00
2020, 1392.00
2021, 1394.00
2022, 1394.00
2023, 1394.00
2024, 1395.00
2025, 1393.00
2026, 1395.00
2027, 1396.00
2028, 1395.00
2029, 1395.00
2030, 1394.00
2031, 1397.00
2032, 1396.00
2033, 1397.00
2034, 1397.00
2035, 1397.00
2036, 1400.00
2037, 1397.00
2038, 1397.00
2039, 1398.00
2040, 1399.00
2041, 1399.00
2042, 1399.00
2043, 1400.00
2044, 1401.00
2045, 1401.00
2046, 1403.00
2047, 1403.00
2048, 1402.00
2049, 1404.00
2050, 1405.00
2051, 1406.00
2052, 1405.00
2053, 1406.00
2054, 1406.00
2055, 1406.00
2056, 1408.00
2057, 1408.00
2058, 1406.00
2059, 1407.00
2060, 1410.00
2061, 1409.00
2062, 1410.00
2063, 1410.00
2064, 1412.00
2065, 1414.00
2066, 1412.00
2067, 1413.00
2068, 1412.00
2069, 1413.00
2070, 1413.00
2071, 1415.00
2072, 1414.00
2073, 1414.00
2074, 1415.00
2075, 1416.00
2076, 1418.00
2077, 1417.00
2078, 1418.00
2079, 1418.00
2080, 1420.00
2081, 1420.00
2082, 1421.00
2083, 1421.00
2084, 1420.00
2085, 1421.00
2086, 1422.00
2087, 1424.00
2088, 1422.00
2089, 1424.00
2090, 1424.00
2091, 1422.00
2092, 1423.00
2093, 1426.00
2094, 1425.00
2095, 1424.00
2096, 1426.00
2097, 1426.00
2098, 1427.00
2099, 1426.00
2100, 1428.00
2101, 1426.00
2102, 1428.00
2103, 1429.00
2104, 1426.00
2105, 1427.00
2106, 1429.00
2107, 1428.00
2108, 1429.00
2109, 1429.00
2110, 1430.00
2111, 1430.00
2112, 1430.00
2113, 1429.00
2114, 1429.00
2115, 1430.00
2116, 1431.00
2117, 1431.00
2118, 1430.00
2119, 1432.00
2120, 1432.00
2121, 1432.00
2122, 1433.00
2123, 1434.00
2124, 1433.00
2125, 1433.00
2126, 1433.00
2127, 1433.00
2128, 1432.00
2129, 1435.00
2130, 1435.00
2131, 1434.00
2132, 1435.00
2133, 1435.00
2134, 1435.00
2135, 1435.00
2136, 1435.00
2137, 1436.00
2138, 1434.00
2139, 1435.00
2140, 1436.00
2141, 1437.00
2142, 1438.00
2143, 1436.00
2144, 1437.00
2145, 1437.00
2146, 1437.00
2147, 1435.00
2148, 1435.00
2149, 1437.00
2150, 1439.00
