FW version: 24
Log Version: 3.0.3

General Info:
       Command/Macro Performed,            Timestamp,             Device ID, COM Port, UART/I2C, Test Name, Host Major, Host Minor, Host Revision, Host Git Commit
            Single_measurement,  2023_07_11_11_49_00,       Insight2_F4_xxx,    USB-C,      USB,          ,          0,          1,             1,      4031237645

Show Spectrometer Status:
l0_version, f4_version, battery_perc, battery_mVolt, accelerometer_temp, accelerometer_x, accelerometer_y, accelerometer_z, compass_temp, compass_x, compass_y, compass_z, lamp_0, lamp_1, gain_0, gain_1
        17,         24,           51,          1913,               7008,           65264,            1144,           18824,            0,     65525,     65402,     18923,   2047,   2047,      1,      1

Temperature Statistic Info:
NTC AVG [°C], NTC2 AVG [°C]
      41.980,        41.655

Statistic Info:
M1:  num,      min,      max,   median,      AVG,      STD,M2:  num,      min,      max,   median,      AVG,      STD
     301,   893.00,  1031.00,   925.00,   939.78,  43.8591,     401,  1368.00,  1455.00,  1405.00,  1407.78,  27.9185,

Measurements:
Wavelength, Data Amplitude
1350, 913.00
1351, 913.00
1352, 912.00
1353, 913.00
1354, 912.00
1355, 911.00
1356, 912.00
1357, 911.00
1358, 911.00
1359, 909.00
1360, 909.00
1361, 909.00
1362, 909.00
1363, 908.00
1364, 907.00
1365, 906.00
1366, 906.00
1367, 906.00
1368, 905.00
1369, 903.00
1370, 903.00
1371, 904.00
1372, 902.00
1373, 903.00
1374, 901.00
1375, 901.00
1376, 899.00
1377, 900.00
1378, 899.00
1379, 899.00
1380, 899.00
1381, 898.00
1382, 898.00
1383, 898.00
1384, 897.00
1385, 897.00
1386, 897.00
1387, 897.00
1388, 896.00
1389, 896.00
1390, 895.00
1391, 895.00
1392, 896.00
1393, 896.00
1394, 896.00
1395, 895.00
1396, 895.00
1397, 895.00
1398, 894.00
1399, 894.00
1400, 894.00
1401, 895.00
1402, 895.00
1403, 894.00
1404, 894.00
1405, 895.00
1406, 894.00
1407, 894.00
1408, 895.00
1409, 894.00
1410, 894.00
1411, 894.00
1412, 894.00
1413, 893.00
1414, 893.00
1415, 893.00
1416, 893.00
1417, 894.00
1418, 893.00
1419, 894.00
1420, 894.00
1421, 894.00
1422, 894.00
1423, 894.00
1424, 895.00
1425, 894.00
1426, 895.00
1427, 894.00
1428, 894.00
1429, 895.00
1430, 895.00
1431, 894.00
1432, 895.00
1433, 895.00
1434, 895.00
1435, 895.00
1436, 896.00
1437, 896.00
1438, 897.00
1439, 897.00
1440, 896.00
1441, 897.00
1442, 896.00
1443, 898.00
1444, 898.00
1445, 898.00
1446, 897.00
1447, 899.00
1448, 898.00
1449, 899.00
1450, 899.00
1451, 899.00
1452, 900.00
1453, 900.00
1454, 900.00
1455, 901.00
1456, 901.00
1457, 901.00
1458, 902.00
1459, 902.00
1460, 904.00
1461, 903.00
1462, 904.00
1463, 904.00
1464, 904.00
1465, 905.00
1466, 905.00
1467, 905.00
1468, 906.00
1469, 906.00
1470, 907.00
1471, 909.00
1472, 908.00
1473, 908.00
1474, 909.00
1475, 910.00
1476, 910.00
1477, 911.00
1478, 911.00
1479, 911.00
1480, 912.00
1481, 913.00
1482, 913.00
1483, 914.00
1484, 915.00
1485, 916.00
1486, 916.00
1487, 918.00
1488, 917.00
1489, 917.00
1490, 919.00
1491, 920.00
1492, 920.00
1493, 920.00
1494, 921.00
1495, 921.00
1496, 922.00
1497, 923.00
1498, 923.00
1499, 924.00
1500, 925.00
1501, 925.00
1502, 926.00
1503, 926.00
1504, 926.00
1505, 927.00
1506, 928.00
1507, 928.00
1508, 929.00
1509, 929.00
1510, 931.00
1511, 931.00
1512, 932.00
1513, 932.00
1514, 933.00
1515, 933.00
1516, 934.00
1517, 935.00
1518, 936.00
1519, 936.00
1520, 937.00
1521, 937.00
1522, 938.00
1523, 938.00
1524, 940.00
1525, 940.00
1526, 942.00
1527, 942.00
1528, 942.00
1529, 943.00
1530, 945.00
1531, 944.00
1532, 945.00
1533, 946.00
1534, 946.00
1535, 947.00
1536, 948.00
1537, 949.00
1538, 950.00
1539, 951.00
1540, 951.00
1541, 952.00
1542, 952.00
1543, 953.00
1544, 954.00
1545, 955.00
1546, 955.00
1547, 956.00
1548, 956.00
1549, 958.00
1550, 958.00
1551, 959.00
1552, 959.00
1553, 961.00
1554, 961.00
1555, 962.00
1556, 963.00
1557, 963.00
1558, 964.00
1559, 965.00
1560, 966.00
1561, 967.00
1562, 967.00
1563, 966.00
1564, 969.00
1565, 969.00
1566, 970.00
1567, 971.00
1568, 971.00
1569, 973.00
1570, 973.00
1571, 973.00
1572, 974.00
1573, 975.00
1574, 975.00
1575, 976.00
1576, 977.00
1577, 978.00
1578, 979.00
1579, 979.00
1580, 979.00
1581, 981.00
1582, 981.00
1583, 982.00
1584, 983.00
1585, 983.00
1586, 984.00
1587, 985.00
1588, 985.00
1589, 986.00
1590, 987.00
1591, 988.00
1592, 989.00
1593, 989.00
1594, 989.00
1595, 990.00
1596, 991.00
1597, 991.00
1598, 992.00
1599, 993.00
1600, 994.00
1601, 995.00
1602, 996.00
1603, 997.00
1604, 997.00
1605, 998.00
1606, 999.00
1607, 1000.00
1608, 1000.00
1609, 1001.00
1610, 1001.00
1611, 1002.00
1612, 1003.00
1613, 1004.00
1614, 1005.00
1615, 1005.00
1616, 1007.00
1617, 1007.00
1618, 1008.00
1619, 1010.00
1620, 1011.00
1621, 1010.00
1622, 1012.00
1623, 1013.00
1624, 1013.00
1625, 1014.00
1626, 1014.00
1627, 1016.00
1628, 1017.00
1629, 1018.00
1630, 1018.00
1631, 1019.00
1632, 1020.00
1633, 1021.00
1634, 1021.00
1635, 1021.00
1636, 1023.00
1637, 1024.00
1638, 1024.00
1639, 1024.00
1640, 1025.00
1641, 1025.00
1642, 1026.00
1643, 1026.00
1644, 1028.00
1645, 1028.00
1646, 1029.00
1647, 1029.00
1648, 1030.00
1649, 1029.00
1650, 1031.00

1750, 1455.00
1751, 1455.00
1752, 1455.00
1753, 1453.00
1754, 1452.00
1755, 1453.00
1756, 1451.00
1757, 1451.00
1758, 1452.00
1759, 1452.00
1760, 1453.00
1761, 1453.00
1762, 1453.00
1763, 1453.00
1764, 1453.00
1765, 1452.00
1766, 1450.00
1767, 1451.00
1768, 1452.00
1769, 1452.00
1770, 1453.00
1771, 1452.00
1772, 1452.00
1773, 1451.00
1774, 1450.00
1775, 1451.00
1776, 1450.00
1777, 1449.00
1778, 1451.00
1779, 1450.00
1780, 1449.00
1781, 1449.00
1782, 1448.00
1783, 1448.00
1784, 1445.00
1785, 1448.00
1786, 1449.00
1787, 1447.00
1788, 1448.00
1789, 1447.00
1790, 1446.00
1791, 1444.00
1792, 1447.00
1793, 1445.00
1794, 1445.00
1795, 1444.00
1796, 1444.00
1797, 1444.00
1798, 1446.00
1799, 1445.00
1800, 1445.00
1801, 1444.00
1802, 1442.00
1803, 1445.00
1804, 1443.00
1805, 1443.00
1806, 1443.00
1807, 1443.00
1808, 1441.00
1809, 1442.00
1810, 1442.00
1811, 1442.00
1812, 1439.00
1813, 1441.00
1814, 1439.00
1815, 1440.00
1816, 1441.00
1817, 1438.00
1818, 1437.00
1819, 1438.00
1820, 1438.00
1821, 1437.00
1822, 1436.00
1823, 1437.00
1824, 1435.00
1825, 1435.00
1826, 1434.00
1827, 1432.00
1828, 1433.00
1829, 1431.00
1830, 1431.00
1831, 1429.00
1832, 1428.00
1833, 1427.00
1834, 1428.00
1835, 1426.00
1836, 1425.00
1837, 1422.00
1838, 1424.00
1839, 1421.00
1840, 1421.00
1841, 1421.00
1842, 1419.00
1843, 1417.00
1844, 1415.00
1845, 1415.00
1846, 1415.00
1847, 1412.00
1848, 1412.00
1849, 1408.00
1850, 1409.00
1851, 1408.00
1852, 1405.00
1853, 1406.00
1854, 1405.00
1855, 1402.00
1856, 1399.00
1857, 1399.00
1858, 1396.00
1859, 1396.00
1860, 1396.00
1861, 1395.00
1862, 1393.00
1863, 1391.00
1864, 1392.00
1865, 1391.00
1866, 1388.00
1867, 1388.00
1868, 1387.00
1869, 1387.00
1870, 1385.00
1871, 1384.00
1872, 1385.00
1873, 1385.00
1874, 1382.00
1875, 1384.00
1876, 1383.00
1877, 1383.00
1878, 1381.00
1879, 1379.00
1880, 1381.00
1881, 1380.00
1882, 1378.00
1883, 1379.00
1884, 1378.00
1885, 1379.00
1886, 1378.00
1887, 1377.00
1888, 1376.00
1889, 1378.00
1890, 1376.00
1891, 1377.00
1892, 1377.00
1893, 1375.00
1894, 1375.00
1895, 1375.00
1896, 1375.00
1897, 1373.00
1898, 1374.00
1899, 1375.00
1900, 1373.00
1901, 1372.00
1902, 1373.00
1903, 1372.00
1904, 1372.00
1905, 1372.00
1906, 1371.00
1907, 1373.00
1908, 1372.00
1909, 1373.00
1910, 1371.00
1911, 1371.00
1912, 1370.00
1913, 1371.00
1914, 1371.00
1915, 1371.00
1916, 1371.00
1917, 1368.00
1918, 1372.00
1919, 1371.00
1920, 1370.00
1921, 1370.00
1922, 1371.00
1923, 1371.00
1924, 1371.00
1925, 1371.00
1926, 1371.00
1927, 1370.00
1928, 1372.00
1929, 1369.00
1930, 1371.00
1931, 1370.00
1932, 1371.00
1933, 1369.00
1934, 1371.00
1935, 1371.00
1936, 1370.00
1937, 1370.00
1938, 1371.00
1939, 1371.00
1940, 1372.00
1941, 1372.00
1942, 1371.00
1943, 1371.00
1944, 1373.00
1945, 1373.00
1946, 1372.00
1947, 1373.00
1948, 1371.00
1949, 1374.00
1950, 1372.00
1951, 1373.00
1952, 1373.00
1953, 1372.00
1954, 1373.00
1955, 1373.00
1956, 1373.00
1957, 1374.00
1958, 1375.00
1959, 1374.00
1960, 1375.00
1961, 1375.00
1962, 1375.00
1963, 1375.00
1964, 1375.00
1965, 1377.00
1966, 1375.00
1967, 1374.00
1968, 1377.00
1969, 1377.00
1970, 1376.00
1971, 1378.00
1972, 1377.00
1973, 1378.00
1974, 1378.00
1975, 1379.00
1976, 1378.00
1977, 1380.00
1978, 1380.00
1979, 1381.00
1980, 1380.00
1981, 1380.00
1982, 1380.00
1983, 1380.00
1984, 1381.00
1985, 1382.00
1986, 1383.00
1987, 1382.00
1988, 1381.00
1989, 1382.00
1990, 1384.00
1991, 1383.00
1992, 1384.00
1993, 1385.00
1994, 1384.00
1995, 1384.00
1996, 1385.00
1997, 1385.00
1998, 1384.00
1999, 1387.00
2000, 1386.00
2001, 1385.00
2002, 1387.00
2003, 1385.00
2004, 1387.00
2005, 1388.00
2006, 1389.00
2007, 1388.00
2008, 1389.00
2009, 1390.00
2010, 1390.00
2011, 1390.00
2012, 1390.00
2013, 1390.00
2014, 1393.00
2015, 1391.00
2016, 1392.00
2017, 1391.00
2018, 1390.00
2019, 1394.00
2020, 1391.00
2021, 1393.00
2022, 1392.00
2023, 1394.00
2024, 1393.00
2025, 1395.00
2026, 1396.00
2027, 1396.00
2028, 1397.00
2029, 1397.00
2030, 1396.00
2031, 1396.00
2032, 1398.00
2033, 1398.00
2034, 1395.00
2035, 1400.00
2036, 1399.00
2037, 1399.00
2038, 1399.00
2039, 1399.00
2040, 1399.00
2041, 1401.00
2042, 1402.00
2043, 1401.00
2044, 1403.00
2045, 1401.00
2046, 1405.00
2047, 1404.00
2048, 1405.00
2049, 1404.00
2050, 1404.00
2051, 1404.00
2052, 1405.00
2053, 1405.00
2054, 1407.00
2055, 1406.00
2056, 1408.00
2057, 1408.00
2058, 1410.00
2059, 1409.00
2060, 1409.00
2061, 1412.00
2062, 1412.00
2063, 1411.00
2064, 1412.00
2065, 1413.00
2066, 1411.00
2067, 1413.00
2068, 1414.00
2069, 1415.00
2070, 1413.00
2071, 1415.00
2072, 1416.00
2073, 1419.00
2074, 1415.00
2075, 1417.00
2076, 1420.00
2077, 1418.00
2078, 1418.00
2079, 1419.00
2080, 1420.00
2081, 1419.00
2082, 1421.00
2083, 1421.00
2084, 1421.00
2085, 1422.00
2086, 1421.00
2087, 1423.00
2088, 1424.00
2089, 1423.00
2090, 1423.00
2091, 1425.00
2092, 1425.00
2093, 1425.00
2094, 1425.00
2095, 1425.00
2096, 1425.00
2097, 1426.00
2098, 1425.00
2099, 1426.00
2100, 1428.00
2101, 1426.00
2102, 1427.00
2103, 1428.00
2104, 1426.00
2105, 1428.00
2106, 1428.00
2107, 1429.00
2108, 1432.00
2109, 1431.00
2110, 1430.00
2111, 1430.00
2112, 1429.00
2113, 1432.00
2114, 1430.00
2115, 1431.00
2116, 1430.00
2117, 1434.00
2118, 1433.00
2119, 1431.00
2120, 1434.00
2121, 1431.00
2122, 1432.00
2123, 1431.00
2124, 1433.00
2125, 1433.00
2126, 1433.00
2127, 1433.00
2128, 1434.00
2129, 1435.00
2130, 1434.00
2131, 1433.00
2132, 1434.00
2133, 1435.00
2134, 1436.00
2135, 1437.00
2136, 1436.00
2137, 1436.00
2138, 1438.00
2139, 1436.00
2140, 1436.00
2141, 1437.00
2142, 1437.00
2143, 1438.00
2144, 1438.00
2145, 1438.00
2146, 1437.00
2147, 1439.00
2148, 1438.00
2149, 1438.00
2150, 1439.00
