FW version: 24
Log Version: 3.0.3

General Info:
       Command/Macro Performed,            Timestamp,             Device ID, COM Port, UART/I2C, Test Name, Host Major, Host Minor, Host Revision, Host Git Commit
            Single_measurement,  2023_07_11_11_49_43,       Insight2_F4_xxx,    USB-C,      USB,          ,          0,          1,             1,      4031237645

Show Spectrometer Status:
l0_version, f4_version, battery_perc, battery_mVolt, accelerometer_temp, accelerometer_x, accelerometer_y, accelerometer_z, compass_temp, compass_x, compass_y, compass_z, lamp_0, lamp_1, gain_0, gain_1
        17,         24,           51,          1911,               6992,           65044,            1188,           18784,            0,     65341,     65524,     18787,   2866,   2866,      1,      1

Temperature Statistic Info:
NTC AVG [°C], NTC2 AVG [°C]
      42.253,        41.950

Statistic Info:
M1:  num,      min,      max,   median,      AVG,      STD,M2:  num,      min,      max,   median,      AVG,      STD
     301,  1748.00,  2003.00,  1801.00,  1832.23,  79.0752,     401,  2446.00,  2598.00,  2507.00,  2511.40,  48.9264,

Measurements:
Wavelength, Data Amplitude
1350, 1791.00
1351, 1791.00
1352, 1790.00
1353, 1790.00
1354, 1789.00
1355, 1787.00
1356, 1787.00
1357, 1786.00
1358, 1785.00
1359, 1784.00
1360, 1784.00
1361, 1782.00
1362, 1782.00
1363, 1780.00
1364, 1777.00
1365, 1778.00
1366, 1775.00
1367, 1775.00
1368, 1775.00
1369, 1773.00
1370, 1772.00
1371, 1771.00
1372, 1769.00
1373, 1767.00
1374, 1767.00
1375, 1767.00
1376, 1765.00
1377, 1764.00
1378, 1763.00
1379, 1763.00
1380, 1760.00
1381, 1760.00
1382, 1760.00
1383, 1760.00
1384, 1758.00
1385, 1758.00
1386, 1757.00
1387, 1757.00
1388, 1755.00
1389, 1755.00
1390, 1755.00
1391, 1754.00
1392, 1754.00
1393, 1754.00
1394, 1752.00
1395, 1752.00
1396, 1752.00
1397, 1752.00
1398, 1753.00
1399, 1751.00
1400, 1751.00
1401, 1751.00
1402, 1751.00
1403, 1750.00
1404, 1751.00
1405, 1750.00
1406, 1750.00
1407, 1751.00
1408, 1749.00
1409, 1749.00
1410, 1749.00
1411, 1749.00
1412, 1750.00
1413, 1750.00
1414, 1749.00
1415, 1749.00
1416, 1749.00
1417, 1749.00
1418, 1749.00
1419, 1749.00
1420, 1750.00
1421, 1749.00
1422, 1748.00
1423, 1749.00
1424, 1750.00
1425, 1749.00
1426, 1750.00
1427, 1749.00
1428, 1749.00
1429, 1751.00
1430, 1750.00
1431, 1752.00
1432, 1751.00
1433, 1751.00
1434, 1752.00
1435, 1753.00
1436, 1752.00
1437, 1752.00
1438, 1752.00
1439, 1753.00
1440, 1754.00
1441, 1754.00
1442, 1755.00
1443, 1755.00
1444, 1755.00
1445, 1756.00
1446, 1757.00
1447, 1758.00
1448, 1758.00
1449, 1759.00
1450, 1759.00
1451, 1759.00
1452, 1761.00
1453, 1759.00
1454, 1761.00
1455, 1761.00
1456, 1763.00
1457, 1762.00
1458, 1763.00
1459, 1765.00
1460, 1765.00
1461, 1767.00
1462, 1766.00
1463, 1766.00
1464, 1767.00
1465, 1768.00
1466, 1769.00
1467, 1769.00
1468, 1770.00
1469, 1771.00
1470, 1773.00
1471, 1774.00
1472, 1775.00
1473, 1775.00
1474, 1776.00
1475, 1776.00
1476, 1777.00
1477, 1778.00
1478, 1780.00
1479, 1781.00
1480, 1781.00
1481, 1781.00
1482, 1783.00
1483, 1784.00
1484, 1786.00
1485, 1787.00
1486, 1787.00
1487, 1789.00
1488, 1789.00
1489, 1791.00
1490, 1792.00
1491, 1791.00
1492, 1793.00
1493, 1795.00
1494, 1796.00
1495, 1797.00
1496, 1797.00
1497, 1799.00
1498, 1800.00
1499, 1801.00
1500, 1801.00
1501, 1803.00
1502, 1804.00
1503, 1805.00
1504, 1806.00
1505, 1807.00
1506, 1809.00
1507, 1809.00
1508, 1809.00
1509, 1811.00
1510, 1814.00
1511, 1814.00
1512, 1815.00
1513, 1816.00
1514, 1818.00
1515, 1817.00
1516, 1820.00
1517, 1820.00
1518, 1823.00
1519, 1824.00
1520, 1825.00
1521, 1825.00
1522, 1826.00
1523, 1829.00
1524, 1830.00
1525, 1831.00
1526, 1833.00
1527, 1833.00
1528, 1835.00
1529, 1836.00
1530, 1837.00
1531, 1839.00
1532, 1839.00
1533, 1841.00
1534, 1842.00
1535, 1843.00
1536, 1845.00
1537, 1846.00
1538, 1847.00
1539, 1848.00
1540, 1849.00
1541, 1850.00
1542, 1852.00
1543, 1853.00
1544, 1855.00
1545, 1856.00
1546, 1857.00
1547, 1859.00
1548, 1860.00
1549, 1862.00
1550, 1862.00
1551, 1865.00
1552, 1866.00
1553, 1866.00
1554, 1868.00
1555, 1869.00
1556, 1871.00
1557, 1873.00
1558, 1873.00
1559, 1875.00
1560, 1876.00
1561, 1877.00
1562, 1879.00
1563, 1881.00
1564, 1882.00
1565, 1885.00
1566, 1885.00
1567, 1886.00
1568, 1888.00
1569, 1890.00
1570, 1891.00
1571, 1893.00
1572, 1893.00
1573, 1895.00
1574, 1896.00
1575, 1898.00
1576, 1899.00
1577, 1899.00
1578, 1901.00
1579, 1903.00
1580, 1904.00
1581, 1905.00
1582, 1906.00
1583, 1908.00
1584, 1910.00
1585, 1911.00
1586, 1912.00
1587, 1914.00
1588, 1913.00
1589, 1916.00
1590, 1917.00
1591, 1917.00
1592, 1919.00
1593, 1920.00
1594, 1922.00
1595, 1923.00
1596, 1924.00
1597, 1926.00
1598, 1926.00
1599, 1928.00
1600, 1930.00
1601, 1930.00
1602, 1932.00
1603, 1934.00
1604, 1936.00
1605, 1936.00
1606, 1938.00
1607, 1940.00
1608, 1940.00
1609, 1942.00
1610, 1944.00
1611, 1945.00
1612, 1948.00
1613, 1949.00
1614, 1950.00
1615, 1950.00
1616, 1953.00
1617, 1954.00
1618, 1956.00
1619, 1956.00
1620, 1959.00
1621, 1961.00
1622, 1962.00
1623, 1964.00
1624, 1966.00
1625, 1967.00
1626, 1969.00
1627, 1971.00
1628, 1971.00
1629, 1973.00
1630, 1976.00
1631, 1976.00
1632, 1978.00
1633, 1980.00
1634, 1981.00
1635, 1981.00
1636, 1983.00
1637, 1984.00
1638, 1987.00
1639, 1987.00
1640, 1990.00
1641, 1989.00
1642, 1991.00
1643, 1992.00
1644, 1993.00
1645, 1995.00
1646, 1996.00
1647, 1998.00
1648, 2000.00
1649, 2000.00
1650, 2003.00

1750, 2594.00
1751, 2593.00
1752, 2595.00
1753, 2596.00
1754, 2594.00
1755, 2598.00
1756, 2594.00
1757, 2596.00
1758, 2594.00
1759, 2592.00
1760, 2595.00
1761, 2595.00
1762, 2594.00
1763, 2594.00
1764, 2595.00
1765, 2595.00
1766, 2591.00
1767, 2591.00
1768, 2592.00
1769, 2592.00
1770, 2591.00
1771, 2593.00
1772, 2591.00
1773, 2589.00
1774, 2591.00
1775, 2589.00
1776, 2589.00
1777, 2589.00
1778, 2587.00
1779, 2588.00
1780, 2587.00
1781, 2585.00
1782, 2584.00
1783, 2586.00
1784, 2586.00
1785, 2584.00
1786, 2585.00
1787, 2585.00
1788, 2583.00
1789, 2582.00
1790, 2584.00
1791, 2581.00
1792, 2583.00
1793, 2583.00
1794, 2580.00
1795, 2580.00
1796, 2579.00
1797, 2580.00
1798, 2579.00
1799, 2578.00
1800, 2577.00
1801, 2580.00
1802, 2578.00
1803, 2577.00
1804, 2575.00
1805, 2573.00
1806, 2577.00
1807, 2575.00
1808, 2572.00
1809, 2573.00
1810, 2572.00
1811, 2572.00
1812, 2572.00
1813, 2570.00
1814, 2571.00
1815, 2569.00
1816, 2568.00
1817, 2567.00
1818, 2566.00
1819, 2568.00
1820, 2565.00
1821, 2565.00
1822, 2564.00
1823, 2562.00
1824, 2560.00
1825, 2561.00
1826, 2559.00
1827, 2557.00
1828, 2555.00
1829, 2554.00
1830, 2555.00
1831, 2552.00
1832, 2551.00
1833, 2549.00
1834, 2548.00
1835, 2545.00
1836, 2543.00
1837, 2540.00
1838, 2539.00
1839, 2538.00
1840, 2535.00
1841, 2535.00
1842, 2532.00
1843, 2529.00
1844, 2529.00
1845, 2525.00
1846, 2522.00
1847, 2522.00
1848, 2521.00
1849, 2514.00
1850, 2515.00
1851, 2513.00
1852, 2511.00
1853, 2507.00
1854, 2507.00
1855, 2503.00
1856, 2501.00
1857, 2497.00
1858, 2496.00
1859, 2494.00
1860, 2493.00
1861, 2491.00
1862, 2488.00
1863, 2488.00
1864, 2484.00
1865, 2482.00
1866, 2480.00
1867, 2479.00
1868, 2477.00
1869, 2478.00
1870, 2476.00
1871, 2473.00
1872, 2471.00
1873, 2471.00
1874, 2470.00
1875, 2470.00
1876, 2468.00
1877, 2469.00
1878, 2467.00
1879, 2465.00
1880, 2465.00
1881, 2463.00
1882, 2461.00
1883, 2461.00
1884, 2460.00
1885, 2461.00
1886, 2460.00
1887, 2458.00
1888, 2456.00
1889, 2457.00
1890, 2458.00
1891, 2457.00
1892, 2457.00
1893, 2457.00
1894, 2455.00
1895, 2454.00
1896, 2453.00
1897, 2453.00
1898, 2451.00
1899, 2452.00
1900, 2452.00
1901, 2451.00
1902, 2452.00
1903, 2449.00
1904, 2452.00
1905, 2452.00
1906, 2450.00
1907, 2449.00
1908, 2449.00
1909, 2450.00
1910, 2449.00
1911, 2449.00
1912, 2449.00
1913, 2451.00
1914, 2449.00
1915, 2449.00
1916, 2448.00
1917, 2448.00
1918, 2448.00
1919, 2449.00
1920, 2448.00
1921, 2447.00
1922, 2448.00
1923, 2446.00
1924, 2446.00
1925, 2446.00
1926, 2447.00
1927, 2447.00
1928, 2446.00
1929, 2448.00
1930, 2447.00
1931, 2447.00
1932, 2446.00
1933, 2447.00
1934, 2448.00
1935, 2447.00
1936, 2446.00
1937, 2448.00
1938, 2449.00
1939, 2447.00
1940, 2448.00
1941, 2449.00
1942, 2447.00
1943, 2448.00
1944, 2448.00
1945, 2447.00
1946, 2451.00
1947, 2450.00
1948, 2450.00
1949, 2451.00
1950, 2448.00
1951, 2451.00
1952, 2450.00
1953, 2451.00
1954, 2451.00
1955, 2451.00
1956, 2453.00
1957, 2452.00
1958, 2453.00
1959, 2452.00
1960, 2454.00
1961, 2452.00
1962, 2456.00
1963, 2453.00
1964, 2455.00
1965, 2458.00
1966, 2456.00
1967, 2457.00
1968, 2457.00
1969, 2456.00
1970, 2458.00
1971, 2458.00
1972, 2458.00
1973, 2459.00
1974, 2462.00
1975, 2459.00
1976, 2460.00
1977, 2460.00
1978, 2462.00
1979, 2463.00
1980, 2463.00
1981, 2463.00
1982, 2465.00
1983, 2464.00
1984, 2464.00
1985, 2464.00
1986, 2465.00
1987, 2467.00
1988, 2467.00
1989, 2468.00
1990, 2469.00
1991, 2468.00
1992, 2469.00
1993, 2470.00
1994, 2470.00
1995, 2472.00
1996, 2471.00
1997, 2471.00
1998, 2472.00
1999, 2472.00
2000, 2475.00
2001, 2473.00
2002, 2475.00
2003, 2476.00
2004, 2477.00
2005, 2477.00
2006, 2478.00
2007, 2478.00
2008, 2478.00
2009, 2478.00
2010, 2479.00
2011, 2480.00
2012, 2479.00
2013, 2481.00
2014, 2483.00
2015, 2481.00
2016, 2484.00
2017, 2482.00
2018, 2483.00
2019, 2484.00
2020, 2486.00
2021, 2484.00
2022, 2486.00
2023, 2484.00
2024, 2487.00
2025, 2488.00
2026, 2487.00
2027, 2489.00
2028, 2489.00
2029, 2490.00
2030, 2489.00
2031, 2491.00
2032, 2490.00
2033, 2492.00
2034, 2493.00
2035, 2493.00
2036, 2494.00
2037, 2495.00
2038, 2496.00
2039, 2497.00
2040, 2496.00
2041, 2497.00
2042, 2497.00
2043, 2498.00
2044, 2499.00
2045, 2501.00
2046, 2502.00
2047, 2501.00
2048, 2503.00
2049, 2502.00
2050, 2503.00
2051, 2505.00
2052, 2505.00
2053, 2507.00
2054, 2508.00
2055, 2507.00
2056, 2510.00
2057, 2511.00
2058, 2510.00
2059, 2513.00
2060, 2513.00
2061, 2515.00
2062, 2514.00
2063, 2515.00
2064, 2517.00
2065, 2518.00
2066, 2518.00
2067, 2520.00
2068, 2520.00
2069, 2519.00
2070, 2522.00
2071, 2519.00
2072, 2522.00
2073, 2525.00
2074, 2523.00
2075, 2526.00
2076, 2527.00
2077, 2527.00
2078, 2526.00
2079, 2526.00
2080, 2530.00
2081, 2527.00
2082, 2531.00
2083, 2531.00
2084, 2533.00
2085, 2531.00
2086, 2530.00
2087, 2531.00
2088, 2534.00
2089, 2536.00
2090, 2536.00
2091, 2537.00
2092, 2538.00
2093, 2539.00
2094, 2537.00
2095, 2539.00
2096, 2539.00
2097, 2540.00
2098, 2540.00
2099, 2540.00
2100, 2541.00
2101, 2541.00
2102, 2541.00
2103, 2543.00
2104, 2543.00
2105, 2546.00
2106, 2545.00
2107, 2544.00
2108, 2545.00
2109, 2545.00
2110, 2548.00
2111, 2546.00
2112, 2546.00
2113, 2548.00
2114, 2548.00
2115, 2548.00
2116, 2548.00
2117, 2547.00
2118, 2547.00
2119, 2551.00
2120, 2548.00
2121, 2550.00
2122, 2549.00
2123, 2551.00
2124, 2551.00
2125, 2552.00
2126, 2551.00
2127, 2553.00
2128, 2552.00
2129, 2552.00
2130, 2555.00
2131, 2553.00
2132, 2553.00
2133, 2555.00
2134, 2552.00
2135, 2556.00
2136, 2557.00
2137, 2555.00
2138, 2558.00
2139, 2557.00
2140, 2559.00
2141, 2559.00
2142, 2556.00
2143, 2558.00
2144, 2558.00
2145, 2559.00
2146, 2558.00
2147, 2559.00
2148, 2560.00
2149, 2561.00
2150, 2560.00
