FW version: 24
Log Version: 3.0.3

General Info:
       Command/Macro Performed,            Timestamp,             Device ID, COM Port, UART/I2C, Test Name, Host Major, Host Minor, Host Revision, Host Git Commit
            Single_measurement,  2023_07_11_11_50_02,       Insight2_F4_xxx,    USB-C,      USB,          ,          0,          1,             1,      4031237645

Show Spectrometer Status:
l0_version, f4_version, battery_perc, battery_mVolt, accelerometer_temp, accelerometer_x, accelerometer_y, accelerometer_z, compass_temp, compass_x, compass_y, compass_z, lamp_0, lamp_1, gain_0, gain_1
        17,         24,           51,          1912,               7024,           65296,            1192,           18856,            0,     65341,     65516,     18925,   3276,   3276,      1,      1

Temperature Statistic Info:
NTC AVG [°C], NTC2 AVG [°C]
      42.404,        42.010

Statistic Info:
M1:  num,      min,      max,   median,      AVG,      STD,M2:  num,      min,      max,   median,      AVG,      STD
     301,  2251.00,  2566.00,  2317.00,  2355.42,  98.1466,     401,  3039.00,  3228.00,  3116.00,  3120.49,  60.6768,

Measurements:
Wavelength, Data Amplitude
1350, 2308.00
1351, 2308.00
1352, 2306.00
1353, 2305.00
1354, 2304.00
1355, 2303.00
1356, 2302.00
1357, 2300.00
1358, 2299.00
1359, 2299.00
1360, 2297.00
1361, 2296.00
1362, 2294.00
1363, 2293.00
1364, 2291.00
1365, 2290.00
1366, 2288.00
1367, 2287.00
1368, 2284.00
1369, 2282.00
1370, 2283.00
1371, 2280.00
1372, 2279.00
1373, 2277.00
1374, 2277.00
1375, 2275.00
1376, 2273.00
1377, 2272.00
1378, 2270.00
1379, 2270.00
1380, 2269.00
1381, 2267.00
1382, 2267.00
1383, 2265.00
1384, 2264.00
1385, 2263.00
1386, 2263.00
1387, 2263.00
1388, 2261.00
1389, 2260.00
1390, 2259.00
1391, 2261.00
1392, 2258.00
1393, 2258.00
1394, 2257.00
1395, 2257.00
1396, 2256.00
1397, 2257.00
1398, 2257.00
1399, 2255.00
1400, 2254.00
1401, 2255.00
1402, 2254.00
1403, 2254.00
1404, 2255.00
1405, 2253.00
1406, 2253.00
1407, 2254.00
1408, 2252.00
1409, 2252.00
1410, 2253.00
1411, 2252.00
1412, 2253.00
1413, 2252.00
1414, 2252.00
1415, 2252.00
1416, 2252.00
1417, 2253.00
1418, 2252.00
1419, 2252.00
1420, 2252.00
1421, 2251.00
1422, 2253.00
1423, 2253.00
1424, 2252.00
1425, 2253.00
1426, 2253.00
1427, 2253.00
1428, 2253.00
1429, 2253.00
1430, 2254.00
1431, 2254.00
1432, 2255.00
1433, 2255.00
1434, 2254.00
1435, 2256.00
1436, 2257.00
1437, 2256.00
1438, 2257.00
1439, 2256.00
1440, 2258.00
1441, 2259.00
1442, 2258.00
1443, 2259.00
1444, 2259.00
1445, 2261.00
1446, 2261.00
1447, 2262.00
1448, 2262.00
1449, 2263.00
1450, 2263.00
1451, 2263.00
1452, 2264.00
1453, 2265.00
1454, 2267.00
1455, 2267.00
1456, 2267.00
1457, 2267.00
1458, 2270.00
1459, 2269.00
1460, 2271.00
1461, 2270.00
1462, 2272.00
1463, 2273.00
1464, 2274.00
1465, 2276.00
1466, 2277.00
1467, 2277.00
1468, 2279.00
1469, 2279.00
1470, 2280.00
1471, 2281.00
1472, 2282.00
1473, 2283.00
1474, 2284.00
1475, 2285.00
1476, 2287.00
1477, 2288.00
1478, 2290.00
1479, 2290.00
1480, 2293.00
1481, 2293.00
1482, 2295.00
1483, 2296.00
1484, 2297.00
1485, 2298.00
1486, 2299.00
1487, 2301.00
1488, 2302.00
1489, 2304.00
1490, 2304.00
1491, 2306.00
1492, 2307.00
1493, 2309.00
1494, 2310.00
1495, 2310.00
1496, 2313.00
1497, 2314.00
1498, 2315.00
1499, 2315.00
1500, 2317.00
1501, 2319.00
1502, 2320.00
1503, 2321.00
1504, 2323.00
1505, 2323.00
1506, 2325.00
1507, 2325.00
1508, 2328.00
1509, 2329.00
1510, 2330.00
1511, 2332.00
1512, 2333.00
1513, 2336.00
1514, 2336.00
1515, 2338.00
1516, 2339.00
1517, 2340.00
1518, 2341.00
1519, 2343.00
1520, 2345.00
1521, 2346.00
1522, 2347.00
1523, 2349.00
1524, 2350.00
1525, 2353.00
1526, 2355.00
1527, 2355.00
1528, 2357.00
1529, 2358.00
1530, 2361.00
1531, 2361.00
1532, 2364.00
1533, 2365.00
1534, 2366.00
1535, 2368.00
1536, 2370.00
1537, 2371.00
1538, 2374.00
1539, 2376.00
1540, 2376.00
1541, 2377.00
1542, 2379.00
1543, 2382.00
1544, 2384.00
1545, 2384.00
1546, 2385.00
1547, 2387.00
1548, 2390.00
1549, 2391.00
1550, 2392.00
1551, 2395.00
1552, 2396.00
1553, 2398.00
1554, 2399.00
1555, 2401.00
1556, 2404.00
1557, 2405.00
1558, 2406.00
1559, 2408.00
1560, 2410.00
1561, 2412.00
1562, 2415.00
1563, 2416.00
1564, 2418.00
1565, 2419.00
1566, 2421.00
1567, 2422.00
1568, 2424.00
1569, 2427.00
1570, 2429.00
1571, 2431.00
1572, 2431.00
1573, 2433.00
1574, 2437.00
1575, 2436.00
1576, 2438.00
1577, 2441.00
1578, 2441.00
1579, 2443.00
1580, 2445.00
1581, 2445.00
1582, 2448.00
1583, 2449.00
1584, 2451.00
1585, 2453.00
1586, 2455.00
1587, 2455.00
1588, 2458.00
1589, 2459.00
1590, 2461.00
1591, 2462.00
1592, 2463.00
1593, 2466.00
1594, 2467.00
1595, 2468.00
1596, 2469.00
1597, 2471.00
1598, 2473.00
1599, 2475.00
1600, 2476.00
1601, 2478.00
1602, 2480.00
1603, 2482.00
1604, 2483.00
1605, 2485.00
1606, 2487.00
1607, 2489.00
1608, 2491.00
1609, 2492.00
1610, 2494.00
1611, 2496.00
1612, 2498.00
1613, 2499.00
1614, 2501.00
1615, 2504.00
1616, 2505.00
1617, 2507.00
1618, 2510.00
1619, 2512.00
1620, 2513.00
1621, 2516.00
1622, 2517.00
1623, 2520.00
1624, 2521.00
1625, 2523.00
1626, 2525.00
1627, 2527.00
1628, 2527.00
1629, 2531.00
1630, 2535.00
1631, 2534.00
1632, 2536.00
1633, 2538.00
1634, 2539.00
1635, 2542.00
1636, 2543.00
1637, 2546.00
1638, 2547.00
1639, 2547.00
1640, 2548.00
1641, 2551.00
1642, 2552.00
1643, 2554.00
1644, 2556.00
1645, 2557.00
1646, 2559.00
1647, 2561.00
1648, 2563.00
1649, 2563.00
1650, 2566.00

1750, 3225.00
1751, 3228.00
1752, 3225.00
1753, 3227.00
1754, 3224.00
1755, 3225.00
1756, 3227.00
1757, 3226.00
1758, 3225.00
1759, 3225.00
1760, 3224.00
1761, 3223.00
1762, 3226.00
1763, 3226.00
1764, 3225.00
1765, 3224.00
1766, 3224.00
1767, 3224.00
1768, 3222.00
1769, 3221.00
1770, 3222.00
1771, 3221.00
1772, 3221.00
1773, 3218.00
1774, 3221.00
1775, 3218.00
1776, 3218.00
1777, 3218.00
1778, 3217.00
1779, 3218.00
1780, 3215.00
1781, 3217.00
1782, 3215.00
1783, 3216.00
1784, 3214.00
1785, 3214.00
1786, 3213.00
1787, 3212.00
1788, 3210.00
1789, 3209.00
1790, 3210.00
1791, 3211.00
1792, 3207.00
1793, 3208.00
1794, 3210.00
1795, 3208.00
1796, 3205.00
1797, 3205.00
1798, 3205.00
1799, 3206.00
1800, 3203.00
1801, 3204.00
1802, 3202.00
1803, 3201.00
1804, 3201.00
1805, 3200.00
1806, 3199.00
1807, 3200.00
1808, 3198.00
1809, 3197.00
1810, 3198.00
1811, 3196.00
1812, 3194.00
1813, 3195.00
1814, 3193.00
1815, 3194.00
1816, 3194.00
1817, 3191.00
1818, 3191.00
1819, 3190.00
1820, 3189.00
1821, 3189.00
1822, 3187.00
1823, 3185.00
1824, 3184.00
1825, 3182.00
1826, 3182.00
1827, 3177.00
1828, 3178.00
1829, 3175.00
1830, 3173.00
1831, 3170.00
1832, 3168.00
1833, 3168.00
1834, 3165.00
1835, 3164.00
1836, 3164.00
1837, 3158.00
1838, 3156.00
1839, 3155.00
1840, 3151.00
1841, 3151.00
1842, 3147.00
1843, 3143.00
1844, 3140.00
1845, 3138.00
1846, 3136.00
1847, 3132.00
1848, 3131.00
1849, 3127.00
1850, 3124.00
1851, 3121.00
1852, 3118.00
1853, 3117.00
1854, 3112.00
1855, 3109.00
1856, 3107.00
1857, 3104.00
1858, 3099.00
1859, 3099.00
1860, 3097.00
1861, 3094.00
1862, 3093.00
1863, 3092.00
1864, 3088.00
1865, 3087.00
1866, 3085.00
1867, 3081.00
1868, 3080.00
1869, 3077.00
1870, 3075.00
1871, 3075.00
1872, 3073.00
1873, 3069.00
1874, 3067.00
1875, 3069.00
1876, 3066.00
1877, 3064.00
1878, 3065.00
1879, 3065.00
1880, 3063.00
1881, 3059.00
1882, 3060.00
1883, 3059.00
1884, 3057.00
1885, 3059.00
1886, 3055.00
1887, 3055.00
1888, 3055.00
1889, 3054.00
1890, 3053.00
1891, 3052.00
1892, 3051.00
1893, 3054.00
1894, 3052.00
1895, 3050.00
1896, 3049.00
1897, 3050.00
1898, 3049.00
1899, 3049.00
1900, 3048.00
1901, 3049.00
1902, 3044.00
1903, 3045.00
1904, 3045.00
1905, 3045.00
1906, 3043.00
1907, 3047.00
1908, 3044.00
1909, 3044.00
1910, 3044.00
1911, 3043.00
1912, 3043.00
1913, 3043.00
1914, 3045.00
1915, 3041.00
1916, 3042.00
1917, 3043.00
1918, 3043.00
1919, 3043.00
1920, 3042.00
1921, 3043.00
1922, 3041.00
1923, 3039.00
1924, 3043.00
1925, 3042.00
1926, 3043.00
1927, 3041.00
1928, 3042.00
1929, 3041.00
1930, 3042.00
1931, 3041.00
1932, 3040.00
1933, 3042.00
1934, 3039.00
1935, 3041.00
1936, 3041.00
1937, 3041.00
1938, 3041.00
1939, 3044.00
1940, 3041.00
1941, 3043.00
1942, 3043.00
1943, 3042.00
1944, 3044.00
1945, 3043.00
1946, 3043.00
1947, 3041.00
1948, 3043.00
1949, 3046.00
1950, 3044.00
1951, 3045.00
1952, 3044.00
1953, 3047.00
1954, 3046.00
1955, 3046.00
1956, 3046.00
1957, 3047.00
1958, 3045.00
1959, 3047.00
1960, 3050.00
1961, 3048.00
1962, 3051.00
1963, 3050.00
1964, 3051.00
1965, 3053.00
1966, 3053.00
1967, 3054.00
1968, 3051.00
1969, 3053.00
1970, 3051.00
1971, 3055.00
1972, 3052.00
1973, 3055.00
1974, 3056.00
1975, 3060.00
1976, 3058.00
1977, 3059.00
1978, 3058.00
1979, 3061.00
1980, 3061.00
1981, 3061.00
1982, 3062.00
1983, 3062.00
1984, 3063.00
1985, 3065.00
1986, 3063.00
1987, 3066.00
1988, 3065.00
1989, 3065.00
1990, 3067.00
1991, 3067.00
1992, 3067.00
1993, 3070.00
1994, 3069.00
1995, 3071.00
1996, 3072.00
1997, 3073.00
1998, 3073.00
1999, 3072.00
2000, 3073.00
2001, 3074.00
2002, 3075.00
2003, 3077.00
2004, 3076.00
2005, 3079.00
2006, 3078.00
2007, 3080.00
2008, 3079.00
2009, 3080.00
2010, 3082.00
2011, 3082.00
2012, 3083.00
2013, 3083.00
2014, 3083.00
2015, 3085.00
2016, 3084.00
2017, 3086.00
2018, 3086.00
2019, 3088.00
2020, 3088.00
2021, 3087.00
2022, 3088.00
2023, 3088.00
2024, 3092.00
2025, 3090.00
2026, 3091.00
2027, 3095.00
2028, 3093.00
2029, 3093.00
2030, 3097.00
2031, 3094.00
2032, 3098.00
2033, 3097.00
2034, 3096.00
2035, 3096.00
2036, 3099.00
2037, 3101.00
2038, 3100.00
2039, 3104.00
2040, 3102.00
2041, 3104.00
2042, 3103.00
2043, 3104.00
2044, 3104.00
2045, 3107.00
2046, 3106.00
2047, 3108.00
2048, 3109.00
2049, 3111.00
2050, 3113.00
2051, 3113.00
2052, 3115.00
2053, 3116.00
2054, 3116.00
2055, 3117.00
2056, 3117.00
2057, 3119.00
2058, 3120.00
2059, 3121.00
2060, 3123.00
2061, 3123.00
2062, 3124.00
2063, 3124.00
2064, 3124.00
2065, 3127.00
2066, 3126.00
2067, 3129.00
2068, 3128.00
2069, 3131.00
2070, 3130.00
2071, 3133.00
2072, 3133.00
2073, 3132.00
2074, 3134.00
2075, 3136.00
2076, 3138.00
2077, 3136.00
2078, 3138.00
2079, 3138.00
2080, 3140.00
2081, 3141.00
2082, 3143.00
2083, 3141.00
2084, 3144.00
2085, 3147.00
2086, 3147.00
2087, 3146.00
2088, 3146.00
2089, 3149.00
2090, 3148.00
2091, 3151.00
2092, 3150.00
2093, 3152.00
2094, 3152.00
2095, 3154.00
2096, 3153.00
2097, 3153.00
2098, 3154.00
2099, 3154.00
2100, 3156.00
2101, 3155.00
2102, 3155.00
2103, 3156.00
2104, 3157.00
2105, 3157.00
2106, 3159.00
2107, 3158.00
2108, 3160.00
2109, 3160.00
2110, 3161.00
2111, 3161.00
2112, 3161.00
2113, 3163.00
2114, 3164.00
2115, 3162.00
2116, 3165.00
2117, 3165.00
2118, 3164.00
2119, 3165.00
2120, 3165.00
2121, 3167.00
2122, 3169.00
2123, 3165.00
2124, 3167.00
2125, 3168.00
2126, 3169.00
2127, 3168.00
2128, 3169.00
2129, 3171.00
2130, 3169.00
2131, 3172.00
2132, 3170.00
2133, 3171.00
2134, 3170.00
2135, 3171.00
2136, 3171.00
2137, 3174.00
2138, 3173.00
2139, 3174.00
2140, 3175.00
2141, 3177.00
2142, 3176.00
2143, 3176.00
2144, 3177.00
2145, 3175.00
2146, 3178.00
2147, 3178.00
2148, 3176.00
2149, 3180.00
2150, 3180.00
