FW version: 24
Log Version: 3.0.3

General Info:
       Command/Macro Performed,            Timestamp,             Device ID, COM Port, UART/I2C, Test Name, Host Major, Host Minor, Host Revision, Host Git Commit
            Single_measurement,  2023_07_11_11_49_15,       Insight2_F4_xxx,    USB-C,      USB,          ,          0,          1,             1,      4031237645

Show Spectrometer Status:
l0_version, f4_version, battery_perc, battery_mVolt, accelerometer_temp, accelerometer_x, accelerometer_y, accelerometer_z, compass_temp, compass_x, compass_y, compass_z, lamp_0, lamp_1, gain_0, gain_1
        17,         24,           51,          1912,               7008,           65256,            1200,           18784,            0,     65531,     65530,     18797,   2457,   2457,      1,      1

Temperature Statistic Info:
NTC AVG [°C], NTC2 AVG [°C]
      42.070,        41.744

Statistic Info:
M1:  num,      min,      max,   median,      AVG,      STD,M2:  num,      min,      max,   median,      AVG,      STD
     301,  1295.00,  1491.00,  1336.00,  1359.47,  60.9046,     401,  1886.00,  2004.00,  1935.00,  1938.35,  38.0397,

Measurements:
Wavelength, Data Amplitude
1350, 1326.00
1351, 1325.00
1352, 1325.00
1353, 1325.00
1354, 1323.00
1355, 1322.00
1356, 1322.00
1357, 1322.00
1358, 1322.00
1359, 1320.00
1360, 1320.00
1361, 1319.00
1362, 1319.00
1363, 1318.00
1364, 1317.00
1365, 1316.00
1366, 1316.00
1367, 1314.00
1368, 1313.00
1369, 1312.00
1370, 1312.00
1371, 1311.00
1372, 1310.00
1373, 1309.00
1374, 1308.00
1375, 1308.00
1376, 1308.00
1377, 1306.00
1378, 1305.00
1379, 1306.00
1380, 1305.00
1381, 1304.00
1382, 1303.00
1383, 1302.00
1384, 1302.00
1385, 1302.00
1386, 1301.00
1387, 1300.00
1388, 1300.00
1389, 1300.00
1390, 1300.00
1391, 1300.00
1392, 1299.00
1393, 1299.00
1394, 1298.00
1395, 1297.00
1396, 1298.00
1397, 1297.00
1398, 1297.00
1399, 1297.00
1400, 1297.00
1401, 1297.00
1402, 1297.00
1403, 1296.00
1404, 1297.00
1405, 1298.00
1406, 1297.00
1407, 1296.00
1408, 1297.00
1409, 1296.00
1410, 1296.00
1411, 1295.00
1412, 1296.00
1413, 1295.00
1414, 1296.00
1415, 1296.00
1416, 1295.00
1417, 1295.00
1418, 1296.00
1419, 1295.00
1420, 1296.00
1421, 1295.00
1422, 1296.00
1423, 1297.00
1424, 1296.00
1425, 1296.00
1426, 1297.00
1427, 1297.00
1428, 1296.00
1429, 1296.00
1430, 1296.00
1431, 1297.00
1432, 1298.00
1433, 1298.00
1434, 1298.00
1435, 1298.00
1436, 1298.00
1437, 1300.00
1438, 1299.00
1439, 1299.00
1440, 1299.00
1441, 1300.00
1442, 1301.00
1443, 1301.00
1444, 1301.00
1445, 1301.00
1446, 1302.00
1447, 1302.00
1448, 1302.00
1449, 1303.00
1450, 1302.00
1451, 1304.00
1452, 1304.00
1453, 1304.00
1454, 1306.00
1455, 1305.00
1456, 1306.00
1457, 1306.00
1458, 1307.00
1459, 1306.00
1460, 1307.00
1461, 1309.00
1462, 1309.00
1463, 1309.00
1464, 1310.00
1465, 1310.00
1466, 1310.00
1467, 1311.00
1468, 1313.00
1469, 1313.00
1470, 1314.00
1471, 1314.00
1472, 1315.00
1473, 1315.00
1474, 1316.00
1475, 1317.00
1476, 1317.00
1477, 1319.00
1478, 1320.00
1479, 1319.00
1480, 1321.00
1481, 1322.00
1482, 1322.00
1483, 1323.00
1484, 1324.00
1485, 1324.00
1486, 1325.00
1487, 1326.00
1488, 1327.00
1489, 1327.00
1490, 1329.00
1491, 1330.00
1492, 1330.00
1493, 1331.00
1494, 1331.00
1495, 1333.00
1496, 1333.00
1497, 1334.00
1498, 1335.00
1499, 1335.00
1500, 1336.00
1501, 1338.00
1502, 1339.00
1503, 1339.00
1504, 1339.00
1505, 1339.00
1506, 1341.00
1507, 1342.00
1508, 1343.00
1509, 1345.00
1510, 1345.00
1511, 1346.00
1512, 1346.00
1513, 1347.00
1514, 1348.00
1515, 1349.00
1516, 1351.00
1517, 1351.00
1518, 1353.00
1519, 1353.00
1520, 1354.00
1521, 1355.00
1522, 1355.00
1523, 1357.00
1524, 1358.00
1525, 1359.00
1526, 1359.00
1527, 1360.00
1528, 1363.00
1529, 1363.00
1530, 1363.00
1531, 1365.00
1532, 1365.00
1533, 1367.00
1534, 1367.00
1535, 1369.00
1536, 1369.00
1537, 1370.00
1538, 1371.00
1539, 1372.00
1540, 1373.00
1541, 1375.00
1542, 1374.00
1543, 1377.00
1544, 1377.00
1545, 1378.00
1546, 1380.00
1547, 1381.00
1548, 1380.00
1549, 1383.00
1550, 1383.00
1551, 1384.00
1552, 1386.00
1553, 1387.00
1554, 1387.00
1555, 1388.00
1556, 1389.00
1557, 1392.00
1558, 1391.00
1559, 1392.00
1560, 1394.00
1561, 1394.00
1562, 1397.00
1563, 1398.00
1564, 1398.00
1565, 1399.00
1566, 1400.00
1567, 1402.00
1568, 1403.00
1569, 1403.00
1570, 1405.00
1571, 1406.00
1572, 1407.00
1573, 1408.00
1574, 1409.00
1575, 1410.00
1576, 1410.00
1577, 1412.00
1578, 1412.00
1579, 1414.00
1580, 1414.00
1581, 1416.00
1582, 1417.00
1583, 1417.00
1584, 1419.00
1585, 1420.00
1586, 1421.00
1587, 1421.00
1588, 1422.00
1589, 1423.00
1590, 1424.00
1591, 1425.00
1592, 1426.00
1593, 1428.00
1594, 1428.00
1595, 1428.00
1596, 1430.00
1597, 1431.00
1598, 1432.00
1599, 1433.00
1600, 1433.00
1601, 1436.00
1602, 1436.00
1603, 1437.00
1604, 1439.00
1605, 1438.00
1606, 1441.00
1607, 1441.00
1608, 1443.00
1609, 1444.00
1610, 1445.00
1611, 1447.00
1612, 1447.00
1613, 1448.00
1614, 1450.00
1615, 1452.00
1616, 1452.00
1617, 1454.00
1618, 1455.00
1619, 1456.00
1620, 1458.00
1621, 1459.00
1622, 1459.00
1623, 1461.00
1624, 1462.00
1625, 1463.00
1626, 1464.00
1627, 1465.00
1628, 1467.00
1629, 1468.00
1630, 1469.00
1631, 1470.00
1632, 1472.00
1633, 1473.00
1634, 1474.00
1635, 1476.00
1636, 1476.00
1637, 1477.00
1638, 1477.00
1639, 1479.00
1640, 1480.00
1641, 1480.00
1642, 1482.00
1643, 1484.00
1644, 1484.00
1645, 1485.00
1646, 1486.00
1647, 1487.00
1648, 1489.00
1649, 1488.00
1650, 1491.00

1750, 2001.00
1751, 2000.00
1752, 2001.00
1753, 2004.00
1754, 2000.00
1755, 2001.00
1756, 2001.00
1757, 2002.00
1758, 1999.00
1759, 2002.00
1760, 2000.00
1761, 2001.00
1762, 2003.00
1763, 2001.00
1764, 2002.00
1765, 2003.00
1766, 2001.00
1767, 1999.00
1768, 2002.00
1769, 2001.00
1770, 2001.00
1771, 2001.00
1772, 1998.00
1773, 1998.00
1774, 2000.00
1775, 1998.00
1776, 1998.00
1777, 1995.00
1778, 1997.00
1779, 1996.00
1780, 1999.00
1781, 1997.00
1782, 1995.00
1783, 1995.00
1784, 1995.00
1785, 1995.00
1786, 1995.00
1787, 1991.00
1788, 1991.00
1789, 1992.00
1790, 1993.00
1791, 1993.00
1792, 1991.00
1793, 1994.00
1794, 1991.00
1795, 1993.00
1796, 1990.00
1797, 1989.00
1798, 1990.00
1799, 1991.00
1800, 1989.00
1801, 1989.00
1802, 1989.00
1803, 1989.00
1804, 1988.00
1805, 1988.00
1806, 1987.00
1807, 1984.00
1808, 1987.00
1809, 1985.00
1810, 1985.00
1811, 1986.00
1812, 1985.00
1813, 1983.00
1814, 1983.00
1815, 1983.00
1816, 1982.00
1817, 1982.00
1818, 1982.00
1819, 1981.00
1820, 1982.00
1821, 1979.00
1822, 1978.00
1823, 1976.00
1824, 1977.00
1825, 1974.00
1826, 1974.00
1827, 1973.00
1828, 1971.00
1829, 1971.00
1830, 1970.00
1831, 1969.00
1832, 1968.00
1833, 1967.00
1834, 1967.00
1835, 1964.00
1836, 1963.00
1837, 1963.00
1838, 1958.00
1839, 1956.00
1840, 1954.00
1841, 1957.00
1842, 1953.00
1843, 1952.00
1844, 1950.00
1845, 1947.00
1846, 1947.00
1847, 1947.00
1848, 1945.00
1849, 1943.00
1850, 1941.00
1851, 1939.00
1852, 1936.00
1853, 1936.00
1854, 1934.00
1855, 1932.00
1856, 1927.00
1857, 1927.00
1858, 1925.00
1859, 1925.00
1860, 1923.00
1861, 1922.00
1862, 1918.00
1863, 1918.00
1864, 1915.00
1865, 1917.00
1866, 1915.00
1867, 1914.00
1868, 1910.00
1869, 1912.00
1870, 1910.00
1871, 1909.00
1872, 1907.00
1873, 1907.00
1874, 1905.00
1875, 1906.00
1876, 1904.00
1877, 1904.00
1878, 1902.00
1879, 1901.00
1880, 1901.00
1881, 1900.00
1882, 1900.00
1883, 1899.00
1884, 1900.00
1885, 1899.00
1886, 1896.00
1887, 1898.00
1888, 1898.00
1889, 1895.00
1890, 1895.00
1891, 1896.00
1892, 1895.00
1893, 1894.00
1894, 1894.00
1895, 1894.00
1896, 1894.00
1897, 1893.00
1898, 1894.00
1899, 1892.00
1900, 1890.00
1901, 1892.00
1902, 1892.00
1903, 1891.00
1904, 1891.00
1905, 1891.00
1906, 1891.00
1907, 1891.00
1908, 1890.00
1909, 1889.00
1910, 1888.00
1911, 1890.00
1912, 1891.00
1913, 1889.00
1914, 1890.00
1915, 1891.00
1916, 1889.00
1917, 1888.00
1918, 1889.00
1919, 1889.00
1920, 1887.00
1921, 1887.00
1922, 1887.00
1923, 1888.00
1924, 1888.00
1925, 1889.00
1926, 1889.00
1927, 1888.00
1928, 1886.00
1929, 1887.00
1930, 1888.00
1931, 1889.00
1932, 1887.00
1933, 1888.00
1934, 1889.00
1935, 1889.00
1936, 1891.00
1937, 1888.00
1938, 1888.00
1939, 1888.00
1940, 1888.00
1941, 1887.00
1942, 1888.00
1943, 1888.00
1944, 1890.00
1945, 1890.00
1946, 1890.00
1947, 1891.00
1948, 1889.00
1949, 1888.00
1950, 1890.00
1951, 1891.00
1952, 1891.00
1953, 1890.00
1954, 1889.00
1955, 1892.00
1956, 1892.00
1957, 1892.00
1958, 1891.00
1959, 1892.00
1960, 1892.00
1961, 1892.00
1962, 1892.00
1963, 1894.00
1964, 1894.00
1965, 1894.00
1966, 1897.00
1967, 1897.00
1968, 1895.00
1969, 1897.00
1970, 1898.00
1971, 1896.00
1972, 1899.00
1973, 1899.00
1974, 1899.00
1975, 1897.00
1976, 1899.00
1977, 1899.00
1978, 1899.00
1979, 1901.00
1980, 1901.00
1981, 1901.00
1982, 1901.00
1983, 1902.00
1984, 1902.00
1985, 1903.00
1986, 1905.00
1987, 1906.00
1988, 1905.00
1989, 1905.00
1990, 1904.00
1991, 1905.00
1992, 1906.00
1993, 1903.00
1994, 1905.00
1995, 1907.00
1996, 1906.00
1997, 1908.00
1998, 1911.00
1999, 1907.00
2000, 1908.00
2001, 1910.00
2002, 1910.00
2003, 1911.00
2004, 1910.00
2005, 1912.00
2006, 1909.00
2007, 1911.00
2008, 1912.00
2009, 1913.00
2010, 1913.00
2011, 1914.00
2012, 1914.00
2013, 1916.00
2014, 1915.00
2015, 1914.00
2016, 1918.00
2017, 1914.00
2018, 1917.00
2019, 1917.00
2020, 1917.00
2021, 1919.00
2022, 1918.00
2023, 1919.00
2024, 1920.00
2025, 1922.00
2026, 1923.00
2027, 1921.00
2028, 1923.00
2029, 1922.00
2030, 1924.00
2031, 1924.00
2032, 1921.00
2033, 1923.00
2034, 1921.00
2035, 1925.00
2036, 1924.00
2037, 1926.00
2038, 1926.00
2039, 1927.00
2040, 1928.00
2041, 1928.00
2042, 1929.00
2043, 1929.00
2044, 1931.00
2045, 1929.00
2046, 1931.00
2047, 1932.00
2048, 1933.00
2049, 1933.00
2050, 1933.00
2051, 1934.00
2052, 1935.00
2053, 1935.00
2054, 1937.00
2055, 1935.00
2056, 1938.00
2057, 1939.00
2058, 1939.00
2059, 1939.00
2060, 1941.00
2061, 1938.00
2062, 1941.00
2063, 1941.00
2064, 1944.00
2065, 1942.00
2066, 1943.00
2067, 1944.00
2068, 1946.00
2069, 1945.00
2070, 1947.00
2071, 1948.00
2072, 1946.00
2073, 1950.00
2074, 1947.00
2075, 1951.00
2076, 1949.00
2077, 1951.00
2078, 1953.00
2079, 1953.00
2080, 1953.00
2081, 1953.00
2082, 1953.00
2083, 1955.00
2084, 1956.00
2085, 1956.00
2086, 1956.00
2087, 1958.00
2088, 1957.00
2089, 1957.00
2090, 1958.00
2091, 1959.00
2092, 1959.00
2093, 1961.00
2094, 1958.00
2095, 1960.00
2096, 1959.00
2097, 1962.00
2098, 1960.00
2099, 1961.00
2100, 1964.00
2101, 1961.00
2102, 1965.00
2103, 1963.00
2104, 1964.00
2105, 1965.00
2106, 1965.00
2107, 1966.00
2108, 1965.00
2109, 1967.00
2110, 1968.00
2111, 1968.00
2112, 1968.00
2113, 1968.00
2114, 1967.00
2115, 1966.00
2116, 1967.00
2117, 1968.00
2118, 1971.00
2119, 1968.00
2120, 1970.00
2121, 1971.00
2122, 1969.00
2123, 1971.00
2124, 1974.00
2125, 1972.00
2126, 1971.00
2127, 1972.00
2128, 1971.00
2129, 1972.00
2130, 1971.00
2131, 1974.00
2132, 1974.00
2133, 1973.00
2134, 1975.00
2135, 1973.00
2136, 1974.00
2137, 1973.00
2138, 1974.00
2139, 1975.00
2140, 1976.00
2141, 1976.00
2142, 1977.00
2143, 1977.00
2144, 1975.00
2145, 1977.00
2146, 1977.00
2147, 1977.00
2148, 1978.00
2149, 1977.00
2150, 1976.00
