FW version: 24
Log Version: 3.0.3

General Info:
       Command/Macro Performed,            Timestamp,             Device ID, COM Port, UART/I2C, Test Name, Host Major, Host Minor, Host Revision, Host Git Commit
            Single_measurement,  2023_07_18_10_50_31,       Insight2_F4_xxx,    USB-C,      USB,          ,          0,          1,             1,      4031237645

Show Spectrometer Status:
l0_version, f4_version, battery_perc, battery_mVolt, accelerometer_temp, accelerometer_x, accelerometer_y, accelerometer_z, compass_temp, compass_x, compass_y, compass_z, lamp_0, lamp_1, gain_0, gain_1
        17,         24,           71,          1982,               5888,           65272,            1228,           18800,            0,     65531,     65245,     18932,   2457,   2457,      1,      1

Temperature Statistic Info:
NTC AVG [°C], NTC2 AVG [°C]
      37.208,        36.920

Statistic Info:
M1:  num,      min,      max,   median,      AVG,      STD,M2:  num,      min,      max,   median,      AVG,      STD
     301,  1081.00,  1243.00,  1115.00,  1134.30,  50.0700,     401,  1513.00,  1614.00,  1557.00,  1558.91,  33.3803,

Measurements:
Wavelength, Data Amplitude
1350, 1107.00
1351, 1107.00
1352, 1105.00
1353, 1106.00
1354, 1104.00
1355, 1105.00
1356, 1105.00
1357, 1103.00
1358, 1103.00
1359, 1103.00
1360, 1102.00
1361, 1100.00
1362, 1101.00
1363, 1100.00
1364, 1099.00
1365, 1099.00
1366, 1097.00
1367, 1098.00
1368, 1097.00
1369, 1096.00
1370, 1096.00
1371, 1095.00
1372, 1094.00
1373, 1093.00
1374, 1093.00
1375, 1092.00
1376, 1091.00
1377, 1090.00
1378, 1090.00
1379, 1090.00
1380, 1089.00
1381, 1089.00
1382, 1089.00
1383, 1088.00
1384, 1088.00
1385, 1086.00
1386, 1086.00
1387, 1086.00
1388, 1085.00
1389, 1085.00
1390, 1085.00
1391, 1086.00
1392, 1085.00
1393, 1085.00
1394, 1084.00
1395, 1084.00
1396, 1084.00
1397, 1083.00
1398, 1083.00
1399, 1083.00
1400, 1082.00
1401, 1083.00
1402, 1083.00
1403, 1082.00
1404, 1083.00
1405, 1082.00
1406, 1082.00
1407, 1083.00
1408, 1082.00
1409, 1081.00
1410, 1082.00
1411, 1083.00
1412, 1082.00
1413, 1081.00
1414, 1081.00
1415, 1081.00
1416, 1082.00
1417, 1082.00
1418, 1082.00
1419, 1082.00
1420, 1082.00
1421, 1082.00
1422, 1081.00
1423, 1082.00
1424, 1083.00
1425, 1082.00
1426, 1083.00
1427, 1082.00
1428, 1082.00
1429, 1082.00
1430, 1084.00
1431, 1084.00
1432, 1083.00
1433, 1083.00
1434, 1084.00
1435, 1083.00
1436, 1084.00
1437, 1085.00
1438, 1085.00
1439, 1084.00
1440, 1084.00
1441, 1085.00
1442, 1085.00
1443, 1085.00
1444, 1086.00
1445, 1087.00
1446, 1087.00
1447, 1086.00
1448, 1088.00
1449, 1088.00
1450, 1088.00
1451, 1087.00
1452, 1088.00
1453, 1088.00
1454, 1090.00
1455, 1090.00
1456, 1089.00
1457, 1091.00
1458, 1090.00
1459, 1091.00
1460, 1092.00
1461, 1092.00
1462, 1092.00
1463, 1093.00
1464, 1094.00
1465, 1094.00
1466, 1094.00
1467, 1094.00
1468, 1095.00
1469, 1096.00
1470, 1097.00
1471, 1097.00
1472, 1098.00
1473, 1098.00
1474, 1099.00
1475, 1099.00
1476, 1099.00
1477, 1101.00
1478, 1101.00
1479, 1101.00
1480, 1101.00
1481, 1103.00
1482, 1103.00
1483, 1104.00
1484, 1105.00
1485, 1104.00
1486, 1106.00
1487, 1107.00
1488, 1107.00
1489, 1108.00
1490, 1109.00
1491, 1110.00
1492, 1110.00
1493, 1111.00
1494, 1112.00
1495, 1111.00
1496, 1113.00
1497, 1113.00
1498, 1114.00
1499, 1115.00
1500, 1115.00
1501, 1115.00
1502, 1117.00
1503, 1117.00
1504, 1118.00
1505, 1118.00
1506, 1120.00
1507, 1120.00
1508, 1121.00
1509, 1122.00
1510, 1122.00
1511, 1124.00
1512, 1124.00
1513, 1125.00
1514, 1126.00
1515, 1127.00
1516, 1126.00
1517, 1128.00
1518, 1128.00
1519, 1129.00
1520, 1130.00
1521, 1132.00
1522, 1132.00
1523, 1132.00
1524, 1134.00
1525, 1134.00
1526, 1135.00
1527, 1135.00
1528, 1136.00
1529, 1137.00
1530, 1137.00
1531, 1139.00
1532, 1140.00
1533, 1140.00
1534, 1142.00
1535, 1143.00
1536, 1143.00
1537, 1144.00
1538, 1144.00
1539, 1146.00
1540, 1145.00
1541, 1147.00
1542, 1149.00
1543, 1149.00
1544, 1150.00
1545, 1150.00
1546, 1152.00
1547, 1152.00
1548, 1153.00
1549, 1154.00
1550, 1155.00
1551, 1154.00
1552, 1156.00
1553, 1157.00
1554, 1157.00
1555, 1158.00
1556, 1159.00
1557, 1161.00
1558, 1160.00
1559, 1162.00
1560, 1162.00
1561, 1164.00
1562, 1165.00
1563, 1165.00
1564, 1166.00
1565, 1167.00
1566, 1169.00
1567, 1169.00
1568, 1169.00
1569, 1169.00
1570, 1171.00
1571, 1173.00
1572, 1173.00
1573, 1174.00
1574, 1174.00
1575, 1176.00
1576, 1175.00
1577, 1177.00
1578, 1177.00
1579, 1179.00
1580, 1179.00
1581, 1179.00
1582, 1181.00
1583, 1182.00
1584, 1183.00
1585, 1183.00
1586, 1185.00
1587, 1186.00
1588, 1186.00
1589, 1186.00
1590, 1187.00
1591, 1187.00
1592, 1189.00
1593, 1190.00
1594, 1190.00
1595, 1192.00
1596, 1192.00
1597, 1193.00
1598, 1194.00
1599, 1194.00
1600, 1195.00
1601, 1197.00
1602, 1197.00
1603, 1198.00
1604, 1200.00
1605, 1200.00
1606, 1201.00
1607, 1202.00
1608, 1203.00
1609, 1203.00
1610, 1204.00
1611, 1206.00
1612, 1207.00
1613, 1207.00
1614, 1208.00
1615, 1209.00
1616, 1210.00
1617, 1211.00
1618, 1213.00
1619, 1213.00
1620, 1215.00
1621, 1215.00
1622, 1215.00
1623, 1217.00
1624, 1219.00
1625, 1220.00
1626, 1221.00
1627, 1222.00
1628, 1224.00
1629, 1223.00
1630, 1225.00
1631, 1225.00
1632, 1226.00
1633, 1227.00
1634, 1228.00
1635, 1230.00
1636, 1230.00
1637, 1231.00
1638, 1232.00
1639, 1232.00
1640, 1233.00
1641, 1235.00
1642, 1236.00
1643, 1235.00
1644, 1237.00
1645, 1237.00
1646, 1239.00
1647, 1239.00
1648, 1240.00
1649, 1241.00
1650, 1243.00

1750, 1612.00
1751, 1614.00
1752, 1613.00
1753, 1612.00
1754, 1614.00
1755, 1612.00
1756, 1611.00
1757, 1612.00
1758, 1612.00
1759, 1614.00
1760, 1613.00
1761, 1613.00
1762, 1613.00
1763, 1613.00
1764, 1613.00
1765, 1614.00
1766, 1612.00
1767, 1612.00
1768, 1613.00
1769, 1613.00
1770, 1612.00
1771, 1612.00
1772, 1612.00
1773, 1610.00
1774, 1611.00
1775, 1609.00
1776, 1610.00
1777, 1609.00
1778, 1609.00
1779, 1611.00
1780, 1607.00
1781, 1609.00
1782, 1609.00
1783, 1607.00
1784, 1607.00
1785, 1607.00
1786, 1607.00
1787, 1606.00
1788, 1605.00
1789, 1606.00
1790, 1607.00
1791, 1605.00
1792, 1604.00
1793, 1606.00
1794, 1606.00
1795, 1604.00
1796, 1603.00
1797, 1605.00
1798, 1604.00
1799, 1602.00
1800, 1603.00
1801, 1602.00
1802, 1601.00
1803, 1602.00
1804, 1601.00
1805, 1601.00
1806, 1600.00
1807, 1602.00
1808, 1600.00
1809, 1601.00
1810, 1600.00
1811, 1600.00
1812, 1599.00
1813, 1598.00
1814, 1599.00
1815, 1598.00
1816, 1597.00
1817, 1598.00
1818, 1595.00
1819, 1595.00
1820, 1595.00
1821, 1594.00
1822, 1592.00
1823, 1593.00
1824, 1591.00
1825, 1593.00
1826, 1593.00
1827, 1589.00
1828, 1590.00
1829, 1589.00
1830, 1589.00
1831, 1585.00
1832, 1585.00
1833, 1585.00
1834, 1582.00
1835, 1581.00
1836, 1581.00
1837, 1579.00
1838, 1579.00
1839, 1576.00
1840, 1575.00
1841, 1572.00
1842, 1572.00
1843, 1573.00
1844, 1568.00
1845, 1568.00
1846, 1565.00
1847, 1565.00
1848, 1563.00
1849, 1561.00
1850, 1560.00
1851, 1559.00
1852, 1559.00
1853, 1555.00
1854, 1555.00
1855, 1554.00
1856, 1551.00
1857, 1550.00
1858, 1547.00
1859, 1545.00
1860, 1546.00
1861, 1543.00
1862, 1542.00
1863, 1541.00
1864, 1538.00
1865, 1540.00
1866, 1538.00
1867, 1535.00
1868, 1536.00
1869, 1534.00
1870, 1533.00
1871, 1532.00
1872, 1531.00
1873, 1531.00
1874, 1529.00
1875, 1527.00
1876, 1528.00
1877, 1527.00
1878, 1526.00
1879, 1525.00
1880, 1525.00
1881, 1525.00
1882, 1524.00
1883, 1525.00
1884, 1523.00
1885, 1523.00
1886, 1523.00
1887, 1523.00
1888, 1522.00
1889, 1519.00
1890, 1519.00
1891, 1521.00
1892, 1521.00
1893, 1520.00
1894, 1518.00
1895, 1518.00
1896, 1519.00
1897, 1519.00
1898, 1518.00
1899, 1517.00
1900, 1518.00
1901, 1517.00
1902, 1518.00
1903, 1518.00
1904, 1517.00
1905, 1518.00
1906, 1517.00
1907, 1515.00
1908, 1516.00
1909, 1517.00
1910, 1514.00
1911, 1516.00
1912, 1515.00
1913, 1514.00
1914, 1516.00
1915, 1516.00
1916, 1515.00
1917, 1515.00
1918, 1514.00
1919, 1515.00
1920, 1515.00
1921, 1515.00
1922, 1514.00
1923, 1516.00
1924, 1514.00
1925, 1513.00
1926, 1515.00
1927, 1513.00
1928, 1515.00
1929, 1514.00
1930, 1514.00
1931, 1514.00
1932, 1513.00
1933, 1515.00
1934, 1514.00
1935, 1514.00
1936, 1514.00
1937, 1516.00
1938, 1514.00
1939, 1513.00
1940, 1515.00
1941, 1516.00
1942, 1516.00
1943, 1515.00
1944, 1516.00
1945, 1517.00
1946, 1516.00
1947, 1516.00
1948, 1516.00
1949, 1517.00
1950, 1516.00
1951, 1518.00
1952, 1517.00
1953, 1517.00
1954, 1519.00
1955, 1518.00
1956, 1518.00
1957, 1517.00
1958, 1519.00
1959, 1519.00
1960, 1518.00
1961, 1521.00
1962, 1521.00
1963, 1520.00
1964, 1521.00
1965, 1520.00
1966, 1520.00
1967, 1521.00
1968, 1521.00
1969, 1523.00
1970, 1521.00
1971, 1521.00
1972, 1523.00
1973, 1523.00
1974, 1524.00
1975, 1524.00
1976, 1526.00
1977, 1526.00
1978, 1526.00
1979, 1525.00
1980, 1526.00
1981, 1529.00
1982, 1527.00
1983, 1527.00
1984, 1527.00
1985, 1527.00
1986, 1529.00
1987, 1529.00
1988, 1528.00
1989, 1529.00
1990, 1529.00
1991, 1531.00
1992, 1530.00
1993, 1531.00
1994, 1533.00
1995, 1532.00
1996, 1532.00
1997, 1532.00
1998, 1533.00
1999, 1531.00
2000, 1534.00
2001, 1535.00
2002, 1533.00
2003, 1535.00
2004, 1533.00
2005, 1537.00
2006, 1535.00
2007, 1536.00
2008, 1536.00
2009, 1538.00
2010, 1537.00
2011, 1538.00
2012, 1538.00
2013, 1539.00
2014, 1539.00
2015, 1537.00
2016, 1538.00
2017, 1539.00
2018, 1541.00
2019, 1540.00
2020, 1543.00
2021, 1541.00
2022, 1541.00
2023, 1543.00
2024, 1543.00
2025, 1544.00
2026, 1544.00
2027, 1545.00
2028, 1543.00
2029, 1544.00
2030, 1544.00
2031, 1545.00
2032, 1546.00
2033, 1547.00
2034, 1546.00
2035, 1546.00
2036, 1547.00
2037, 1547.00
2038, 1548.00
2039, 1549.00
2040, 1550.00
2041, 1549.00
2042, 1550.00
2043, 1549.00
2044, 1553.00
2045, 1552.00
2046, 1553.00
2047, 1554.00
2048, 1553.00
2049, 1554.00
2050, 1555.00
2051, 1557.00
2052, 1556.00
2053, 1557.00
2054, 1557.00
2055, 1557.00
2056, 1558.00
2057, 1560.00
2058, 1559.00
2059, 1560.00
2060, 1562.00
2061, 1562.00
2062, 1562.00
2063, 1562.00
2064, 1564.00
2065, 1564.00
2066, 1565.00
2067, 1566.00
2068, 1565.00
2069, 1566.00
2070, 1568.00
2071, 1568.00
2072, 1567.00
2073, 1569.00
2074, 1569.00
2075, 1570.00
2076, 1571.00
2077, 1570.00
2078, 1572.00
2079, 1572.00
2080, 1572.00
2081, 1574.00
2082, 1573.00
2083, 1574.00
2084, 1573.00
2085, 1576.00
2086, 1575.00
2087, 1575.00
2088, 1577.00
2089, 1576.00
2090, 1578.00
2091, 1578.00
2092, 1579.00
2093, 1579.00
2094, 1581.00
2095, 1579.00
2096, 1580.00
2097, 1581.00
2098, 1580.00
2099, 1582.00
2100, 1581.00
2101, 1581.00
2102, 1582.00
2103, 1582.00
2104, 1584.00
2105, 1583.00
2106, 1583.00
2107, 1585.00
2108, 1585.00
2109, 1585.00
2110, 1585.00
2111, 1583.00
2112, 1585.00
2113, 1586.00
2114, 1586.00
2115, 1586.00
2116, 1588.00
2117, 1585.00
2118, 1586.00
2119, 1587.00
2120, 1589.00
2121, 1587.00
2122, 1587.00
2123, 1588.00
2124, 1588.00
2125, 1589.00
2126, 1588.00
2127, 1589.00
2128, 1589.00
2129, 1590.00
2130, 1589.00
2131, 1588.00
2132, 1590.00
2133, 1590.00
2134, 1590.00
2135, 1593.00
2136, 1591.00
2137, 1591.00
2138, 1592.00
2139, 1593.00
2140, 1593.00
2141, 1592.00
2142, 1592.00
2143, 1593.00
2144, 1596.00
2145, 1592.00
2146, 1593.00
2147, 1594.00
2148, 1594.00
2149, 1595.00
2150, 1594.00
