FW version: 24
Log Version: 3.0.3

General Info:
       Command/Macro Performed,            Timestamp,             Device ID, COM Port, UART/I2C, Test Name, Host Major, Host Minor, Host Revision, Host Git Commit
            Single_measurement,  2023_07_18_10_51_09,       Insight2_F4_xxx,    USB-C,      USB,          ,          0,          1,             1,      4031237645

Show Spectrometer Status:
l0_version, f4_version, battery_perc, battery_mVolt, accelerometer_temp, accelerometer_x, accelerometer_y, accelerometer_z, compass_temp, compass_x, compass_y, compass_z, lamp_0, lamp_1, gain_0, gain_1
        17,         24,           71,          1982,               5920,           65272,            1024,           18760,            0,     65529,     65243,     18926,   3276,   3276,      1,      1

Temperature Statistic Info:
NTC AVG [°C], NTC2 AVG [°C]
      37.612,        37.266

Statistic Info:
M1:  num,      min,      max,   median,      AVG,      STD,M2:  num,      min,      max,   median,      AVG,      STD
     301,  1873.00,  2133.00,  1926.00,  1958.83,  80.6968,     401,  2429.00,  2590.00,  2495.00,  2499.06,  52.6312,

Measurements:
Wavelength, Data Amplitude
1350, 1919.00
1351, 1921.00
1352, 1919.00
1353, 1917.00
1354, 1917.00
1355, 1917.00
1356, 1916.00
1357, 1916.00
1358, 1914.00
1359, 1913.00
1360, 1913.00
1361, 1910.00
1362, 1910.00
1363, 1909.00
1364, 1908.00
1365, 1907.00
1366, 1905.00
1367, 1905.00
1368, 1901.00
1369, 1902.00
1370, 1900.00
1371, 1899.00
1372, 1897.00
1373, 1895.00
1374, 1896.00
1375, 1894.00
1376, 1892.00
1377, 1890.00
1378, 1889.00
1379, 1890.00
1380, 1888.00
1381, 1887.00
1382, 1888.00
1383, 1886.00
1384, 1885.00
1385, 1883.00
1386, 1884.00
1387, 1883.00
1388, 1882.00
1389, 1881.00
1390, 1881.00
1391, 1881.00
1392, 1880.00
1393, 1881.00
1394, 1879.00
1395, 1878.00
1396, 1878.00
1397, 1878.00
1398, 1879.00
1399, 1876.00
1400, 1877.00
1401, 1876.00
1402, 1877.00
1403, 1876.00
1404, 1875.00
1405, 1876.00
1406, 1877.00
1407, 1874.00
1408, 1874.00
1409, 1874.00
1410, 1874.00
1411, 1875.00
1412, 1875.00
1413, 1875.00
1414, 1874.00
1415, 1874.00
1416, 1874.00
1417, 1874.00
1418, 1874.00
1419, 1873.00
1420, 1874.00
1421, 1874.00
1422, 1873.00
1423, 1874.00
1424, 1874.00
1425, 1873.00
1426, 1874.00
1427, 1875.00
1428, 1874.00
1429, 1875.00
1430, 1874.00
1431, 1875.00
1432, 1877.00
1433, 1876.00
1434, 1876.00
1435, 1875.00
1436, 1878.00
1437, 1877.00
1438, 1877.00
1439, 1878.00
1440, 1879.00
1441, 1878.00
1442, 1879.00
1443, 1879.00
1444, 1879.00
1445, 1881.00
1446, 1880.00
1447, 1880.00
1448, 1881.00
1449, 1883.00
1450, 1883.00
1451, 1884.00
1452, 1884.00
1453, 1885.00
1454, 1885.00
1455, 1885.00
1456, 1887.00
1457, 1888.00
1458, 1887.00
1459, 1888.00
1460, 1889.00
1461, 1889.00
1462, 1890.00
1463, 1891.00
1464, 1892.00
1465, 1893.00
1466, 1893.00
1467, 1894.00
1468, 1895.00
1469, 1896.00
1470, 1897.00
1471, 1897.00
1472, 1899.00
1473, 1899.00
1474, 1900.00
1475, 1901.00
1476, 1902.00
1477, 1903.00
1478, 1903.00
1479, 1905.00
1480, 1905.00
1481, 1906.00
1482, 1908.00
1483, 1909.00
1484, 1910.00
1485, 1911.00
1486, 1913.00
1487, 1913.00
1488, 1914.00
1489, 1913.00
1490, 1916.00
1491, 1916.00
1492, 1917.00
1493, 1919.00
1494, 1919.00
1495, 1922.00
1496, 1922.00
1497, 1924.00
1498, 1925.00
1499, 1924.00
1500, 1926.00
1501, 1927.00
1502, 1929.00
1503, 1930.00
1504, 1931.00
1505, 1932.00
1506, 1934.00
1507, 1935.00
1508, 1935.00
1509, 1937.00
1510, 1937.00
1511, 1938.00
1512, 1938.00
1513, 1942.00
1514, 1941.00
1515, 1944.00
1516, 1945.00
1517, 1947.00
1518, 1948.00
1519, 1949.00
1520, 1950.00
1521, 1951.00
1522, 1953.00
1523, 1955.00
1524, 1956.00
1525, 1956.00
1526, 1957.00
1527, 1958.00
1528, 1960.00
1529, 1962.00
1530, 1963.00
1531, 1964.00
1532, 1966.00
1533, 1967.00
1534, 1969.00
1535, 1968.00
1536, 1970.00
1537, 1972.00
1538, 1974.00
1539, 1975.00
1540, 1975.00
1541, 1977.00
1542, 1980.00
1543, 1981.00
1544, 1981.00
1545, 1982.00
1546, 1984.00
1547, 1986.00
1548, 1987.00
1549, 1988.00
1550, 1988.00
1551, 1991.00
1552, 1993.00
1553, 1994.00
1554, 1995.00
1555, 1996.00
1556, 1997.00
1557, 1999.00
1558, 2001.00
1559, 2002.00
1560, 2003.00
1561, 2005.00
1562, 2005.00
1563, 2007.00
1564, 2011.00
1565, 2011.00
1566, 2012.00
1567, 2015.00
1568, 2015.00
1569, 2017.00
1570, 2017.00
1571, 2020.00
1572, 2021.00
1573, 2022.00
1574, 2023.00
1575, 2025.00
1576, 2027.00
1577, 2029.00
1578, 2030.00
1579, 2030.00
1580, 2031.00
1581, 2032.00
1582, 2034.00
1583, 2036.00
1584, 2037.00
1585, 2040.00
1586, 2040.00
1587, 2040.00
1588, 2042.00
1589, 2043.00
1590, 2045.00
1591, 2045.00
1592, 2046.00
1593, 2048.00
1594, 2050.00
1595, 2051.00
1596, 2053.00
1597, 2055.00
1598, 2056.00
1599, 2057.00
1600, 2058.00
1601, 2060.00
1602, 2061.00
1603, 2061.00
1604, 2064.00
1605, 2065.00
1606, 2067.00
1607, 2067.00
1608, 2069.00
1609, 2070.00
1610, 2073.00
1611, 2074.00
1612, 2075.00
1613, 2077.00
1614, 2080.00
1615, 2081.00
1616, 2083.00
1617, 2084.00
1618, 2086.00
1619, 2088.00
1620, 2089.00
1621, 2091.00
1622, 2093.00
1623, 2094.00
1624, 2096.00
1625, 2097.00
1626, 2099.00
1627, 2100.00
1628, 2103.00
1629, 2104.00
1630, 2105.00
1631, 2106.00
1632, 2107.00
1633, 2109.00
1634, 2111.00
1635, 2113.00
1636, 2113.00
1637, 2115.00
1638, 2116.00
1639, 2118.00
1640, 2119.00
1641, 2120.00
1642, 2122.00
1643, 2122.00
1644, 2125.00
1645, 2125.00
1646, 2127.00
1647, 2128.00
1648, 2130.00
1649, 2131.00
1650, 2133.00

1750, 2589.00
1751, 2588.00
1752, 2588.00
1753, 2590.00
1754, 2587.00
1755, 2589.00
1756, 2588.00
1757, 2589.00
1758, 2588.00
1759, 2588.00
1760, 2588.00
1761, 2587.00
1762, 2589.00
1763, 2587.00
1764, 2588.00
1765, 2586.00
1766, 2586.00
1767, 2587.00
1768, 2586.00
1769, 2586.00
1770, 2586.00
1771, 2585.00
1772, 2585.00
1773, 2584.00
1774, 2585.00
1775, 2585.00
1776, 2583.00
1777, 2582.00
1778, 2583.00
1779, 2581.00
1780, 2580.00
1781, 2582.00
1782, 2580.00
1783, 2576.00
1784, 2579.00
1785, 2577.00
1786, 2578.00
1787, 2578.00
1788, 2577.00
1789, 2577.00
1790, 2575.00
1791, 2575.00
1792, 2574.00
1793, 2573.00
1794, 2574.00
1795, 2572.00
1796, 2571.00
1797, 2572.00
1798, 2572.00
1799, 2570.00
1800, 2570.00
1801, 2569.00
1802, 2568.00
1803, 2569.00
1804, 2568.00
1805, 2566.00
1806, 2565.00
1807, 2566.00
1808, 2567.00
1809, 2564.00
1810, 2565.00
1811, 2564.00
1812, 2563.00
1813, 2563.00
1814, 2561.00
1815, 2563.00
1816, 2561.00
1817, 2559.00
1818, 2561.00
1819, 2561.00
1820, 2557.00
1821, 2555.00
1822, 2554.00
1823, 2555.00
1824, 2554.00
1825, 2554.00
1826, 2552.00
1827, 2549.00
1828, 2549.00
1829, 2547.00
1830, 2546.00
1831, 2543.00
1832, 2541.00
1833, 2540.00
1834, 2536.00
1835, 2536.00
1836, 2536.00
1837, 2533.00
1838, 2530.00
1839, 2529.00
1840, 2526.00
1841, 2524.00
1842, 2522.00
1843, 2519.00
1844, 2517.00
1845, 2513.00
1846, 2511.00
1847, 2509.00
1848, 2506.00
1849, 2504.00
1850, 2501.00
1851, 2501.00
1852, 2498.00
1853, 2495.00
1854, 2491.00
1855, 2490.00
1856, 2488.00
1857, 2485.00
1858, 2481.00
1859, 2480.00
1860, 2478.00
1861, 2475.00
1862, 2473.00
1863, 2472.00
1864, 2471.00
1865, 2467.00
1866, 2464.00
1867, 2463.00
1868, 2461.00
1869, 2460.00
1870, 2459.00
1871, 2458.00
1872, 2455.00
1873, 2455.00
1874, 2451.00
1875, 2452.00
1876, 2451.00
1877, 2449.00
1878, 2446.00
1879, 2447.00
1880, 2446.00
1881, 2448.00
1882, 2444.00
1883, 2444.00
1884, 2441.00
1885, 2440.00
1886, 2441.00
1887, 2440.00
1888, 2441.00
1889, 2441.00
1890, 2440.00
1891, 2439.00
1892, 2439.00
1893, 2437.00
1894, 2437.00
1895, 2437.00
1896, 2435.00
1897, 2435.00
1898, 2435.00
1899, 2436.00
1900, 2436.00
1901, 2434.00
1902, 2435.00
1903, 2433.00
1904, 2434.00
1905, 2433.00
1906, 2434.00
1907, 2433.00
1908, 2432.00
1909, 2431.00
1910, 2433.00
1911, 2431.00
1912, 2431.00
1913, 2431.00
1914, 2432.00
1915, 2431.00
1916, 2431.00
1917, 2429.00
1918, 2430.00
1919, 2431.00
1920, 2430.00
1921, 2429.00
1922, 2431.00
1923, 2430.00
1924, 2431.00
1925, 2431.00
1926, 2430.00
1927, 2430.00
1928, 2430.00
1929, 2429.00
1930, 2429.00
1931, 2430.00
1932, 2429.00
1933, 2431.00
1934, 2429.00
1935, 2429.00
1936, 2431.00
1937, 2431.00
1938, 2430.00
1939, 2431.00
1940, 2433.00
1941, 2431.00
1942, 2431.00
1943, 2432.00
1944, 2432.00
1945, 2432.00
1946, 2433.00
1947, 2432.00
1948, 2433.00
1949, 2433.00
1950, 2434.00
1951, 2433.00
1952, 2435.00
1953, 2434.00
1954, 2433.00
1955, 2435.00
1956, 2436.00
1957, 2436.00
1958, 2437.00
1959, 2437.00
1960, 2437.00
1961, 2437.00
1962, 2438.00
1963, 2438.00
1964, 2440.00
1965, 2439.00
1966, 2440.00
1967, 2440.00
1968, 2440.00
1969, 2443.00
1970, 2442.00
1971, 2443.00
1972, 2444.00
1973, 2444.00
1974, 2444.00
1975, 2445.00
1976, 2445.00
1977, 2446.00
1978, 2448.00
1979, 2447.00
1980, 2448.00
1981, 2449.00
1982, 2449.00
1983, 2451.00
1984, 2449.00
1985, 2450.00
1986, 2452.00
1987, 2451.00
1988, 2453.00
1989, 2453.00
1990, 2453.00
1991, 2453.00
1992, 2455.00
1993, 2456.00
1994, 2455.00
1995, 2456.00
1996, 2458.00
1997, 2457.00
1998, 2458.00
1999, 2457.00
2000, 2459.00
2001, 2458.00
2002, 2459.00
2003, 2459.00
2004, 2461.00
2005, 2461.00
2006, 2463.00
2007, 2462.00
2008, 2463.00
2009, 2464.00
2010, 2466.00
2011, 2466.00
2012, 2464.00
2013, 2466.00
2014, 2466.00
2015, 2466.00
2016, 2468.00
2017, 2470.00
2018, 2471.00
2019, 2469.00
2020, 2469.00
2021, 2471.00
2022, 2472.00
2023, 2473.00
2024, 2474.00
2025, 2474.00
2026, 2474.00
2027, 2475.00
2028, 2476.00
2029, 2473.00
2030, 2477.00
2031, 2477.00
2032, 2476.00
2033, 2478.00
2034, 2479.00
2035, 2478.00
2036, 2480.00
2037, 2480.00
2038, 2480.00
2039, 2483.00
2040, 2485.00
2041, 2484.00
2042, 2487.00
2043, 2487.00
2044, 2487.00
2045, 2487.00
2046, 2489.00
2047, 2488.00
2048, 2492.00
2049, 2491.00
2050, 2493.00
2051, 2493.00
2052, 2494.00
2053, 2494.00
2054, 2497.00
2055, 2497.00
2056, 2498.00
2057, 2498.00
2058, 2499.00
2059, 2500.00
2060, 2500.00
2061, 2502.00
2062, 2501.00
2063, 2504.00
2064, 2504.00
2065, 2505.00
2066, 2505.00
2067, 2507.00
2068, 2509.00
2069, 2510.00
2070, 2509.00
2071, 2510.00
2072, 2512.00
2073, 2513.00
2074, 2514.00
2075, 2515.00
2076, 2514.00
2077, 2516.00
2078, 2516.00
2079, 2519.00
2080, 2518.00
2081, 2519.00
2082, 2521.00
2083, 2519.00
2084, 2522.00
2085, 2523.00
2086, 2523.00
2087, 2522.00
2088, 2526.00
2089, 2523.00
2090, 2527.00
2091, 2527.00
2092, 2528.00
2093, 2529.00
2094, 2528.00
2095, 2529.00
2096, 2529.00
2097, 2529.00
2098, 2531.00
2099, 2531.00
2100, 2531.00
2101, 2532.00
2102, 2533.00
2103, 2533.00
2104, 2533.00
2105, 2535.00
2106, 2535.00
2107, 2535.00
2108, 2534.00
2109, 2536.00
2110, 2536.00
2111, 2536.00
2112, 2537.00
2113, 2537.00
2114, 2538.00
2115, 2538.00
2116, 2538.00
2117, 2538.00
2118, 2539.00
2119, 2539.00
2120, 2541.00
2121, 2540.00
2122, 2541.00
2123, 2543.00
2124, 2542.00
2125, 2542.00
2126, 2542.00
2127, 2542.00
2128, 2541.00
2129, 2542.00
2130, 2543.00
2131, 2543.00
2132, 2544.00
2133, 2545.00
2134, 2545.00
2135, 2547.00
2136, 2546.00
2137, 2546.00
2138, 2546.00
2139, 2547.00
2140, 2548.00
2141, 2547.00
2142, 2548.00
2143, 2549.00
2144, 2548.00
2145, 2550.00
2146, 2550.00
2147, 2550.00
2148, 2548.00
2149, 2548.00
2150, 2549.00
