FW version: 24
Log Version: 3.0.3

General Info:
       Command/Macro Performed,            Timestamp,             Device ID, COM Port, UART/I2C, Test Name, Host Major, Host Minor, Host Revision, Host Git Commit
            Single_measurement,  2023_07_18_10_50_03,       Insight2_F4_xxx,    USB-C,      USB,          ,          0,          1,             1,      4031237645

Show Spectrometer Status:
l0_version, f4_version, battery_perc, battery_mVolt, accelerometer_temp, accelerometer_x, accelerometer_y, accelerometer_z, compass_temp, compass_x, compass_y, compass_z, lamp_0, lamp_1, gain_0, gain_1
        17,         24,           71,          1982,               5856,           65256,             976,           18820,            0,     65518,     65501,     18917,   2047,   2047,      1,      1

Temperature Statistic Info:
NTC AVG [°C], NTC2 AVG [°C]
      36.948,        36.693

Statistic Info:
M1:  num,      min,      max,   median,      AVG,      STD,M2:  num,      min,      max,   median,      AVG,      STD
     301,   745.00,   860.00,   771.00,   784.50,  36.0277,     401,  1099.00,  1173.00,  1131.00,  1133.28,  24.3740,

Measurements:
Wavelength, Data Amplitude
1350, 762.00
1351, 763.00
1352, 762.00
1353, 761.00
1354, 762.00
1355, 761.00
1356, 762.00
1357, 760.00
1358, 761.00
1359, 759.00
1360, 760.00
1361, 759.00
1362, 759.00
1363, 759.00
1364, 758.00
1365, 757.00
1366, 757.00
1367, 756.00
1368, 755.00
1369, 755.00
1370, 756.00
1371, 755.00
1372, 754.00
1373, 753.00
1374, 754.00
1375, 753.00
1376, 752.00
1377, 752.00
1378, 751.00
1379, 752.00
1380, 751.00
1381, 751.00
1382, 751.00
1383, 750.00
1384, 750.00
1385, 749.00
1386, 750.00
1387, 749.00
1388, 749.00
1389, 748.00
1390, 749.00
1391, 749.00
1392, 748.00
1393, 747.00
1394, 747.00
1395, 747.00
1396, 748.00
1397, 748.00
1398, 748.00
1399, 747.00
1400, 747.00
1401, 747.00
1402, 747.00
1403, 746.00
1404, 748.00
1405, 747.00
1406, 747.00
1407, 746.00
1408, 746.00
1409, 746.00
1410, 748.00
1411, 747.00
1412, 747.00
1413, 747.00
1414, 747.00
1415, 747.00
1416, 747.00
1417, 746.00
1418, 746.00
1419, 747.00
1420, 746.00
1421, 745.00
1422, 746.00
1423, 747.00
1424, 746.00
1425, 747.00
1426, 746.00
1427, 747.00
1428, 747.00
1429, 747.00
1430, 747.00
1431, 747.00
1432, 747.00
1433, 747.00
1434, 748.00
1435, 748.00
1436, 748.00
1437, 748.00
1438, 750.00
1439, 749.00
1440, 750.00
1441, 749.00
1442, 749.00
1443, 749.00
1444, 749.00
1445, 750.00
1446, 749.00
1447, 751.00
1448, 751.00
1449, 751.00
1450, 752.00
1451, 751.00
1452, 752.00
1453, 751.00
1454, 753.00
1455, 753.00
1456, 753.00
1457, 753.00
1458, 752.00
1459, 754.00
1460, 754.00
1461, 754.00
1462, 754.00
1463, 755.00
1464, 755.00
1465, 755.00
1466, 756.00
1467, 756.00
1468, 757.00
1469, 757.00
1470, 758.00
1471, 758.00
1472, 759.00
1473, 757.00
1474, 759.00
1475, 759.00
1476, 760.00
1477, 760.00
1478, 761.00
1479, 763.00
1480, 763.00
1481, 762.00
1482, 763.00
1483, 763.00
1484, 763.00
1485, 764.00
1486, 764.00
1487, 765.00
1488, 766.00
1489, 766.00
1490, 767.00
1491, 767.00
1492, 768.00
1493, 768.00
1494, 768.00
1495, 769.00
1496, 770.00
1497, 769.00
1498, 770.00
1499, 771.00
1500, 771.00
1501, 772.00
1502, 773.00
1503, 774.00
1504, 774.00
1505, 773.00
1506, 775.00
1507, 776.00
1508, 776.00
1509, 776.00
1510, 777.00
1511, 777.00
1512, 777.00
1513, 779.00
1514, 779.00
1515, 780.00
1516, 781.00
1517, 781.00
1518, 782.00
1519, 782.00
1520, 782.00
1521, 783.00
1522, 784.00
1523, 784.00
1524, 785.00
1525, 786.00
1526, 786.00
1527, 787.00
1528, 787.00
1529, 787.00
1530, 788.00
1531, 790.00
1532, 789.00
1533, 790.00
1534, 791.00
1535, 791.00
1536, 792.00
1537, 792.00
1538, 793.00
1539, 794.00
1540, 795.00
1541, 795.00
1542, 795.00
1543, 796.00
1544, 797.00
1545, 797.00
1546, 799.00
1547, 799.00
1548, 799.00
1549, 800.00
1550, 800.00
1551, 801.00
1552, 802.00
1553, 802.00
1554, 802.00
1555, 803.00
1556, 804.00
1557, 805.00
1558, 804.00
1559, 806.00
1560, 806.00
1561, 807.00
1562, 807.00
1563, 808.00
1564, 809.00
1565, 809.00
1566, 809.00
1567, 810.00
1568, 810.00
1569, 812.00
1570, 812.00
1571, 813.00
1572, 813.00
1573, 814.00
1574, 814.00
1575, 815.00
1576, 815.00
1577, 815.00
1578, 817.00
1579, 816.00
1580, 818.00
1581, 817.00
1582, 819.00
1583, 820.00
1584, 820.00
1585, 820.00
1586, 821.00
1587, 821.00
1588, 821.00
1589, 822.00
1590, 823.00
1591, 824.00
1592, 824.00
1593, 825.00
1594, 825.00
1595, 825.00
1596, 826.00
1597, 827.00
1598, 827.00
1599, 827.00
1600, 828.00
1601, 829.00
1602, 829.00
1603, 831.00
1604, 831.00
1605, 832.00
1606, 833.00
1607, 833.00
1608, 834.00
1609, 833.00
1610, 834.00
1611, 835.00
1612, 837.00
1613, 837.00
1614, 837.00
1615, 839.00
1616, 840.00
1617, 840.00
1618, 840.00
1619, 842.00
1620, 842.00
1621, 843.00
1622, 844.00
1623, 845.00
1624, 845.00
1625, 845.00
1626, 846.00
1627, 847.00
1628, 847.00
1629, 848.00
1630, 849.00
1631, 849.00
1632, 850.00
1633, 850.00
1634, 851.00
1635, 852.00
1636, 852.00
1637, 853.00
1638, 853.00
1639, 854.00
1640, 855.00
1641, 855.00
1642, 855.00
1643, 856.00
1644, 856.00
1645, 857.00
1646, 857.00
1647, 857.00
1648, 859.00
1649, 859.00
1650, 860.00

1750, 1172.00
1751, 1170.00
1752, 1173.00
1753, 1171.00
1754, 1172.00
1755, 1171.00
1756, 1172.00
1757, 1171.00
1758, 1172.00
1759, 1172.00
1760, 1172.00
1761, 1171.00
1762, 1171.00
1763, 1172.00
1764, 1170.00
1765, 1170.00
1766, 1171.00
1767, 1171.00
1768, 1171.00
1769, 1170.00
1770, 1169.00
1771, 1170.00
1772, 1169.00
1773, 1172.00
1774, 1171.00
1775, 1169.00
1776, 1169.00
1777, 1170.00
1778, 1170.00
1779, 1170.00
1780, 1169.00
1781, 1171.00
1782, 1168.00
1783, 1168.00
1784, 1166.00
1785, 1167.00
1786, 1168.00
1787, 1167.00
1788, 1166.00
1789, 1167.00
1790, 1166.00
1791, 1167.00
1792, 1167.00
1793, 1166.00
1794, 1166.00
1795, 1164.00
1796, 1166.00
1797, 1165.00
1798, 1165.00
1799, 1165.00
1800, 1164.00
1801, 1164.00
1802, 1164.00
1803, 1162.00
1804, 1162.00
1805, 1163.00
1806, 1162.00
1807, 1162.00
1808, 1165.00
1809, 1161.00
1810, 1164.00
1811, 1163.00
1812, 1161.00
1813, 1162.00
1814, 1160.00
1815, 1162.00
1816, 1159.00
1817, 1161.00
1818, 1159.00
1819, 1159.00
1820, 1158.00
1821, 1160.00
1822, 1158.00
1823, 1157.00
1824, 1157.00
1825, 1158.00
1826, 1156.00
1827, 1156.00
1828, 1155.00
1829, 1153.00
1830, 1153.00
1831, 1153.00
1832, 1152.00
1833, 1152.00
1834, 1149.00
1835, 1147.00
1836, 1148.00
1837, 1149.00
1838, 1147.00
1839, 1146.00
1840, 1145.00
1841, 1144.00
1842, 1142.00
1843, 1141.00
1844, 1140.00
1845, 1139.00
1846, 1137.00
1847, 1138.00
1848, 1136.00
1849, 1134.00
1850, 1134.00
1851, 1134.00
1852, 1131.00
1853, 1131.00
1854, 1129.00
1855, 1128.00
1856, 1128.00
1857, 1126.00
1858, 1124.00
1859, 1123.00
1860, 1123.00
1861, 1121.00
1862, 1123.00
1863, 1119.00
1864, 1119.00
1865, 1117.00
1866, 1116.00
1867, 1116.00
1868, 1115.00
1869, 1115.00
1870, 1112.00
1871, 1112.00
1872, 1113.00
1873, 1112.00
1874, 1112.00
1875, 1110.00
1876, 1110.00
1877, 1110.00
1878, 1109.00
1879, 1108.00
1880, 1108.00
1881, 1107.00
1882, 1108.00
1883, 1107.00
1884, 1106.00
1885, 1105.00
1886, 1107.00
1887, 1105.00
1888, 1106.00
1889, 1105.00
1890, 1106.00
1891, 1105.00
1892, 1105.00
1893, 1104.00
1894, 1103.00
1895, 1103.00
1896, 1102.00
1897, 1103.00
1898, 1103.00
1899, 1104.00
1900, 1103.00
1901, 1104.00
1902, 1102.00
1903, 1102.00
1904, 1104.00
1905, 1103.00
1906, 1103.00
1907, 1102.00
1908, 1101.00
1909, 1100.00
1910, 1101.00
1911, 1102.00
1912, 1101.00
1913, 1101.00
1914, 1102.00
1915, 1100.00
1916, 1099.00
1917, 1101.00
1918, 1101.00
1919, 1100.00
1920, 1101.00
1921, 1101.00
1922, 1099.00
1923, 1101.00
1924, 1101.00
1925, 1101.00
1926, 1101.00
1927, 1101.00
1928, 1099.00
1929, 1102.00
1930, 1101.00
1931, 1100.00
1932, 1102.00
1933, 1100.00
1934, 1102.00
1935, 1099.00
1936, 1101.00
1937, 1100.00
1938, 1101.00
1939, 1101.00
1940, 1102.00
1941, 1101.00
1942, 1101.00
1943, 1102.00
1944, 1101.00
1945, 1103.00
1946, 1101.00
1947, 1102.00
1948, 1104.00
1949, 1102.00
1950, 1103.00
1951, 1102.00
1952, 1104.00
1953, 1103.00
1954, 1102.00
1955, 1104.00
1956, 1104.00
1957, 1103.00
1958, 1104.00
1959, 1105.00
1960, 1106.00
1961, 1104.00
1962, 1105.00
1963, 1106.00
1964, 1104.00
1965, 1106.00
1966, 1105.00
1967, 1105.00
1968, 1107.00
1969, 1107.00
1970, 1107.00
1971, 1108.00
1972, 1106.00
1973, 1107.00
1974, 1107.00
1975, 1108.00
1976, 1109.00
1977, 1109.00
1978, 1109.00
1979, 1109.00
1980, 1109.00
1981, 1109.00
1982, 1109.00
1983, 1110.00
1984, 1111.00
1985, 1112.00
1986, 1111.00
1987, 1111.00
1988, 1112.00
1989, 1113.00
1990, 1111.00
1991, 1111.00
1992, 1114.00
1993, 1113.00
1994, 1113.00
1995, 1113.00
1996, 1113.00
1997, 1114.00
1998, 1115.00
1999, 1114.00
2000, 1116.00
2001, 1115.00
2002, 1115.00
2003, 1115.00
2004, 1115.00
2005, 1116.00
2006, 1116.00
2007, 1115.00
2008, 1117.00
2009, 1117.00
2010, 1116.00
2011, 1118.00
2012, 1118.00
2013, 1119.00
2014, 1119.00
2015, 1119.00
2016, 1119.00
2017, 1118.00
2018, 1120.00
2019, 1120.00
2020, 1120.00
2021, 1120.00
2022, 1121.00
2023, 1122.00
2024, 1123.00
2025, 1122.00
2026, 1122.00
2027, 1123.00
2028, 1123.00
2029, 1122.00
2030, 1123.00
2031, 1124.00
2032, 1125.00
2033, 1124.00
2034, 1126.00
2035, 1125.00
2036, 1125.00
2037, 1124.00
2038, 1126.00
2039, 1127.00
2040, 1126.00
2041, 1126.00
2042, 1127.00
2043, 1128.00
2044, 1128.00
2045, 1127.00
2046, 1129.00
2047, 1130.00
2048, 1129.00
2049, 1130.00
2050, 1130.00
2051, 1131.00
2052, 1132.00
2053, 1134.00
2054, 1130.00
2055, 1133.00
2056, 1133.00
2057, 1135.00
2058, 1134.00
2059, 1134.00
2060, 1136.00
2061, 1137.00
2062, 1136.00
2063, 1137.00
2064, 1137.00
2065, 1137.00
2066, 1137.00
2067, 1140.00
2068, 1139.00
2069, 1139.00
2070, 1138.00
2071, 1140.00
2072, 1141.00
2073, 1140.00
2074, 1143.00
2075, 1142.00
2076, 1143.00
2077, 1143.00
2078, 1143.00
2079, 1144.00
2080, 1144.00
2081, 1142.00
2082, 1144.00
2083, 1145.00
2084, 1145.00
2085, 1146.00
2086, 1148.00
2087, 1148.00
2088, 1148.00
2089, 1147.00
2090, 1149.00
2091, 1148.00
2092, 1150.00
2093, 1148.00
2094, 1151.00
2095, 1149.00
2096, 1150.00
2097, 1151.00
2098, 1150.00
2099, 1150.00
2100, 1152.00
2101, 1153.00
2102, 1150.00
2103, 1152.00
2104, 1153.00
2105, 1153.00
2106, 1152.00
2107, 1152.00
2108, 1155.00
2109, 1153.00
2110, 1153.00
2111, 1153.00
2112, 1154.00
2113, 1156.00
2114, 1153.00
2115, 1154.00
2116, 1155.00
2117, 1156.00
2118, 1155.00
2119, 1154.00
2120, 1157.00
2121, 1156.00
2122, 1156.00
2123, 1157.00
2124, 1156.00
2125, 1157.00
2126, 1156.00
2127, 1157.00
2128, 1156.00
2129, 1157.00
2130, 1156.00
2131, 1157.00
2132, 1159.00
2133, 1158.00
2134, 1158.00
2135, 1158.00
2136, 1159.00
2137, 1160.00
2138, 1158.00
2139, 1158.00
2140, 1159.00
2141, 1160.00
2142, 1160.00
2143, 1160.00
2144, 1160.00
2145, 1161.00
2146, 1160.00
2147, 1161.00
2148, 1161.00
2149, 1161.00
2150, 1159.00
